##TITLE=1,3-Butadiene
##JCAMP-DX=4.24
##DATA TYPE=INFRARED SPECTRUM
##CLASS=COBLENTZ
##ORIGIN=DOW CHEMICAL COMPANY
##OWNER=Copyright (C) 1987 by the Coblentz Society
Collection (C) 2018 copyright by the U.S. Secretary of Commerce
on behalf of the United States of America. All rights reserved.
##DATE=1964
##CAS REGISTRY NO=106-99-0
##MOLFORM=C4 H6
##SOURCE REFERENCE=COBLENTZ NO. 8862
##$NIST SOURCE=COBLENTZ
##$NIST IMAGE=cob8862
##SPECTROMETER/DATA SYSTEM=DOW KBr FOREPRISM-GRATING
##INSTRUMENT PARAMETERS=GRATING CHANGED AT 5.0, 7.5, 15.0 MICRON
##STATE=GAS (100 mmHg, N2 ADDED, TOTAL PRESSURE 600 mmHg)
##PATH LENGTH=5 CM
##SAMPLING PROCEDURE=TRANSMISSION
##RESOLUTION=2
##DATA PROCESSING=DIGITIZED BY COBLENTZ SOCIETY (BATCH II) FROM HARD COPY
##XUNITS=1/CM
##YUNITS=TRANSMITTANCE
##XFACTOR=1.0
##YFACTOR=1
##FIRSTX=457
##LASTX=3798
##FIRSTY=0.8827
##MAXX=3798
##MINX=457
##MAXY=0.9306
##MINY=0.0099
##NPOINTS=3342
##XYDATA=(X++(Y..Y))
457.000000 0.8827 0.8816 0.8828 0.8795 0.8783
462.000000 0.8767 0.8751 0.8736 0.8718 0.8697
467.000000 0.8676 0.8655 0.8634 0.8608 0.8577
472.000000 0.8545 0.8514 0.8482 0.8451 0.8419
477.000000 0.8384 0.8345 0.8306 0.8266 0.8227
482.000000 0.8188 0.8148 0.8109 0.8067 0.8025
487.000000 0.7983 0.7941 0.7899 0.7857 0.7815
492.000000 0.7775 0.7737 0.7698 0.7660 0.7622
497.000000 0.7583 0.7545 0.7507 0.7469 0.7424
502.000000 0.7377 0.7330 0.7282 0.7235 0.7188
507.000000 0.7143 0.7098 0.7054 0.7009 0.6969
512.000000 0.6929 0.6889 0.6855 0.6824 0.6792
517.000000 0.6760 0.6717 0.6672 0.6590 0.6444
522.000000 0.6333 0.6247 0.5895 0.5537 0.5257
527.000000 0.5393 0.5607 0.5292 0.4513 0.4506
532.000000 0.4514 0.6813 0.6825 0.6824 0.6833
537.000000 0.6808 0.6793 0.6768 0.6741 0.6715
542.000000 0.6692 0.6677 0.6651 0.6674 0.6685
547.000000 0.6699 0.6745 0.6820 0.6894 0.6968
552.000000 0.7043 0.7117 0.7191 0.7266 0.7340
557.000000 0.7414 0.7489 0.7563 0.7636 0.7718
562.000000 0.7824 0.7903 0.7961 0.8019 0.8077
567.000000 0.8140 0.8203 0.8266 0.8329 0.8392
572.000000 0.8455 0.8518 0.8572 0.8609 0.8646
577.000000 0.8683 0.8720 0.8757 0.8795 0.8832
582.000000 0.8870 0.8907 0.8936 0.8962 0.8988
587.000000 0.9014 0.9040 0.9065 0.9083 0.9100
592.000000 0.9118 0.9135 0.9152 0.9163 0.9174
597.000000 0.9185 0.9195 0.9200 0.9205 0.9210
602.000000 0.9215 0.9220 0.9225 0.9233 0.9241
607.000000 0.9249 0.9257 0.9264 0.9268 0.9272
612.000000 0.9276 0.9279 0.9283 0.9287 0.9291
617.000000 0.9295 0.9298 0.9302 0.9303 0.9304
622.000000 0.9305 0.9306 0.9304 0.9301 0.9299
627.000000 0.9296 0.9294 0.9291 0.9289 0.9287
632.000000 0.9284 0.9281 0.9278 0.9275 0.9271
637.000000 0.9268 0.9265 0.9261 0.9258 0.9254
642.000000 0.9244 0.9235 0.9226 0.9216 0.9207
647.000000 0.9198 0.9188 0.9177 0.9161 0.9146
652.000000 0.9136 0.9127 0.9118 0.9109 0.9111
657.000000 0.9114 0.9116 0.9119 0.9121 0.9122
662.000000 0.9123 0.9123 0.9121 0.9118 0.9108
667.000000 0.9091 0.9074 0.8711 0.8337 0.8144
672.000000 0.8346 0.8658 0.8971 0.9065 0.9077
677.000000 0.9089 0.9095 0.9100 0.9104 0.9103
682.000000 0.9101 0.9100 0.9099 0.9098 0.9097
687.000000 0.9095 0.9091 0.9090 0.9093 0.9095
692.000000 0.9098 0.9100 0.9103 0.9107 0.9112
697.000000 0.9117 0.9122 0.9127 0.9134 0.9140
702.000000 0.9146 0.9152 0.9159 0.9164 0.9168
707.000000 0.9173 0.9177 0.9181 0.9185 0.9187
712.000000 0.9189 0.9192 0.9194 0.9189 0.9196
717.000000 0.9195 0.9193 0.9192 0.9191 0.9189
722.000000 0.9186 0.9180 0.9175 0.9170 0.9165
727.000000 0.9159 0.9153 0.9147 0.9141 0.9135
732.000000 0.9129 0.9123 0.9117 0.9111 0.9106
737.000000 0.9102 0.9097 0.9093 0.9089 0.9084
742.000000 0.9080 0.9076 0.9074 0.9073 0.9071
747.000000 0.9069 0.9068 0.9066 0.9064 0.9063
752.000000 0.9061 0.9060 0.9059 0.9058 0.9057
757.000000 0.9056 0.9055 0.9054 0.9054 0.9055
762.000000 0.9057 0.9059 0.9061 0.9063 0.9066
767.000000 0.9068 0.9070 0.9072 0.9074 0.9075
772.000000 0.9077 0.9078 0.9080 0.9081 0.9083
777.000000 0.9084 0.9086 0.9087 0.9089 0.9090
782.000000 0.9092 0.9091 0.9090 0.9089 0.9088
787.000000 0.9087 0.9086 0.9084 0.9083 0.9082
792.000000 0.9081 0.9080 0.9078 0.9074 0.9071
797.000000 0.9067 0.9063 0.9059 0.9056 0.9052
802.000000 0.9048 0.9044 0.9039 0.9035 0.9030
807.000000 0.9026 0.9021 0.9016 0.9012 0.9007
812.000000 0.9003 0.8998 0.8994 0.8987 0.8977
817.000000 0.8966 0.8956 0.8946 0.8936 0.8926
822.000000 0.8916 0.8906 0.8889 0.8872 0.8855
827.000000 0.8838 0.8821 0.8804 0.8779 0.8753
832.000000 0.8726 0.8699 0.8666 0.8630 0.8593
837.000000 0.8557 0.8520 0.8468 0.8413 0.8357
842.000000 0.8299 0.8231 0.8163 0.8094 0.8026
847.000000 0.7950 0.7871 0.7793 0.7701 0.7500
852.000000 0.7252 0.7059 0.6911 0.6766 0.6642
857.000000 0.6517 0.6380 0.6216 0.6052 0.5888
862.000000 0.5724 0.5560 0.5396 0.5232 0.5068
867.000000 0.4729 0.4465 0.4103 0.3617 0.3343
872.000000 0.3182 0.3055 0.2943 0.2844 0.2746
877.000000 0.2649 0.2557 0.2465 0.2372 0.2274
882.000000 0.2172 0.2044 0.1945 0.1880 0.1815
887.000000 0.1744 0.1670 0.1593 0.1512 0.1430
892.000000 0.1338 0.1274 0.1228 0.1243 0.1259
897.000000 0.1286 0.1311 0.1333 0.1336 0.1335
902.000000 0.1322 0.1123 0.0913 0.0704 0.0494
907.000000 0.0284 0.0099 0.0111 0.0166 0.0696
912.000000 0.1155 0.1155 0.1158 0.1118 0.1084
917.000000 0.1040 0.0992 0.0951 0.0932 0.0926
922.000000 0.0920 0.0918 0.0916 0.0919 0.0899
927.000000 0.0962 0.0986 0.1017 0.1060 0.1104
932.000000 0.1170 0.1239 0.1338 0.1443 0.1599
937.000000 0.1726 0.1840 0.2027 0.2243 0.2415
942.000000 0.2727 0.2953 0.3178 0.3404 0.3630
947.000000 0.3855 0.4081 0.4306 0.4532 0.4758
952.000000 0.4983 0.5209 0.5422 0.5544 0.5633
957.000000 0.5706 0.5779 0.5850 0.5919 0.5988
962.000000 0.6051 0.6088 0.6125 0.6151 0.6158
967.000000 0.6187 0.6160 0.6157 0.6145 0.6127
972.000000 0.6087 0.5999 0.5887 0.5769 0.5667
977.000000 0.5565 0.5472 0.5382 0.5291 0.4878
982.000000 0.4315 0.3849 0.3769 0.3615 0.3543
987.000000 0.3529 0.3652 0.3775 0.3899 0.3837
992.000000 0.2881 0.2293 0.2199 0.2144 0.2140
997.000000 0.2131 0.2128 0.2311 0.2417 0.2523
1002.000000 0.2629 0.2727 0.2754 0.2708 0.2673
1007.000000 0.2588 0.2472 0.2356 0.2075 0.1783
1012.000000 0.1490 0.1197 0.0860 0.0914 0.1184
1017.000000 0.1354 0.1382 0.3246 0.3263 0.3255
1022.000000 0.3241 0.3211 0.3161 0.3143 0.3136
1027.000000 0.3138 0.3143 0.3157 0.3178 0.3300
1032.000000 0.3372 0.3444 0.3516 0.3587 0.3659
1037.000000 0.3731 0.3803 0.3875 0.3947 0.4019
1042.000000 0.4091 0.4163 0.4234 0.4340 0.4404
1047.000000 0.4482 0.4559 0.4721 0.5153 0.5243
1052.000000 0.5360 0.5492 0.5677 0.5863 0.5980
1057.000000 0.6093 0.6202 0.6304 0.6389 0.6474
1062.000000 0.6558 0.6640 0.6723 0.6800 0.6876
1067.000000 0.6945 0.7002 0.7060 0.7131 0.7205
1072.000000 0.7283 0.7372 0.7456 0.7539 0.7627
1077.000000 0.7726 0.7832 0.7927 0.7988 0.8050
1082.000000 0.8116 0.8203 0.8291 0.8383 0.8479
1087.000000 0.8576 0.8621 0.8667 0.8713 0.8749
1092.000000 0.8782 0.8815 0.8848 0.8883 0.8918
1097.000000 0.8953 0.8983 0.9010 0.9030 0.9051
1102.000000 0.9065 0.9080 0.9094 0.9109 0.9124
1107.000000 0.9140 0.9151 0.9158 0.9165 0.9172
1112.000000 0.9179 0.9186 0.9193 0.9195 0.9196
1117.000000 0.9198 0.9200 0.9201 0.9203 0.9204
1122.000000 0.9203 0.9202 0.9201 0.9200 0.9200
1127.000000 0.9199 0.9198 0.9197 0.9196 0.9191
1132.000000 0.9186 0.9181 0.9176 0.9171 0.9166
1137.000000 0.9161 0.9156 0.9151 0.9147 0.9143
1142.000000 0.9140 0.9140 0.9143 0.9146 0.9148
1147.000000 0.9151 0.9153 0.9156 0.9158 0.9161
1152.000000 0.9163 0.9166 0.9169 0.9171 0.9174
1157.000000 0.9176 0.9178 0.9178 0.9179 0.9180
1162.000000 0.9181 0.9182 0.9182 0.9183 0.9184
1167.000000 0.9185 0.9187 0.9223 0.9190 0.9192
1172.000000 0.9189 0.9183 0.9177 0.9170 0.9163
1177.000000 0.9157 0.9150 0.9143 0.9137 0.9136
1182.000000 0.9145 0.9163 0.9181 0.9197 0.9206
1187.000000 0.9216 0.9225 0.9231 0.9237 0.9244
1192.000000 0.9247 0.9249 0.9251 0.9253 0.9253
1197.000000 0.9252 0.9252 0.9251 0.9250 0.9249
1202.000000 0.9247 0.9244 0.9241 0.9238 0.9236
1207.000000 0.9233 0.9230 0.9228 0.9225 0.9222
1212.000000 0.9220 0.9217 0.9214 0.9210 0.9205
1217.000000 0.9201 0.9197 0.9193 0.9188 0.9184
1222.000000 0.9180 0.9174 0.9169 0.9163 0.9158
1227.000000 0.9152 0.9147 0.9141 0.9133 0.9125
1232.000000 0.9117 0.9109 0.9090 0.9072 0.9051
1237.000000 0.9029 0.9008 0.8986 0.8964 0.8934
1242.000000 0.8903 0.8872 0.8842 0.8814 0.8786
1247.000000 0.8758 0.8729 0.8702 0.8678 0.8655
1252.000000 0.8632 0.8609 0.8590 0.8573 0.8556
1257.000000 0.8540 0.8523 0.8507 0.8500 0.8492
1262.000000 0.8485 0.8477 0.8476 0.8476 0.8476
1267.000000 0.8476 0.8477 0.8478 0.8479 0.8480
1272.000000 0.8477 0.8474 0.8491 0.8448 0.8431
1277.000000 0.8406 0.8380 0.8347 0.8304 0.8200
1282.000000 0.8130 0.8105 0.8113 0.8093 0.8159
1287.000000 0.8191 0.8230 0.8280 0.8326 0.8371
1292.000000 0.8423 0.8478 0.8519 0.8551 0.8567
1297.000000 0.8572 0.8572 0.8592 0.8551 0.8532
1302.000000 0.8473 0.8382 0.8317 0.8309 0.8306
1307.000000 0.8317 0.8323 0.8334 0.8350 0.8371
1312.000000 0.8395 0.8422 0.8453 0.8483 0.8506
1317.000000 0.8529 0.8551 0.8574 0.8600 0.8625
1322.000000 0.8642 0.8659 0.8675 0.8692 0.8703
1327.000000 0.8712 0.8719 0.8719 0.8719 0.8719
1332.000000 0.8719 0.8719 0.8718 0.8716 0.8715
1337.000000 0.8714 0.8713 0.8712 0.8711 0.8708
1342.000000 0.8706 0.8704 0.8701 0.8699 0.8697
1347.000000 0.8692 0.8684 0.8676 0.8668 0.8660
1352.000000 0.8652 0.8632 0.8613 0.8593 0.8574
1357.000000 0.8542 0.8509 0.8470 0.8421 0.8353
1362.000000 0.8274 0.8154 0.8033 0.7899 0.7754
1367.000000 0.7547 0.7417 0.7290 0.7198 0.7106
1372.000000 0.6648 0.6643 0.6656 0.6668 0.6693
1377.000000 0.6823 0.6990 0.7397 0.7804 0.8042
1382.000000 0.7749 0.6983 0.6372 0.6391 0.7922
1387.000000 0.7926 0.7471 0.7231 0.6990 0.6853
1392.000000 0.6847 0.6949 0.7090 0.7230 0.7370
1397.000000 0.7511 0.7651 0.7791 0.7932 0.8112
1402.000000 0.8272 0.8321 0.8352 0.8375 0.8388
1407.000000 0.8402 0.8413 0.8420 0.8428 0.8430
1412.000000 0.8432 0.8428 0.8423 0.8418 0.8412
1417.000000 0.8404 0.8397 0.8389 0.8391 0.8392
1422.000000 0.8393 0.8399 0.8409 0.8418 0.8428
1427.000000 0.8444 0.8460 0.8476 0.8494 0.8515
1432.000000 0.8523 0.8527 0.8522 0.8517 0.8502
1437.000000 0.8487 0.8471 0.8456 0.8443 0.8443
1442.000000 0.8443 0.8443 0.8450 0.8458 0.8467
1447.000000 0.8476 0.8486 0.8499 0.8512 0.8525
1452.000000 0.8539 0.8563 0.8586 0.8609 0.8625
1457.000000 0.8634 0.8643 0.8645 0.8667 0.8631
1462.000000 0.8622 0.8613 0.8604 0.8593 0.8583
1467.000000 0.8569 0.8552 0.8534 0.8516 0.8498
1472.000000 0.8479 0.8461 0.8442 0.8424 0.8402
1477.000000 0.8378 0.8354 0.8299 0.8120 0.7933
1482.000000 0.7941 0.7990 0.8156 0.8322 0.8392
1487.000000 0.8419 0.8437 0.8458 0.8441 0.8437
1492.000000 0.8433 0.8427 0.8416 0.8405 0.8388
1497.000000 0.8378 0.8372 0.8369 0.8331 0.8420
1502.000000 0.8440 0.8467 0.8495 0.8522 0.8544
1507.000000 0.8567 0.8589 0.8612 0.8634 0.8647
1512.000000 0.8657 0.8667 0.8679 0.8691 0.8703
1517.000000 0.8720 0.8738 0.8756 0.8768 0.8780
1522.000000 0.8792 0.8804 0.8813 0.8821 0.8828
1527.000000 0.8835 0.8842 0.8849 0.8856 0.8863
1532.000000 0.8867 0.8871 0.8874 0.8878 0.8881
1537.000000 0.8885 0.8885 0.8881 0.8877 0.8872
1542.000000 0.8868 0.8906 0.8851 0.8836 0.8821
1547.000000 0.8806 0.8788 0.8768 0.8749 0.8730
1552.000000 0.8711 0.8691 0.8670 0.8648 0.8625
1557.000000 0.8602 0.8579 0.8557 0.8513 0.8466
1562.000000 0.8420 0.8373 0.8327 0.8257 0.8169
1567.000000 0.8082 0.7987 0.7867 0.7748 0.7622
1572.000000 0.7462 0.7302 0.7008 0.6605 0.6202
1577.000000 0.5799 0.5396 0.4993 0.4590 0.4187
1582.000000 0.3784 0.3381 0.2978 0.2575 0.2172
1587.000000 0.1922 0.1820 0.1851 0.1829 0.1968
1592.000000 0.2394 0.2821 0.3247 0.3576 0.3562
1597.000000 0.3579 0.3512 0.3408 0.3119 0.2831
1602.000000 0.2542 0.2254 0.1965 0.1677 0.1577
1607.000000 0.1588 0.1598 0.1662 0.2005 0.2582
1612.000000 0.3159 0.3736 0.4313 0.4890 0.5467
1617.000000 0.6044 0.6622 0.7111 0.7920 0.8268
1622.000000 0.8362 0.8431 0.8463 0.8473 0.8483
1627.000000 0.8490 0.8493 0.8496 0.8500 0.8502
1632.000000 0.8505 0.8507 0.8509 0.8510 0.8508
1637.000000 0.8507 0.8505 0.8502 0.8494 0.8485
1642.000000 0.8478 0.8474 0.8469 0.8480 0.8493
1647.000000 0.8507 0.8521 0.8536 0.8551 0.8566
1652.000000 0.8588 0.8612 0.8631 0.8646 0.8661
1657.000000 0.8666 0.8668 0.8669 0.8665 0.8661
1662.000000 0.8656 0.8652 0.8651 0.8653 0.8656
1667.000000 0.8660 0.8668 0.8676 0.8684 0.8695
1672.000000 0.8706 0.8717 0.8728 0.8738 0.8748
1677.000000 0.8757 0.8766 0.8775 0.8783 0.8792
1682.000000 0.8801 0.8810 0.8818 0.8827 0.8835
1687.000000 0.8843 0.8846 0.8849 0.8851 0.8854
1692.000000 0.8857 0.8860 0.8862 0.8859 0.8857
1697.000000 0.8855 0.8852 0.8850 0.8858 0.8845
1702.000000 0.8843 0.8837 0.8831 0.8824 0.8818
1707.000000 0.8812 0.8806 0.8800 0.8794 0.8788
1712.000000 0.8782 0.8774 0.8765 0.8757 0.8749
1717.000000 0.8741 0.8733 0.8725 0.8716 0.8708
1722.000000 0.8698 0.8687 0.8677 0.8666 0.8656
1727.000000 0.8645 0.8634 0.8624 0.8612 0.8600
1732.000000 0.8587 0.8574 0.8561 0.8549 0.8536
1737.000000 0.8523 0.8511 0.8498 0.8485 0.8467
1742.000000 0.8449 0.8430 0.8412 0.8394 0.8376
1747.000000 0.8350 0.8324 0.8297 0.8273 0.8254
1752.000000 0.8235 0.8227 0.8220 0.8222 0.8216
1757.000000 0.8246 0.8274 0.8299 0.8324 0.8348
1762.000000 0.8365 0.8369 0.8366 0.8363 0.8360
1767.000000 0.8357 0.8357 0.8372 0.8391 0.8409
1772.000000 0.8430 0.8440 0.8440 0.8440 0.8439
1777.000000 0.8455 0.8428 0.8421 0.8411 0.8402
1782.000000 0.8391 0.8378 0.8366 0.8350 0.8334
1787.000000 0.8303 0.8272 0.8241 0.8205 0.8168
1792.000000 0.8123 0.8075 0.8028 0.7972 0.7912
1797.000000 0.7849 0.7768 0.7686 0.7561 0.7413
1802.000000 0.6806 0.6449 0.6092 0.5736 0.5379
1807.000000 0.5022 0.4665 0.4308 0.3951 0.3828
1812.000000 0.3840 0.3813 0.4155 0.4318 0.4481
1817.000000 0.4752 0.4766 0.4764 0.4317 0.4180
1822.000000 0.6433 0.6453 0.5756 0.5271 0.4785
1827.000000 0.4300 0.3815 0.3515 0.3514 0.3691
1832.000000 0.3944 0.4198 0.4451 0.4705 0.4959
1837.000000 0.5212 0.5733 0.6234 0.6736 0.7237
1842.000000 0.7739 0.8116 0.8248 0.8307 0.8367
1847.000000 0.8419 0.8468 0.8499 0.8524 0.8546
1852.000000 0.8560 0.8574 0.8587 0.8592 0.8593
1857.000000 0.8591 0.8588 0.8582 0.8570 0.8560
1862.000000 0.8551 0.8541 0.8537 0.8534 0.8532
1867.000000 0.8536 0.8540 0.8545 0.8551 0.8556
1872.000000 0.8601 0.8566 0.8565 0.8563 0.8556
1877.000000 0.8542 0.8528 0.8523 0.8522 0.8521
1882.000000 0.8520 0.8526 0.8531 0.8536 0.8541
1887.000000 0.8547 0.8555 0.8564 0.8572 0.8582
1892.000000 0.8596 0.8609 0.8616 0.8622 0.8628
1897.000000 0.8634 0.8638 0.8641 0.8645 0.8644
1902.000000 0.8636 0.8629 0.8621 0.8612 0.8603
1907.000000 0.8595 0.8586 0.8588 0.8590 0.8593
1912.000000 0.8595 0.8598 0.8602 0.8605 0.8608
1917.000000 0.8611 0.8614 0.8617 0.8620 0.8621
1922.000000 0.8621 0.8622 0.8622 0.8623 0.8624
1927.000000 0.8623 0.8622 0.8621 0.8620 0.8619
1932.000000 0.8618 0.8617 0.8615 0.8614 0.8613
1937.000000 0.8611 0.8606 0.8602 0.8597 0.8593
1942.000000 0.8588 0.8583 0.8579 0.8570 0.8558
1947.000000 0.8547 0.8532 0.8516 0.8500 0.8483
1952.000000 0.8467 0.8450 0.8433 0.8415 0.8397
1957.000000 0.8379 0.8361 0.8346 0.8349 0.8357
1962.000000 0.8349 0.8373 0.8380 0.8389 0.8398
1967.000000 0.8407 0.8416 0.8425 0.8434 0.8445
1972.000000 0.8456 0.8467 0.8473 0.8470 0.8465
1977.000000 0.8456 0.8447 0.8441 0.8446 0.8460
1982.000000 0.8474 0.8487 0.8500 0.8513 0.8525
1987.000000 0.8539 0.8554 0.8569 0.8585 0.8603
1992.000000 0.8621 0.8639 0.8658 0.8677 0.8691
1997.000000 0.8701 0.8711 0.8720 0.8727 0.8732
2002.000000 0.8737 0.8739 0.8742 0.8744 0.8747
2007.000000 0.8749 0.8752 0.8754 0.8757 0.8759
2012.000000 0.8761 0.8763 0.8765 0.8767 0.8769
2017.000000 0.8771 0.8773 0.8775 0.8777 0.8777
2022.000000 0.8778 0.8778 0.8779 0.8779 0.8780
2027.000000 0.8780 0.8781 0.8781 0.8782 0.8782
2032.000000 0.8782 0.8782 0.8783 0.8783 0.8784
2037.000000 0.8784 0.8785 0.8785 0.8785 0.8785
2042.000000 0.8785 0.8784 0.8784 0.8783 0.8783
2047.000000 0.8782 0.8782 0.8781 0.8781 0.8780
2052.000000 0.8780 0.8780 0.8780 0.8779 0.8779
2057.000000 0.8778 0.8778 0.8777 0.8777 0.8776
2062.000000 0.8776 0.8776 0.8776 0.8775 0.8775
2067.000000 0.8774 0.8774 0.8773 0.8773 0.8773
2072.000000 0.8773 0.8772 0.8772 0.8771 0.8771
2077.000000 0.8770 0.8770 0.8770 0.8770 0.8769
2082.000000 0.8769 0.8768 0.8768 0.8768 0.8768
2087.000000 0.8767 0.8767 0.8766 0.8766 0.8765
2092.000000 0.8765 0.8764 0.8764 0.8763 0.8762
2097.000000 0.8761 0.8760 0.8759 0.8758 0.8757
2102.000000 0.8756 0.8755 0.8755 0.8755 0.8750
2107.000000 0.8756 0.8757 0.8758 0.8759 0.8760
2112.000000 0.8761 0.8762 0.8763 0.8763 0.8764
2117.000000 0.8765 0.8767 0.8770 0.8774 0.8777
2122.000000 0.8780 0.8783 0.8786 0.8789 0.8792
2127.000000 0.8795 0.8799 0.8802 0.8805 0.8806
2132.000000 0.8808 0.8809 0.8811 0.8812 0.8814
2137.000000 0.8815 0.8817 0.8818 0.8820 0.8819
2142.000000 0.8818 0.8817 0.8817 0.8816 0.8815
2147.000000 0.8814 0.8814 0.8813 0.8813 0.8812
2152.000000 0.8811 0.8810 0.8810 0.8809 0.8808
2157.000000 0.8807 0.8807 0.8806 0.8805 0.8804
2162.000000 0.8803 0.8802 0.8801 0.8800 0.8799
2167.000000 0.8798 0.8797 0.8796 0.8795 0.8794
2172.000000 0.8794 0.8793 0.8792 0.8791 0.8790
2177.000000 0.8789 0.8788 0.8787 0.8786 0.8785
2182.000000 0.8784 0.8784 0.8784 0.8783 0.8783
2187.000000 0.8783 0.8783 0.8782 0.8782 0.8782
2192.000000 0.8782 0.8781 0.8781 0.8780 0.8780
2197.000000 0.8780 0.8780 0.8779 0.8779 0.8779
2202.000000 0.8779 0.8778 0.8778 0.8778 0.8778
2207.000000 0.8777 0.8777 0.8776 0.8775 0.8774
2212.000000 0.8773 0.8772 0.8771 0.8769 0.8768
2217.000000 0.8767 0.8766 0.8764 0.8763 0.8762
2222.000000 0.8761 0.8759 0.8758 0.8757 0.8756
2227.000000 0.8754 0.8753 0.8752 0.8751 0.8749
2232.000000 0.8748 0.8747 0.8746 0.8742 0.8739
2237.000000 0.8735 0.8732 0.8728 0.8724 0.8720
2242.000000 0.8717 0.8713 0.8709 0.8705 0.8702
2247.000000 0.8698 0.8694 0.8691 0.8689 0.8686
2252.000000 0.8684 0.8681 0.8679 0.8676 0.8674
2257.000000 0.8671 0.8669 0.8666 0.8664 0.8662
2262.000000 0.8660 0.8657 0.8655 0.8652 0.8650
2267.000000 0.8647 0.8645 0.8643 0.8642 0.8643
2272.000000 0.8644 0.8645 0.8646 0.8647 0.8648
2277.000000 0.8649 0.8650 0.8651 0.8653 0.8654
2282.000000 0.8655 0.8656 0.8657 0.8658 0.8660
2287.000000 0.8661 0.8662 0.8663 0.8665 0.8666
2292.000000 0.8667 0.8666 0.8666 0.8665 0.8664
2297.000000 0.8662 0.8661 0.8656 0.8652 0.8645
2302.000000 0.8638 0.8631 0.8624 0.8615 0.8606
2307.000000 0.8595 0.8584 0.8573 0.8563 0.8552
2312.000000 0.8541 0.8526 0.8511 0.8493 0.8475
2317.000000 0.8457 0.8439 0.8421 0.8404 0.8386
2322.000000 0.8369 0.8351 0.8334 0.8316 0.8299
2327.000000 0.8280 0.8261 0.8241 0.8221 0.8201
2332.000000 0.8181 0.8164 0.8148 0.8135 0.8119
2337.000000 0.8118 0.8114 0.8111 0.8108 0.8105
2342.000000 0.8103 0.8101 0.8099 0.8112 0.8125
2347.000000 0.8168 0.8211 0.8253 0.8296 0.8338
2352.000000 0.8436 0.8395 0.8409 0.8357 0.8305
2357.000000 0.8213 0.8122 0.8035 0.7949 0.7949
2362.000000 0.7949 0.7950 0.7951 0.7953 0.7941
2367.000000 0.7959 0.7964 0.7986 0.8008 0.8069
2372.000000 0.8131 0.8193 0.8255 0.8317 0.8379
2377.000000 0.8440 0.8502 0.8547 0.8593 0.8618
2382.000000 0.8644 0.8666 0.8689 0.8703 0.8717
2387.000000 0.8730 0.8744 0.8754 0.8765 0.8774
2392.000000 0.8783 0.8787 0.8791 0.8791 0.8791
2397.000000 0.8791 0.8791 0.8791 0.8792 0.8793
2402.000000 0.8795 0.8796 0.8797 0.8798 0.8799
2407.000000 0.8799 0.8799 0.8799 0.8799 0.8799
2412.000000 0.8799 0.8798 0.8797 0.8795 0.8794
2417.000000 0.8792 0.8790 0.8788 0.8787 0.8785
2422.000000 0.8784 0.8782 0.8780 0.8779 0.8778
2427.000000 0.8776 0.8775 0.8774 0.8773 0.8771
2432.000000 0.8770 0.8769 0.8768 0.8766 0.8765
2437.000000 0.8764 0.8763 0.8761 0.8760 0.8759
2442.000000 0.8758 0.8756 0.8755 0.8753 0.8752
2447.000000 0.8750 0.8748 0.8746 0.8745 0.8743
2452.000000 0.8742 0.8740 0.8739 0.8737 0.8736
2457.000000 0.8734 0.8732 0.8729 0.8726 0.8722
2462.000000 0.8719 0.8716 0.8713 0.8709 0.8706
2467.000000 0.8703 0.8700 0.8696 0.8693 0.8690
2472.000000 0.8687 0.8683 0.8679 0.8673 0.8668
2477.000000 0.8662 0.8656 0.8650 0.8645 0.8639
2482.000000 0.8634 0.8632 0.8630 0.8631 0.8632
2487.000000 0.8633 0.8635 0.8638 0.8642 0.8649
