##TITLE=n-Butane
##JCAMP-DX=4.24
##DATA TYPE=INFRARED SPECTRUM
##CLASS=COBLENTZ
##ORIGIN=DOW CHEMICAL COMPANY
##OWNER=Copyright (C) 1987 by the Coblentz Society
Collection (C) 2018 copyright by the U.S. Secretary of Commerce
on behalf of the United States of America. All rights reserved.
##DATE=1964
##NAMES=butane
##CAS REGISTRY NO=106-97-8
##MOLFORM=C4 H10
##SOURCE REFERENCE=COBLENTZ NO. 8863
##$NIST SOURCE=COBLENTZ
##$NIST IMAGE=cob8863
##SPECTROMETER/DATA SYSTEM=DOW KBr FOREPRISM-GRATING
##INSTRUMENT PARAMETERS=GRATING CHANGED AT 5.0, 7.5, 15.0 MICRON
##STATE=GAS (100 mmHg, N2 ADDED, TOTAL PRESSURE 600 mmHg)
NOTE: High partial pressure may produce unreliable values in the range
of 2600 to 3400 cm-1; see scan of original spectrum.
##PATH LENGTH=5 CM
##SAMPLING PROCEDURE=TRANSMISSION
##RESOLUTION=2
##DATA PROCESSING=DIGITIZED BY COBLENTZ SOCIETY (BATCH II) FROM HARD COPY
##XUNITS=1/CM
##YUNITS=TRANSMITTANCE
##XFACTOR=1.0
##YFACTOR=1
##FIRSTX=454
##LASTX=3780
##FIRSTY=0.9076
##MAXX=3780
##MINX=454
##MAXY=0.9333
##MINY=0.0009
##NPOINTS=3327
##XYDATA=(X++(Y..Y))
454.000000 0.9076 0.9078 0.9079 0.9081 0.9083
459.000000 0.9084 0.9086 0.9089 0.9091 0.9093
464.000000 0.9095 0.9097 0.9100 0.9103 0.9105
469.000000 0.9108 0.9111 0.9114 0.9120 0.9127
474.000000 0.9135 0.9142 0.9150 0.9158 0.9165
479.000000 0.9177 0.9190 0.9202 0.9214 0.9227
484.000000 0.9241 0.9258 0.9274 0.9290 0.9307
489.000000 0.9312 0.9315 0.9318 0.9322 0.9325
494.000000 0.9328 0.9329 0.9329 0.9330 0.9330
499.000000 0.9330 0.9331 0.9331 0.9332 0.9332
504.000000 0.9332 0.9333 0.9332 0.9332 0.9331
509.000000 0.9331 0.9331 0.9330 0.9330 0.9329
514.000000 0.9329 0.9328 0.9327 0.9326 0.9325
519.000000 0.9323 0.9322 0.9320 0.9318 0.9316
524.000000 0.9315 0.9313 0.9311 0.9310 0.9308
529.000000 0.9305 0.9299 0.9293 0.9288 0.9282
534.000000 0.9276 0.9271 0.9265 0.9259 0.9254
539.000000 0.9248 0.9242 0.9236 0.9231 0.9224
544.000000 0.9216 0.9209 0.9201 0.9194 0.9186
549.000000 0.9179 0.9171 0.9164 0.9160 0.9158
554.000000 0.9157 0.9155 0.9154 0.9154 0.9155
559.000000 0.9156 0.9157 0.9158 0.9159 0.9160
564.000000 0.9161 0.9166 0.9171 0.9176 0.9182
569.000000 0.9186 0.9190 0.9193 0.9196 0.9200
574.000000 0.9203 0.9207 0.9210 0.9213 0.9217
579.000000 0.9220 0.9224 0.9227 0.9231 0.9234
584.000000 0.9238 0.9243 0.9248 0.9253 0.9258
589.000000 0.9263 0.9268 0.9273 0.9278 0.9283
594.000000 0.9317 0.9293 0.9298 0.9303 0.9307
599.000000 0.9310 0.9313 0.9316 0.9319 0.9322
604.000000 0.9325 0.9327 0.9328 0.9330 0.9332
609.000000 0.9333 0.9332 0.9330 0.9326 0.9321
614.000000 0.9317 0.9313 0.9309 0.9305 0.9301
619.000000 0.9297 0.9292 0.9288 0.9284 0.9280
624.000000 0.9276 0.9273 0.9270 0.9267 0.9263
629.000000 0.9260 0.9257 0.9254 0.9251 0.9248
634.000000 0.9244 0.9241 0.9238 0.9235 0.9232
639.000000 0.9229 0.9226 0.9224 0.9222 0.9220
644.000000 0.9219 0.9217 0.9215 0.9213 0.9210
649.000000 0.9199 0.9189 0.9178 0.9168 0.9157
654.000000 0.9147 0.9136 0.9126 0.9115 0.9105
659.000000 0.9095 0.9084 0.9074 0.9064 0.9051
664.000000 0.9038 0.9025 0.9012 0.8999 0.8986
669.000000 0.8978 0.9019 0.9081 0.9078 0.8980
674.000000 0.8825 0.8820 0.8844 0.8864 0.8877
679.000000 0.8882 0.8885 0.8887 0.8889 0.8892
684.000000 0.8896 0.8897 0.8899 0.8899 0.8897
689.000000 0.8895 0.8891 0.8887 0.8879 0.8868
694.000000 0.8856 0.8845 0.8833 0.8821 0.8809
699.000000 0.8797 0.8785 0.8772 0.8760 0.8747
704.000000 0.8734 0.8722 0.8709 0.8696 0.8681
709.000000 0.8666 0.8652 0.8637 0.8622 0.8608
714.000000 0.8593 0.8574 0.8554 0.8535 0.8515
719.000000 0.8496 0.8476 0.8456 0.8436 0.8416
724.000000 0.8395 0.8375 0.8354 0.8321 0.8287
729.000000 0.8244 0.8199 0.8134 0.7983 0.7785
734.000000 0.7788 0.7801 0.7854 0.7907 0.7920
739.000000 0.7916 0.7912 0.7939 0.7912 0.7912
744.000000 0.7912 0.7909 0.7890 0.7805 0.7759
749.000000 0.7765 0.7754 0.7795 0.7846 0.7898
754.000000 0.7947 0.7978 0.7998 0.8012 0.8024
759.000000 0.8034 0.8045 0.8064 0.8087 0.8110
764.000000 0.8135 0.8167 0.8198 0.8229 0.8265
769.000000 0.8302 0.8338 0.8377 0.8416 0.8454
774.000000 0.8480 0.8507 0.8527 0.8536 0.8544
779.000000 0.8552 0.8561 0.8569 0.8578 0.8590
784.000000 0.8602 0.8615 0.8632 0.8654 0.8675
789.000000 0.8687 0.8692 0.8691 0.8684 0.8677
794.000000 0.8670 0.8663 0.8664 0.8670 0.8675
799.000000 0.8684 0.8692 0.8702 0.8713 0.8723
804.000000 0.8734 0.8744 0.8757 0.8770 0.8782
809.000000 0.8794 0.8803 0.8811 0.8820 0.8828
814.000000 0.8836 0.8842 0.8847 0.8852 0.8857
819.000000 0.8860 0.8861 0.8862 0.8864 0.8865
824.000000 0.8866 0.8868 0.8869 0.8870 0.8872
829.000000 0.8874 0.8875 0.8877 0.8879 0.8881
834.000000 0.8883 0.8884 0.8886 0.8887 0.8888
839.000000 0.8889 0.8890 0.8891 0.8892 0.8893
844.000000 0.8894 0.8895 0.8896 0.8897 0.8898
849.000000 0.8899 0.8899 0.8898 0.8898 0.8897
854.000000 0.8896 0.8896 0.8895 0.8895 0.8894
859.000000 0.8893 0.8896 0.8892 0.8892 0.8891
864.000000 0.8890 0.8890 0.8889 0.8889 0.8888
869.000000 0.8887 0.8886 0.8885 0.8884 0.8883
874.000000 0.8882 0.8881 0.8880 0.8879 0.8878
879.000000 0.8877 0.8877 0.8876 0.8875 0.8874
884.000000 0.8873 0.8872 0.8871 0.8869 0.8868
889.000000 0.8867 0.8866 0.8865 0.8864 0.8863
894.000000 0.8862 0.8860 0.8857 0.8855 0.8853
899.000000 0.8851 0.8849 0.8847 0.8845 0.8842
904.000000 0.8840 0.8838 0.8836 0.8831 0.8827
909.000000 0.8822 0.8817 0.8812 0.8808 0.8803
914.000000 0.8798 0.8794 0.8789 0.8784 0.8779
919.000000 0.8772 0.8763 0.8754 0.8746 0.8735
924.000000 0.8717 0.8700 0.8682 0.8664 0.8645
929.000000 0.8626 0.8608 0.8589 0.8562 0.8533
934.000000 0.8504 0.8475 0.8446 0.8417 0.8388
939.000000 0.8340 0.8286 0.8232 0.8178 0.8129
944.000000 0.8079 0.8030 0.7980 0.7912 0.7844
949.000000 0.7777 0.7713 0.7649 0.7568 0.7456
954.000000 0.7350 0.7108 0.6780 0.6680 0.6807
959.000000 0.6988 0.7105 0.7102 0.7032 0.6959
964.000000 0.6885 0.6812 0.6738 0.6704 0.6677
969.000000 0.6706 0.6717 0.6727 0.6741 0.6771
974.000000 0.6797 0.6821 0.6852 0.6902 0.6952
979.000000 0.7018 0.7106 0.7215 0.7307 0.7389
984.000000 0.7470 0.7534 0.7598 0.7662 0.7726
989.000000 0.7790 0.7847 0.7893 0.7940 0.7986
994.000000 0.8032 0.8077 0.8122 0.8166 0.8210
999.000000 0.8254 0.8303 0.8351 0.8399 0.8441
1004.000000 0.8471 0.8501 0.8531 0.8561 0.8584
1009.000000 0.8601 0.8618 0.8636 0.8653 0.8670
1014.000000 0.8683 0.8696 0.8709 0.8722 0.8735
1019.000000 0.8748 0.8762 0.8775 0.8788 0.8801
1024.000000 0.8806 0.8812 0.8817 0.8822 0.8827
1029.000000 0.8831 0.8834 0.8837 0.8840 0.8842
1034.000000 0.8844 0.8846 0.8849 0.8849 0.8849
1039.000000 0.8849 0.8849 0.8849 0.8849 0.8849
1044.000000 0.8849 0.8850 0.8849 0.8849 0.8869
1049.000000 0.8848 0.8847 0.8846 0.8846 0.8845
1054.000000 0.8845 0.8844 0.8843 0.8843 0.8842
1059.000000 0.8841 0.8839 0.8838 0.8837 0.8835
1064.000000 0.8834 0.8832 0.8831 0.8830 0.8828
1069.000000 0.8827 0.8826 0.8825 0.8824 0.8822
1074.000000 0.8821 0.8820 0.8823 0.8826 0.8829
1079.000000 0.8833 0.8837 0.8841 0.8845 0.8849
1084.000000 0.8854 0.8860 0.8866 0.8872 0.8878
1089.000000 0.8885 0.8891 0.8895 0.8898 0.8901
1094.000000 0.8904 0.8907 0.8910 0.8913 0.8916
1099.000000 0.8917 0.8917 0.8917 0.8916 0.8916
1104.000000 0.8915 0.8915 0.8914 0.8914 0.8913
1109.000000 0.8912 0.8911 0.8902 0.8892 0.8882
1114.000000 0.8871 0.8861 0.8850 0.8834 0.8816
1119.000000 0.8798 0.8774 0.8750 0.8726 0.8702
1124.000000 0.8679 0.8657 0.8635 0.8613 0.8607
1129.000000 0.8603 0.8597 0.8587 0.8578 0.8564
1134.000000 0.8521 0.8540 0.8547 0.8571 0.8606
1139.000000 0.8642 0.8656 0.8671 0.8644 0.8609
1144.000000 0.8574 0.8537 0.8556 0.8570 0.8583
1149.000000 0.8611 0.8642 0.8674 0.8710 0.8746
1154.000000 0.8782 0.8818 0.8862 0.8891 0.8903
1159.000000 0.8906 0.8910 0.8913 0.8916 0.8916
1164.000000 0.8916 0.8915 0.8914 0.8913 0.8912
1169.000000 0.8909 0.8906 0.8904 0.8901 0.8898
1174.000000 0.8893 0.8886 0.8879 0.8873 0.8866
1179.000000 0.8860 0.8854 0.8851 0.8849 0.8868
1184.000000 0.8891 0.8913 0.8932 0.8941 0.8943
1189.000000 0.8944 0.8945 0.8946 0.8947 0.8948
1194.000000 0.8949 0.8952 0.8954 0.8956 0.8958
1199.000000 0.8960 0.8961 0.8961 0.8961 0.8961
1204.000000 0.8988 0.8961 0.8962 0.8965 0.8968
1209.000000 0.8971 0.8974 0.8977 0.8980 0.8982
1214.000000 0.8983 0.8985 0.8986 0.8988 0.8989
1219.000000 0.8991 0.8992 0.8992 0.8993 0.8993
1224.000000 0.8993 0.8993 0.8993 0.8993 0.8993
1229.000000 0.8990 0.8988 0.8985 0.8982 0.8980
1234.000000 0.8977 0.8975 0.8970 0.8963 0.8957
1239.000000 0.8945 0.8928 0.8911 0.8896 0.8880
1244.000000 0.8865 0.8850 0.8838 0.8826 0.8815
1249.000000 0.8803 0.8795 0.8787 0.8779 0.8770
1254.000000 0.8762 0.8755 0.8747 0.8739 0.8731
1259.000000 0.8723 0.8716 0.8709 0.8701 0.8694
1264.000000 0.8687 0.8679 0.8671 0.8659 0.8648
1269.000000 0.8636 0.8621 0.8599 0.8577 0.8554
1274.000000 0.8526 0.8499 0.8471 0.8444 0.8415
1279.000000 0.8382 0.8348 0.8289 0.8222 0.8159
1284.000000 0.8100 0.8040 0.7973 0.7927 0.7904
1289.000000 0.7891 0.7905 0.7893 0.7925 0.7967
1294.000000 0.8044 0.8036 0.8033 0.7933 0.7808
1299.000000 0.7855 0.7915 0.7968 0.8014 0.8010
1304.000000 0.7890 0.7832 0.7824 0.7843 0.7863
1309.000000 0.7898 0.7940 0.7987 0.8058 0.8140
1314.000000 0.8217 0.8295 0.8379 0.8456 0.8506
1319.000000 0.8533 0.8551 0.8587 0.8566 0.8567
1324.000000 0.8565 0.8552 0.8533 0.8508 0.8480
1329.000000 0.8449 0.8417 0.8386 0.8355 0.8324
1334.000000 0.8299 0.8277 0.8269 0.8268 0.8276
1339.000000 0.8229 0.8129 0.8028 0.7997 0.8243
1344.000000 0.8287 0.8236 0.8166 0.8096 0.8026
1349.000000 0.8047 0.8243 0.8284 0.8270 0.8251
1354.000000 0.8226 0.8199 0.8169 0.8140 0.8109
1359.000000 0.8079 0.8051 0.8023 0.7994 0.7964
1364.000000 0.7933 0.7902 0.7868 0.7823 0.7760
1369.000000 0.7637 0.7460 0.7272 0.7105 0.6856
1374.000000 0.6636 0.6361 0.5966 0.5920 0.5889
1379.000000 0.5871 0.5861 0.5862 0.5871 0.5895
1384.000000 0.5908 0.5909 0.5474 0.5159 0.5272
1389.000000 0.5513 0.5755 0.5924 0.5854 0.5438
1394.000000 0.5021 0.4982 0.4982 0.4989 0.4978
1399.000000 0.5074 0.5152 0.5666 0.6294 0.6679
1404.000000 0.6885 0.7044 0.7196 0.7291 0.7374
1409.000000 0.7439 0.7495 0.7551 0.7611 0.7666
1414.000000 0.7694 0.7705 0.7707 0.7708 0.7713
1419.000000 0.7704 0.7695 0.7682 0.7664 0.7633
1424.000000 0.7600 0.7551 0.7502 0.7457 0.7412
1429.000000 0.7367 0.7322 0.7278 0.7233 0.7188
1434.000000 0.7143 0.7074 0.6907 0.6565 0.6130
1439.000000 0.5936 0.5801 0.5655 0.5498 0.5348
1444.000000 0.5237 0.5126 0.4978 0.4732 0.4603
1449.000000 0.4508 0.4412 0.4318 0.4229 0.4139
1454.000000 0.4047 0.3941 0.3843 0.3786 0.3729
1459.000000 0.3673 0.3623 0.3576 0.3492 0.3352
1464.000000 0.2618 0.2610 0.2691 0.2772 0.2794
1469.000000 0.2153 0.2173 0.2610 0.2974 0.2952
1474.000000 0.2821 0.2845 0.3388 0.3888 0.3890
1479.000000 0.3887 0.3849 0.3749 0.3649 0.3653
1484.000000 0.3667 0.3687 0.3747 0.3803 0.3905
1489.000000 0.4042 0.4222 0.4485 0.4602 0.4672
1494.000000 0.4909 0.5046 0.5218 0.5380 0.5542
1499.000000 0.5704 0.5866 0.5997 0.6096 0.6194
1504.000000 0.6280 0.6367 0.6490 0.6634 0.6716
1509.000000 0.6798 0.6873 0.6970 0.7500 0.7543
1514.000000 0.7586 0.7629 0.7675 0.7722 0.7769
1519.000000 0.7832 0.7898 0.7963 0.8028 0.8131
1524.000000 0.8224 0.8300 0.8340 0.8375 0.8394
1529.000000 0.8412 0.8427 0.8439 0.8452 0.8465
1534.000000 0.8481 0.8497 0.8513 0.8524 0.8533
1539.000000 0.8541 0.8569 0.8649 0.8641 0.8634
1544.000000 0.8626 0.8617 0.8607 0.8597 0.8588
1549.000000 0.8581 0.8581 0.8582 0.8588 0.8594
1554.000000 0.8605 0.8615 0.8633 0.8656 0.8680
1559.000000 0.8716 0.8752 0.8793 0.8791 0.8775
1564.000000 0.8759 0.8731 0.8697 0.8647 0.8603
1569.000000 0.8572 0.8555 0.8542 0.8537 0.8532
1574.000000 0.8529 0.8526 0.8523 0.8520 0.8517
1579.000000 0.8516 0.8514 0.8513 0.8512 0.8510
1584.000000 0.8510 0.8512 0.8515 0.8518 0.8520
1589.000000 0.8523 0.8526 0.8529 0.8533 0.8536
1594.000000 0.8539 0.8542 0.8545 0.8548 0.8551
1599.000000 0.8554 0.8557 0.8560 0.8563 0.8566
1604.000000 0.8568 0.8571 0.8574 0.8576 0.8579
1609.000000 0.8580 0.8581 0.8582 0.8583 0.8583
1614.000000 0.8584 0.8582 0.8580 0.8578 0.8577
1619.000000 0.8577 0.8578 0.8580 0.8574 0.8568
1624.000000 0.8561 0.8553 0.8543 0.8532 0.8521
1629.000000 0.8511 0.8501 0.8492 0.8489 0.8490
1634.000000 0.8491 0.8497 0.8506 0.8514 0.8501
1639.000000 0.8483 0.8467 0.8459 0.8452 0.8447
1644.000000 0.8456 0.8466 0.8476 0.8480 0.8479
1649.000000 0.8476 0.8465 0.8454 0.8489 0.8539
1654.000000 0.8587 0.8574 0.8547 0.8514 0.8481
1659.000000 0.8455 0.8435 0.8432 0.8429 0.8430
1664.000000 0.8434 0.8437 0.8441 0.8444 0.8445
1669.000000 0.8447 0.8455 0.8462 0.8461 0.8459
1674.000000 0.8457 0.8455 0.8460 0.8464 0.8469
1679.000000 0.8473 0.8479 0.8487 0.8494 0.8502
1684.000000 0.8510 0.8527 0.8526 0.8515 0.8504
1689.000000 0.8493 0.8487 0.8489 0.8491 0.8497
1694.000000 0.8504 0.8511 0.8525 0.8547 0.8582
1699.000000 0.8604 0.8609 0.8605 0.8601 0.8594
1704.000000 0.8583 0.8572 0.8564 0.8557 0.8552
1709.000000 0.8550 0.8548 0.8545 0.8543 0.8546
1714.000000 0.8553 0.8560 0.8574 0.8590 0.8594
1719.000000 0.8590 0.8586 0.8572 0.8555 0.8543
1724.000000 0.8544 0.8545 0.8550 0.8558 0.8566
1729.000000 0.8575 0.8584 0.8592 0.8601 0.8609
1734.000000 0.8614 0.8620 0.8622 0.8624 0.8624
1739.000000 0.8624 0.8625 0.8627 0.8628 0.8629
1744.000000 0.8630 0.8631 0.8632 0.8632 0.8631
1749.000000 0.8631 0.8630 0.8629 0.8627 0.8625
1754.000000 0.8622 0.8619 0.8617 0.8614 0.8612
1759.000000 0.8609 0.8606 0.8603 0.8600 0.8597
1764.000000 0.8595 0.8593 0.8592 0.8591 0.8590
1769.000000 0.8589 0.8588 0.8587 0.8588 0.8588
1774.000000 0.8589 0.8590 0.8591 0.8592 0.8593
1779.000000 0.8593 0.8594 0.8595 0.8595 0.8595
1784.000000 0.8595 0.8595 0.8594 0.8593 0.8593
1789.000000 0.8592 0.8591 0.8590 0.8589 0.8588
1794.000000 0.8587 0.8585 0.8584 0.8583 0.8582
1799.000000 0.8581 0.8580 0.8580 0.8580 0.8579
1804.000000 0.8579 0.8578 0.8578 0.8578 0.8577
1809.000000 0.8577 0.8577 0.8577 0.8577 0.8577
1814.000000 0.8577 0.8577 0.8577 0.8577 0.8577
1819.000000 0.8577 0.8579 0.8583 0.8586 0.8589
1824.000000 0.8589 0.8591 0.8593 0.8595 0.8597
1829.000000 0.8599 0.8601 0.8599 0.8597 0.8596
1834.000000 0.8595 0.8595 0.8594 0.8597 0.8601
1839.000000 0.8617 0.8610 0.8616 0.8622 0.8628
1844.000000 0.8630 0.8622 0.8616 0.8611 0.8605
1849.000000 0.8603 0.8601 0.8599 0.8599 0.8600
1854.000000 0.8600 0.8601 0.8602 0.8604 0.8606
1859.000000 0.8607 0.8609 0.8611 0.8614 0.8618
1864.000000 0.8621 0.8625 0.8628 0.8628 0.8625
1869.000000 0.8622 0.8614 0.8605 0.8597 0.8589
1874.000000 0.8583 0.8577 0.8571 0.8565 0.8563
1879.000000 0.8562 0.8561 0.8560 0.8559 0.8558
1884.000000 0.8556 0.8555 0.8553 0.8551 0.8549
1889.000000 0.8548 0.8546 0.8544 0.8541 0.8539
1894.000000 0.8537 0.8535 0.8533 0.8531 0.8528
1899.000000 0.8526 0.8525 0.8523 0.8522 0.8520
1904.000000 0.8519 0.8520 0.8521 0.8522 0.8522
1909.000000 0.8523 0.8524 0.8524 0.8525 0.8526
1914.000000 0.8527 0.8527 0.8527 0.8528 0.8528
1919.000000 0.8528 0.8528 0.8528 0.8527 0.8526
1924.000000 0.8526 0.8525 0.8525 0.8524 0.8525
1929.000000 0.8526 0.8526 0.8527 0.8528 0.8529
1934.000000 0.8529 0.8530 0.8531 0.8532 0.8533
1939.000000 0.8535 0.8537 0.8539 0.8541 0.8543
1944.000000 0.8545 0.8547 0.8549 0.8551 0.8553
1949.000000 0.8555 0.8557 0.8560 0.8562 0.8564
1954.000000 0.8567 0.8569 0.8571 0.8574 0.8576
1959.000000 0.8578 0.8581 0.8583 0.8585 0.8586
1964.000000 0.8587 0.8588 0.8589 0.8590 0.8591
1969.000000 0.8592 0.8593 0.8595 0.8596 0.8597
1974.000000 0.8598 0.8599 0.8600 0.8600 0.8600
1979.000000 0.8600 0.8600 0.8600 0.8600 0.8600
1984.000000 0.8600 0.8599 0.8598 0.8596 0.8595
1989.000000 0.8594 0.8592 0.8591 0.8590 0.8588
1994.000000 0.8585 0.8582 0.8578 0.8575 0.8572
1999.000000 0.8569 0.8566 0.8558 0.8550 0.8546
2004.000000 0.8542 0.8543 0.8545 0.8550 0.8555
2009.000000 0.8560 0.8565 0.8570 0.8575 0.8578
2014.000000 0.8581 0.8577 0.8574 0.8571 0.8568
2019.000000 0.8565 0.8563 0.8560 0.8558 0.8556
2024.000000 0.8555 0.8554 0.8553 0.8551 0.8550
2029.000000 0.8548 0.8547 0.8545 0.8543 0.8540
2034.000000 0.8538 0.8535 0.8533 0.8530 0.8528
2039.000000 0.8526 0.8524 0.8522 0.8521 0.8520
2044.000000 0.8519 0.8518 0.8517 0.8515 0.8514
2049.000000 0.8514 0.8514 0.8516 0.8519 0.8522
2054.000000 0.8526 0.8529 0.8533 0.8536 0.8539
2059.000000 0.8543 0.8548 0.8553 0.8558 0.8563
2064.000000 0.8569 0.8572 0.8576 0.8579 0.8582
2069.000000 0.8585 0.8588 0.8591 0.8594 0.8595
2074.000000 0.8597 0.8598 0.8599 0.8600 0.8601
2079.000000 0.8601 0.8602 0.8601 0.8600 0.8599
2084.000000 0.8598 0.8597 0.8596 0.8595 0.8594
2089.000000 0.8592 0.8590 0.8588 0.8586 0.8583
2094.000000 0.8581 0.8579 0.8577 0.8575 0.8573
2099.000000 0.8571 0.8570 0.8568 0.8566 0.8564
2104.000000 0.8562 0.8560 0.8559 0.8557 0.8555
2109.000000 0.8553 0.8552 0.8550 0.8548 0.8546
2114.000000 0.8545 0.8543 0.8541 0.8539 0.8538
2119.000000 0.8536 0.8534 0.8532 0.8531 0.8529
2124.000000 0.8527 0.8525 0.8524 0.8523 0.8522
2129.000000 0.8521 0.8521 0.8520 0.8520 0.8519
2134.000000 0.8519 0.8518 0.8518 0.8518 0.8518
2139.000000 0.8517 0.8517 0.8516 0.8516 0.8515
2144.000000 0.8515 0.8515 0.8515 0.8515 0.8515
2149.000000 0.8515 0.8515 0.8515 0.8515 0.8515
2154.000000 0.8515 0.8515 0.8515 0.8515 0.8515
2159.000000 0.8515 0.8515 0.8515 0.8515 0.8515
2164.000000 0.8515 0.8515 0.8515 0.8515 0.8515
2169.000000 0.8515 0.8515 0.8515 0.8516 0.8516
2174.000000 0.8516 0.8516 0.8516 0.8516 0.8516
2179.000000 0.8516 0.8516 0.8516 0.8516 0.8516
2184.000000 0.8516 0.8516 0.8516 0.8516 0.8516
2189.000000 0.8516 0.8516 0.8516 0.8516 0.8516
2194.000000 0.8516 0.8516 0.8517 0.8517 0.8518
2199.000000 0.8518 0.8518 0.8518 0.8519 0.8519
2204.000000 0.8520 0.8520 0.8520 0.8520 0.8521
2209.000000 0.8521 0.8522 0.8522 0.8522 0.8522
2214.000000 0.8523 0.8523 0.8523 0.8523 0.8524
2219.000000 0.8524 0.8525 0.8525 0.8525 0.8525
2224.000000 0.8525 0.8525 0.8526 0.8526 0.8526
2229.000000 0.8526 0.8526 0.8526 0.8527 0.8527
2234.000000 0.8527 0.8527 0.8528 0.8528 0.8528
2239.000000 0.8528 0.8528 0.8528 0.8529 0.8529
2244.000000 0.8530 0.8531 0.8532 0.8532 0.8533
2249.000000 0.8534 0.8535 0.8535 0.8536 0.8537
2254.000000 0.8538 0.8538 0.8539 0.8539 0.8540
2259.000000 0.8539 0.8539 0.8538 0.8537 0.8536
2264.000000 0.8536 0.8535 0.8534 0.8533 0.8533
2269.000000 0.8532 0.8531 0.8530 0.8530 0.8528
2274.000000 0.8527 0.8526 0.8525 0.8524 0.8523
2279.000000 0.8521 0.8520 0.8519 0.8518 0.8517
2284.000000 0.8516 0.8514 0.8513 0.8512 0.8511
2289.000000 0.8509 0.8508 0.8507 0.8507 0.8507
2294.000000 0.8508 0.8508 0.8509 0.8509 0.8510
2299.000000 0.8510 0.8511 0.8513 0.8516 0.8519
2304.000000 0.8522 0.8525 0.8528 0.8530 0.8533
2309.000000 0.8536 0.8540 0.8545 0.8550 0.8554
2314.000000 0.8559 0.8564 0.8569 0.8574 0.8579
2319.000000 0.8584 0.8589 0.8594 0.8599 0.8602
2324.000000 0.8605 0.8606 0.8608 0.8609 0.8611
2329.000000 0.8610 0.8610 0.8608 0.8606 0.8605
2334.000000 0.8604 0.8602 0.8601 0.8599 0.8598
2339.000000 0.8597 0.8596 0.8594 0.8593 0.8591
2344.000000 0.8590 0.8589 0.8588 0.8586 0.8585
2349.000000 0.8583 0.8582 0.8594 0.8607 0.8623
2354.000000 0.8640 0.8651 0.8663 0.8671 0.8680
2359.000000 0.8683 0.8687 0.8687 0.8687 0.8684
2364.000000 0.8682 0.8674 0.8667 0.8659 0.8651
2369.000000 0.8640 0.8629 0.8618 0.8607 0.8590
2374.000000 0.8574 0.8555 0.8537 0.8525 0.8513
2379.000000 0.8502 0.8492 0.8482 0.8472 0.8465
2384.000000 0.8459 0.8453 0.8447 0.8445 0.8443
2389.000000 0.8441 0.8440 0.8438 0.8437 0.8435
2394.000000 0.8434 0.8433 0.8432 0.8430 0.8429
2399.000000 0.8430 0.8431 0.8434 0.8437 0.8440
2404.000000 0.8443 0.8443 0.8443 0.8439 0.8436
2409.000000 0.8431 0.8427 0.8423 0.8419 0.8415
2414.000000 0.8411 0.8407 0.8403 0.8399 0.8396
2419.000000 0.8393 0.8391 0.8388 0.8386 0.8383
2424.000000 0.8380 0.8378 0.8377 0.8376 0.8376
2429.000000 0.8375 0.8375 0.8374 0.8373 0.8372
2434.000000 0.8372 0.8371 0.8370 0.8371 0.8372
2439.000000 0.8372 0.8373 0.8374 0.8375 0.8376
2444.000000 0.8377 0.8377 0.8378 0.8382 0.8387
2449.000000 0.8392 0.8397 0.8405 0.8413 0.8422
2454.000000 0.8431 0.8439 0.8448 0.8457 0.8466
2459.000000 0.8473 0.8481 0.8488 0.8495 0.8501
2464.000000 0.8508 0.8515 0.8522 0.8528 0.8534
2469.000000 0.8540 0.8546 0.8551 0.8557 0.8562
