##TITLE=Ethane, 1,2-dibromo-
##JCAMP-DX=4.24
##DATA TYPE=INFRARED SPECTRUM
##CLASS=COBLENTZ
##ORIGIN=DOW CHEMICAL COMPANY
##OWNER=Copyright (C) 1987 by the Coblentz Society
Collection (C) 2018 copyright by the U.S. Secretary of Commerce
on behalf of the United States of America. All rights reserved.
##DATE=1964
##NAMES=1,2-dibromoethane
ETHYLENE DIBROMIDE
##CAS REGISTRY NO=106-93-4
##MOLFORM=C2 H4 Br2
##SOURCE REFERENCE=COBLENTZ NO. 8827
##$NIST SOURCE=COBLENTZ
##$NIST IMAGE=cob8827
##SPECTROMETER/DATA SYSTEM=DOW KBr FOREPRISM-GRATING
##INSTRUMENT PARAMETERS=GRATING CHANGED AT 5.0, 7.5, 15.0 MICRON
##STATE=GAS (10 mmHg, N2 ADDED, TOTAL PRESSURE 600 mmHg)
##PATH LENGTH=5 CM
$$SPECTRAL CONTAMINATION DUE TO CH2Br2 AROUND 650 CM^-^1
##SAMPLING PROCEDURE=TRANSMISSION
##RESOLUTION=2
##DATA PROCESSING=DIGITIZED BY COBLENTZ SOCIETY (BATCH II) FROM HARD COPY
##XUNITS=1/CM
##YUNITS=TRANSMITTANCE
##XFACTOR=1.0
##YFACTOR=1
##FIRSTX=456
##LASTX=3796
##FIRSTY=0.8637
##MAXX=3796
##MINX=456
##MAXY=0.8991
##MINY=0.4214
##NPOINTS=3341
##XYDATA=(X++(Y..Y))
456.000000 0.8637 0.8641 0.8645 0.8648 0.8652
461.000000 0.8655 0.8657 0.8657 0.8657 0.8657
466.000000 0.8657 0.8656 0.8656 0.8656 0.8656
471.000000 0.8656 0.8655 0.8655 0.8655 0.8655
476.000000 0.8654 0.8654 0.8654 0.8653 0.8653
481.000000 0.8652 0.8651 0.8650 0.8649 0.8649
486.000000 0.8648 0.8643 0.8646 0.8645 0.8645
491.000000 0.8644 0.8643 0.8642 0.8641 0.8641
496.000000 0.8640 0.8639 0.8638 0.8637 0.8636
501.000000 0.8635 0.8635 0.8634 0.8633 0.8632
506.000000 0.8631 0.8630 0.8629 0.8628 0.8627
511.000000 0.8627 0.8626 0.8625 0.8624 0.8624
516.000000 0.8624 0.8624 0.8624 0.8624 0.8624
521.000000 0.8624 0.8624 0.8624 0.8624 0.8624
526.000000 0.8624 0.8624 0.8624 0.8624 0.8624
531.000000 0.8624 0.8624 0.8624 0.8623 0.8622
536.000000 0.8621 0.8621 0.8620 0.8619 0.8618
541.000000 0.8617 0.8616 0.8616 0.8615 0.8614
546.000000 0.8613 0.8612 0.8611 0.8610 0.8610
551.000000 0.8611 0.8614 0.8617 0.8621 0.8624
556.000000 0.8630 0.8637 0.8643 0.8647 0.8645
561.000000 0.8643 0.8641 0.8638 0.8636 0.8633
566.000000 0.8631 0.8628 0.8626 0.8624 0.8623
571.000000 0.8621 0.8620 0.8618 0.8617 0.8616
576.000000 0.8614 0.8612 0.8608 0.8604 0.8599
581.000000 0.8595 0.8578 0.8556 0.8534 0.8492
586.000000 0.8447 0.8378 0.8306 0.8222 0.8118
591.000000 0.8002 0.7864 0.7343 0.6861 0.6380
596.000000 0.5898 0.5416 0.4935 0.4453 0.4217
601.000000 0.4223 0.4214 0.4308 0.4373 0.4443
606.000000 0.4487 0.4514 0.4618 0.5448 0.6278
611.000000 0.7109 0.7939 0.8688 0.8714 0.8732
616.000000 0.8742 0.8748 0.8753 0.8757 0.8760
621.000000 0.8763 0.8765 0.8766 0.8767 0.8768
626.000000 0.8769 0.8769 0.8769 0.8769 0.8768
631.000000 0.8767 0.8767 0.8766 0.8759 0.8749
636.000000 0.8739 0.8729 0.8719 0.8710 0.8700
641.000000 0.8663 0.8612 0.8554 0.8493 0.8450
646.000000 0.8433 0.8416 0.8423 0.8432 0.8442
651.000000 0.8450 0.8459 0.8438 0.8422 0.8407
656.000000 0.8399 0.8401 0.8406 0.8424 0.8452
661.000000 0.8488 0.8533 0.8600 0.8710 0.8730
666.000000 0.8747 0.8751 0.8755 0.8758 0.8762
671.000000 0.8766 0.8767 0.8767 0.8767 0.8767
676.000000 0.8767 0.8767 0.8767 0.8767 0.8767
681.000000 0.8767 0.8767 0.8767 0.8767 0.8766
686.000000 0.8766 0.8765 0.8765 0.8764 0.8764
691.000000 0.8763 0.8763 0.8762 0.8762 0.8761
696.000000 0.8761 0.8760 0.8760 0.8759 0.8759
701.000000 0.8759 0.8758 0.8758 0.8758 0.8757
706.000000 0.8757 0.8757 0.8756 0.8756 0.8755
711.000000 0.8754 0.8752 0.8750 0.8749 0.8747
716.000000 0.8746 0.8744 0.8743 0.8741 0.8740
721.000000 0.8738 0.8736 0.8735 0.8733 0.8731
726.000000 0.8730 0.8728 0.8726 0.8724 0.8722
731.000000 0.8720 0.8718 0.8717 0.8715 0.8713
736.000000 0.8711 0.8709 0.8706 0.8703 0.8701
741.000000 0.8698 0.8695 0.8692 0.8690 0.8687
746.000000 0.8684 0.8684 0.8686 0.8687 0.8689
751.000000 0.8691 0.8693 0.8694 0.8696 0.8698
756.000000 0.8700 0.8702 0.8703 0.8705 0.8707
761.000000 0.8705 0.8704 0.8702 0.8701 0.8699
766.000000 0.8695 0.8692 0.8688 0.8685 0.8681
771.000000 0.8678 0.8674 0.8670 0.8665 0.8660
776.000000 0.8655 0.8650 0.8645 0.8641 0.8636
781.000000 0.8634 0.8635 0.8636 0.8637 0.8638
786.000000 0.8639 0.8640 0.8641 0.8644 0.8649
791.000000 0.8655 0.8660 0.8666 0.8671 0.8677
796.000000 0.8682 0.8688 0.8694 0.8698 0.8702
801.000000 0.8706 0.8710 0.8714 0.8718 0.8722
806.000000 0.8725 0.8729 0.8731 0.8731 0.8731
811.000000 0.8731 0.8731 0.8731 0.8731 0.8731
816.000000 0.8731 0.8731 0.8728 0.8720 0.8712
821.000000 0.8705 0.8697 0.8689 0.8682 0.8672
826.000000 0.8662 0.8651 0.8640 0.8629 0.8618
831.000000 0.8607 0.8597 0.8590 0.8583 0.8575
836.000000 0.8569 0.8570 0.8571 0.8572 0.8575
841.000000 0.8583 0.8591 0.8598 0.8608 0.8620
846.000000 0.8631 0.8643 0.8656 0.8677 0.8697
851.000000 0.8713 0.8728 0.8743 0.8754 0.8759
856.000000 0.8765 0.8770 0.8776 0.8781 0.8782
861.000000 0.8782 0.8783 0.8783 0.8783 0.8783
866.000000 0.8783 0.8783 0.8783 0.8784 0.8786
871.000000 0.8787 0.8789 0.8790 0.8792 0.8793
876.000000 0.8794 0.8791 0.8788 0.8785 0.8782
881.000000 0.8779 0.8776 0.8773 0.8770 0.8767
886.000000 0.8764 0.8761 0.8758 0.8755 0.8752
891.000000 0.8753 0.8754 0.8754 0.8755 0.8756
896.000000 0.8757 0.8757 0.8758 0.8759 0.8759
901.000000 0.8760 0.8764 0.8768 0.8772 0.8776
906.000000 0.8780 0.8784 0.8787 0.8791 0.8794
911.000000 0.8798 0.8802 0.8805 0.8809 0.8813
916.000000 0.8816 0.8820 0.8822 0.8821 0.8819
921.000000 0.8818 0.8816 0.8815 0.8813 0.8812
926.000000 0.8811 0.8809 0.8808 0.8807 0.8807
931.000000 0.8807 0.8807 0.8807 0.8807 0.8807
936.000000 0.8809 0.8811 0.8813 0.8815 0.8818
941.000000 0.8820 0.8822 0.8829 0.8839 0.8850
946.000000 0.8862 0.8884 0.8901 0.8905 0.8909
951.000000 0.8912 0.8916 0.8920 0.8922 0.8924
956.000000 0.8926 0.8928 0.8930 0.8932 0.8933
961.000000 0.8935 0.8937 0.8938 0.8940 0.8942
966.000000 0.8943 0.8945 0.8946 0.8947 0.8948
971.000000 0.8949 0.8950 0.8950 0.8942 0.8933
976.000000 0.8925 0.8917 0.8914 0.8911 0.8909
981.000000 0.8906 0.8904 0.8901 0.8903 0.8905
986.000000 0.8907 0.8909 0.8910 0.8910 0.8911
991.000000 0.8912 0.8912 0.8913 0.8912 0.8911
996.000000 0.8910 0.8909 0.8908 0.8907 0.8906
1001.000000 0.8905 0.8904 0.8903 0.8902 0.8901
1006.000000 0.8901 0.8900 0.8900 0.8899 0.8899
1011.000000 0.8898 0.8910 0.8922 0.8931 0.8937
1016.000000 0.8942 0.8948 0.8952 0.8949 0.8945
1021.000000 0.8942 0.8939 0.8935 0.8932 0.8928
1026.000000 0.8924 0.8920 0.8916 0.8914 0.8914
1031.000000 0.8914 0.8914 0.8916 0.8923 0.8931
1036.000000 0.8938 0.8945 0.8948 0.8946 0.8944
1041.000000 0.8942 0.8940 0.8938 0.8933 0.8928
1046.000000 0.8923 0.8919 0.8914 0.8909 0.8904
1051.000000 0.8899 0.8895 0.8891 0.8887 0.8883
1056.000000 0.8879 0.8875 0.8871 0.8867 0.8863
1061.000000 0.8859 0.8854 0.8847 0.8839 0.8832
1066.000000 0.8825 0.8817 0.8810 0.8799 0.8785
1071.000000 0.8772 0.8758 0.8754 0.8758 0.8761
1076.000000 0.8765 0.8768 0.8773 0.8777 0.8781
1081.000000 0.8786 0.8791 0.8797 0.8803 0.8810
1086.000000 0.8816 0.8824 0.8833 0.8842 0.8851
1091.000000 0.8860 0.8870 0.8874 0.8876 0.8878
1096.000000 0.8880 0.8881 0.8883 0.8885 0.8887
1101.000000 0.8889 0.8891 0.8893 0.8894 0.8896
1106.000000 0.8897 0.8898 0.8900 0.8901 0.8902
1111.000000 0.8904 0.8906 0.8909 0.8913 0.8916
1116.000000 0.8919 0.8923 0.8926 0.8929 0.8931
1121.000000 0.8933 0.8935 0.8937 0.8939 0.8937
1126.000000 0.8934 0.8932 0.8929 0.8925 0.8918
1131.000000 0.8912 0.8905 0.8898 0.8891 0.8884
1136.000000 0.8878 0.8872 0.8867 0.8863 0.8869
1141.000000 0.8875 0.8881 0.8882 0.8882 0.8882
1146.000000 0.8882 0.8882 0.8880 0.8877 0.8874
1151.000000 0.8871 0.8869 0.8866 0.8861 0.8857
1156.000000 0.8853 0.8848 0.8844 0.8840 0.8828
1161.000000 0.8816 0.8805 0.8793 0.8781 0.8770
1166.000000 0.8758 0.8744 0.8725 0.8706 0.8688
1171.000000 0.8669 0.8650 0.8627 0.8582 0.8537
1176.000000 0.8489 0.8389 0.8280 0.8014 0.6990
1181.000000 0.5033 0.5020 0.5009 0.5155 0.5397
1186.000000 0.5640 0.5810 0.5438 0.4693 0.4650
1191.000000 0.4637 0.6102 0.7047 0.7766 0.8338
1196.000000 0.8436 0.8464 0.8478 0.8484 0.8489
1201.000000 0.8522 0.8590 0.8656 0.8710 0.8758
1206.000000 0.8777 0.8796 0.8814 0.8828 0.8842
1211.000000 0.8855 0.8867 0.8878 0.8888 0.8897
1216.000000 0.8905 0.8913 0.8922 0.8930 0.8935
1221.000000 0.8939 0.8944 0.8948 0.8953 0.8958
1226.000000 0.8965 0.8972 0.8979 0.8973 0.8991
1231.000000 0.8985 0.8979 0.8973 0.8967 0.8960
1236.000000 0.8930 0.8907 0.8885 0.8862 0.8830
1241.000000 0.8769 0.8723 0.8690 0.8657 0.8624
1246.000000 0.8574 0.8484 0.8423 0.8366 0.8359
1251.000000 0.8361 0.8367 0.8372 0.8378 0.8381
1256.000000 0.8393 0.8400 0.8419 0.8449 0.8479
1261.000000 0.8518 0.8561 0.8604 0.8647 0.8689
1266.000000 0.8732 0.8748 0.8757 0.8757 0.8750
1271.000000 0.8747 0.8745 0.8743 0.8741 0.8739
1276.000000 0.8737 0.8734 0.8732 0.8729 0.8726
1281.000000 0.8724 0.8718 0.8708 0.8697 0.8686
1286.000000 0.8676 0.8673 0.8671 0.8669 0.8669
1291.000000 0.8677 0.8686 0.8694 0.8702 0.8710
1296.000000 0.8718 0.8726 0.8737 0.8747 0.8753
1301.000000 0.8753 0.8753 0.8752 0.8752 0.8751
1306.000000 0.8751 0.8750 0.8750 0.8749 0.8748
1311.000000 0.8746 0.8745 0.8744 0.8743 0.8742
1316.000000 0.8740 0.8739 0.8738 0.8738 0.8738
1321.000000 0.8737 0.8737 0.8737 0.8736 0.8736
1326.000000 0.8736 0.8735 0.8735 0.8735 0.8732
1331.000000 0.8729 0.8726 0.8723 0.8720 0.8718
1336.000000 0.8707 0.8658 0.8624 0.8613 0.8604
1341.000000 0.8605 0.8607 0.8616 0.8631 0.8646
1346.000000 0.8659 0.8665 0.8672 0.8678 0.8685
1351.000000 0.8709 0.8733 0.8757 0.8775 0.8777
1356.000000 0.8778 0.8780 0.8782 0.8778 0.8775
1361.000000 0.8772 0.8766 0.8755 0.8741 0.8727
1366.000000 0.8714 0.8700 0.8688 0.8676 0.8665
1371.000000 0.8653 0.8642 0.8630 0.8619 0.8611
1376.000000 0.8605 0.8598 0.8592 0.8588 0.8584
1381.000000 0.8581 0.8580 0.8579 0.8579 0.8578
1386.000000 0.8577 0.8573 0.8565 0.8558 0.8551
1391.000000 0.8539 0.8521 0.8513 0.8515 0.8518
1396.000000 0.8520 0.8523 0.8528 0.8534 0.8539
1401.000000 0.8545 0.8553 0.8562 0.8570 0.8578
1406.000000 0.8579 0.8581 0.8580 0.8573 0.8566
1411.000000 0.8559 0.8552 0.8545 0.8533 0.8518
1416.000000 0.8503 0.8488 0.8473 0.8456 0.8434
1421.000000 0.8413 0.8404 0.8399 0.8394 0.8388
1426.000000 0.8383 0.8378 0.8372 0.8367 0.8362
1431.000000 0.8357 0.8351 0.8341 0.8330 0.8318
1436.000000 0.8309 0.8302 0.8295 0.8288 0.8281
1441.000000 0.8274 0.8267 0.8260 0.8247 0.8235
1446.000000 0.8222 0.8215 0.8239 0.8264 0.8242
1451.000000 0.8192 0.8147 0.8102 0.8057 0.8033
1456.000000 0.8034 0.8064 0.8134 0.8219 0.8275
1461.000000 0.8331 0.8368 0.8390 0.8393 0.8405
1466.000000 0.8422 0.8449 0.8458 0.8443 0.8393
1471.000000 0.8349 0.8323 0.8340 0.8363 0.8382
1476.000000 0.8401 0.8421 0.8443 0.8466 0.8483
1481.000000 0.8485 0.8487 0.8489 0.8490 0.8483
1486.000000 0.8475 0.8457 0.8430 0.8414 0.8445
1491.000000 0.8475 0.8501 0.8528 0.8536 0.8514
1496.000000 0.8471 0.8431 0.8417 0.8434 0.8451
1501.000000 0.8473 0.8504 0.8534 0.8470 0.8350
1506.000000 0.8151 0.8170 0.8219 0.8292 0.8365
1511.000000 0.8438 0.8488 0.8513 0.8518 0.8512
1516.000000 0.8502 0.8486 0.8468 0.8447 0.8397
1521.000000 0.8288 0.8369 0.8394 0.8419 0.8436
1526.000000 0.8444 0.8467 0.8490 0.8500 0.8511
1531.000000 0.8509 0.8500 0.8491 0.8488 0.8512
1536.000000 0.8537 0.8560 0.8583 0.8130 0.8116
1541.000000 0.8232 0.8295 0.8358 0.8404 0.8432
1546.000000 0.8477 0.8515 0.8535 0.8535 0.8526
1551.000000 0.8510 0.8492 0.8473 0.8419 0.8337
1556.000000 0.8256 0.8174 0.8092 0.8070 0.8121
1561.000000 0.8051 0.8424 0.8539 0.8554 0.8551
1566.000000 0.8549 0.8548 0.8563 0.8579 0.8588
1571.000000 0.8598 0.8593 0.8546 0.8450 0.8400
1576.000000 0.8471 0.8526 0.8564 0.8578 0.8591
1581.000000 0.8605 0.8612 0.8615 0.8619 0.8621
1586.000000 0.8621 0.8621 0.8621 0.8621 0.8621
1591.000000 0.8620 0.8619 0.8618 0.8617 0.8616
1596.000000 0.8615 0.8613 0.8613 0.8612 0.8611
1601.000000 0.8611 0.8610 0.8609 0.8609 0.8608
1606.000000 0.8608 0.8607 0.8606 0.8606 0.8603
1611.000000 0.8599 0.8596 0.8592 0.8548 0.8383
1616.000000 0.8387 0.8433 0.8474 0.8517 0.8530
1621.000000 0.8542 0.8555 0.8557 0.8559 0.8553
1626.000000 0.8546 0.8538 0.8524 0.8511 0.8497
1631.000000 0.8483 0.8426 0.8331 0.8344 0.8365
1636.000000 0.8411 0.8525 0.8548 0.8571 0.8581
1641.000000 0.8577 0.8573 0.8568 0.8537 0.8462
1646.000000 0.8410 0.8453 0.8495 0.8514 0.8533
1651.000000 0.7960 0.7968 0.8136 0.8302 0.8469
1656.000000 0.8570 0.8592 0.8603 0.8609 0.8604
1661.000000 0.8546 0.8526 0.8538 0.8564 0.8564
1666.000000 0.8561 0.8550 0.8485 0.8451 0.8430
1671.000000 0.8435 0.8440 0.8469 0.8510 0.8535
1676.000000 0.8559 0.8568 0.8564 0.8549 0.8534
1681.000000 0.8496 0.8253 0.8139 0.8186 0.8226
1686.000000 0.8304 0.8467 0.8571 0.8596 0.8602
1691.000000 0.8607 0.8604 0.8601 0.8588 0.8565
1696.000000 0.8475 0.8233 0.8163 0.8198 0.8210
1701.000000 0.8298 0.8400 0.8490 0.8541 0.8560
1706.000000 0.8584 0.8583 0.8576 0.8569 0.8557
1711.000000 0.8539 0.8520 0.8461 0.8394 0.8323
1716.000000 0.8329 0.8406 0.8482 0.8557 0.8578
1721.000000 0.8592 0.8590 0.8587 0.8584 0.8581
1726.000000 0.8572 0.8563 0.8554 0.8530 0.8497
1731.000000 0.8327 0.8284 0.8323 0.8405 0.8474
1736.000000 0.8511 0.8523 0.8533 0.8538 0.8561
1741.000000 0.8568 0.8572 0.8570 0.8555 0.8540
1746.000000 0.8526 0.8511 0.8496 0.8481 0.8491
1751.000000 0.8504 0.8515 0.8526 0.8528 0.8528
1756.000000 0.8528 0.8523 0.8516 0.8510 0.8504
1761.000000 0.8501 0.8502 0.8504 0.8504 0.8503
1766.000000 0.8502 0.8501 0.8487 0.8456 0.8392
1771.000000 0.8398 0.8423 0.8451 0.8502 0.8526
1776.000000 0.8538 0.8548 0.8549 0.8551 0.8552
1781.000000 0.8555 0.8558 0.8560 0.8563 0.8563
1786.000000 0.8563 0.8563 0.8516 0.8462 0.8451
1791.000000 0.8473 0.8495 0.8516 0.8530 0.8543
1796.000000 0.8556 0.8559 0.8562 0.8565 0.8568
1801.000000 0.8571 0.8573 0.8572 0.8564 0.8556
1806.000000 0.8548 0.8540 0.8532 0.8526 0.8534
1811.000000 0.8542 0.8549 0.8556 0.8562 0.8567
1816.000000 0.8570 0.8570 0.8563 0.8556 0.8549
1821.000000 0.8545 0.8542 0.8539 0.8536 0.8533
1826.000000 0.8533 0.8533 0.8532 0.8527 0.8522
1831.000000 0.8517 0.8515 0.8518 0.8520 0.8524
1836.000000 0.8528 0.8532 0.8536 0.8540 0.8485
1841.000000 0.8438 0.8439 0.8451 0.8465 0.8483
1846.000000 0.8501 0.8514 0.8524 0.8533 0.8533
1851.000000 0.8532 0.8531 0.8531 0.8530 0.8530
1856.000000 0.8530 0.8530 0.8530 0.8530 0.8528
1861.000000 0.8523 0.8519 0.8515 0.8511 0.8517
1866.000000 0.8522 0.8528 0.8541 0.8558 0.8570
1871.000000 0.8571 0.8573 0.8575 0.8576 0.8576
1876.000000 0.8575 0.8575 0.8574 0.8573 0.8570
1881.000000 0.8565 0.8559 0.8554 0.8548 0.8542
1886.000000 0.8536 0.8542 0.8553 0.8563 0.8566
1891.000000 0.8567 0.8569 0.8570 0.8571 0.8572
1896.000000 0.8573 0.8573 0.8573 0.8573 0.8573
1901.000000 0.8573 0.8573 0.8573 0.8573 0.8574
1906.000000 0.8572 0.8570 0.8568 0.8566 0.8561
1911.000000 0.8554 0.8547 0.8540 0.8537 0.8546
1916.000000 0.8554 0.8563 0.8572 0.8580 0.8582
1921.000000 0.8583 0.8584 0.8584 0.8585 0.8585
1926.000000 0.8583 0.8582 0.8580 0.8578 0.8577
1931.000000 0.8575 0.8571 0.8565 0.8559 0.8554
1936.000000 0.8550 0.8549 0.8548 0.8548 0.8554
1941.000000 0.8565 0.8575 0.8586 0.8588 0.8590
1946.000000 0.8592 0.8594 0.8593 0.8592 0.8592
1951.000000 0.8591 0.8590 0.8590 0.8589 0.8588
1956.000000 0.8587 0.8586 0.8585 0.8584 0.8583
1961.000000 0.8582 0.8581 0.8580 0.8579 0.8579
1966.000000 0.8579 0.8580 0.8581 0.8581 0.8582
1971.000000 0.8583 0.8583 0.8584 0.8584 0.8585
1976.000000 0.8586 0.8586 0.8587 0.8586 0.8585
1981.000000 0.8584 0.8584 0.8583 0.8582 0.8581
1986.000000 0.8581 0.8580 0.8579 0.8572 0.8565
1991.000000 0.8558 0.8550 0.8547 0.8561 0.8575
1996.000000 0.8586 0.8598 0.8609 0.8620 0.8626
2001.000000 0.8593 0.8560 0.8540 0.8520 0.8513
2006.000000 0.8507 0.8501 0.8495 0.8501 0.8507
2011.000000 0.8510 0.8514 0.8517 0.8520 0.8523
2016.000000 0.8526 0.8529 0.8532 0.8534 0.8537
2021.000000 0.8536 0.8536 0.8535 0.8534 0.8532
2026.000000 0.8531 0.8527 0.8523 0.8519 0.8516
2031.000000 0.8512 0.8508 0.8503 0.8499 0.8494
2036.000000 0.8489 0.8484 0.8480 0.8492 0.8504
2041.000000 0.8518 0.8532 0.8543 0.8554 0.8565
2046.000000 0.8576 0.8577 0.8578 0.8579 0.8580
2051.000000 0.8581 0.8582 0.8583 0.8584 0.8584
2056.000000 0.8584 0.8584 0.8584 0.8584 0.8584
2061.000000 0.8584 0.8584 0.8584 0.8584 0.8584
2066.000000 0.8584 0.8584 0.8584 0.8584 0.8584
2071.000000 0.8584 0.8584 0.8584 0.8584 0.8584
2076.000000 0.8584 0.8583 0.8583 0.8583 0.8583
2081.000000 0.8582 0.8582 0.8582 0.8582 0.8581
2086.000000 0.8581 0.8581 0.8581 0.8580 0.8580
2091.000000 0.8580 0.8580 0.8580 0.8580 0.8580
2096.000000 0.8580 0.8580 0.8580 0.8579 0.8579
2101.000000 0.8579 0.8579 0.8579 0.8579 0.8579
2106.000000 0.8579 0.8579 0.8579 0.8578 0.8578
2111.000000 0.8578 0.8578 0.8578 0.8578 0.8578
2116.000000 0.8578 0.8578 0.8578 0.8577 0.8577
2121.000000 0.8577 0.8577 0.8577 0.8577 0.8577
2126.000000 0.8578 0.8578 0.8579 0.8579 0.8580
2131.000000 0.8580 0.8580 0.8580 0.8581 0.8581
2136.000000 0.8582 0.8582 0.8583 0.8583 0.8584
2141.000000 0.8584 0.8585 0.8585 0.8586 0.8586
2146.000000 0.8587 0.8587 0.8588 0.8588 0.8588
2151.000000 0.8588 0.8589 0.8589 0.8590 0.8590
2156.000000 0.8591 0.8591 0.8592 0.8592 0.8593
2161.000000 0.8593 0.8594 0.8594 0.8595 0.8595
2166.000000 0.8595 0.8595 0.8596 0.8596 0.8597
2171.000000 0.8597 0.8598 0.8598 0.8599 0.8599
2176.000000 0.8600 0.8600 0.8601 0.8601 0.8602
2181.000000 0.8602 0.8603 0.8603 0.8604 0.8604
2186.000000 0.8605 0.8605 0.8606 0.8606 0.8607
2191.000000 0.8607 0.8608 0.8608 0.8609 0.8609
2196.000000 0.8610 0.8610 0.8611 0.8611 0.8612
2201.000000 0.8612 0.8613 0.8613 0.8614 0.8614
2206.000000 0.8615 0.8615 0.8616 0.8616 0.8617
2211.000000 0.8617 0.8617 0.8617 0.8618 0.8618
2216.000000 0.8618 0.8618 0.8619 0.8619 0.8619
2221.000000 0.8619 0.8620 0.8620 0.8620 0.8620
2226.000000 0.8621 0.8621 0.8621 0.8621 0.8622
2231.000000 0.8622 0.8622 0.8622 0.8623 0.8623
2236.000000 0.8623 0.8623 0.8624 0.8624 0.8624
2241.000000 0.8624 0.8625 0.8625 0.8626 0.8626
2246.000000 0.8627 0.8627 0.8627 0.8627 0.8628
2251.000000 0.8628 0.8629 0.8629 0.8630 0.8630
2256.000000 0.8631 0.8631 0.8632 0.8632 0.8633
2261.000000 0.8633 0.8634 0.8634 0.8635 0.8635
2266.000000 0.8635 0.8635 0.8636 0.8636 0.8637
2271.000000 0.8637 0.8638 0.8638 0.8639 0.8639
2276.000000 0.8640 0.8640 0.8641 0.8641 0.8642
2281.000000 0.8642 0.8642 0.8642 0.8643 0.8643
2286.000000 0.8644 0.8644 0.8645 0.8645 0.8646
2291.000000 0.8646 0.8647 0.8648 0.8649 0.8649
2296.000000 0.8650 0.8650 0.8651 0.8651 0.8652
2301.000000 0.8652 0.8653 0.8653 0.8654 0.8654
2306.000000 0.8655 0.8655 0.8656 0.8656 0.8657
2311.000000 0.8657 0.8658 0.8659 0.8660 0.8660
2316.000000 0.8660 0.8659 0.8659 0.8659 0.8659
2321.000000 0.8658 0.8658 0.8657 0.8657 0.8656
2326.000000 0.8656 0.8656 0.8656 0.8655 0.8655
2331.000000 0.8654 0.8654 0.8653 0.8653 0.8654
2336.000000 0.8655 0.8657 0.8660 0.8663 0.8666
2341.000000 0.8668 0.8671 0.8673 0.8676 0.8678
2346.000000 0.8681 0.8685 0.8689 0.8694 0.8699
2351.000000 0.8703 0.8708 0.8709 0.8711 0.8711
2356.000000 0.8711 0.8711 0.8711 0.8711 0.8711
2361.000000 0.8711 0.8711 0.8711 0.8711 0.8711
2366.000000 0.8711 0.8709 0.8707 0.8705 0.8704
2371.000000 0.8702 0.8701 0.8699 0.8698 0.8696
2376.000000 0.8695 0.8693 0.8691 0.8689 0.8688
2381.000000 0.8686 0.8685 0.8684 0.8684 0.8683
2386.000000 0.8683 0.8682 0.8682 0.8681 0.8681
2391.000000 0.8680 0.8680 0.8679 0.8678 0.8677
2396.000000 0.8677 0.8676 0.8675 0.8674 0.8674
2401.000000 0.8673 0.8672 0.8671 0.8671 0.8670
2406.000000 0.8670 0.8669 0.8669 0.8668 0.8668
2411.000000 0.8667 0.8667 0.8666 0.8665 0.8664
2416.000000 0.8664 0.8663 0.8663 0.8662 0.8662
2421.000000 0.8661 0.8661 0.8660 0.8660 0.8659
2426.000000 0.8658 0.8658 0.8658 0.8659 0.8660
2431.000000 0.8660 0.8661 0.8661 0.8662 0.8662
2436.000000 0.8663 0.8663 0.8664 0.8664 0.8665
2441.000000 0.8667 0.8669 0.8671 0.8673 0.8675
2446.000000 0.8677 0.8678 0.8680 0.8682 0.8684
2451.000000 0.8686 0.8688 0.8690 0.8692 0.8693
2456.000000 0.8694 0.8694 0.8695 0.8695 0.8696
2461.000000 0.8697 0.8698 0.8698 0.8699 0.8699
2466.000000 0.8700 0.8700 0.8701 0.8701 0.8701
2471.000000 0.8700 0.8700 0.8700 0.8700 0.8700
2476.000000 0.8700 0.8700 0.8700 0.8699 0.8699
