##TITLE=Propene, 3-chloro-
##JCAMP-DX=4.24
##DATA TYPE=INFRARED SPECTRUM
##CLASS=COBLENTZ
##ORIGIN=DOW CHEMICAL COMPANY
##OWNER=Copyright (C) 1987 by the Coblentz Society
Collection (C) 2018 copyright by the U.S. Secretary of Commerce
on behalf of the United States of America. All rights reserved.
##DATE=1964
##NAMES=3-chloro-1-propene
ALLYL CHLORIDE
##CAS REGISTRY NO=107-05-1
##MOLFORM=C3 H5 Cl
##SOURCE REFERENCE=COBLENTZ NO. 8824
##$NIST SOURCE=COBLENTZ
##$NIST IMAGE=cob8824
##SPECTROMETER/DATA SYSTEM=DOW KBr FOREPRISM-GRATING
##INSTRUMENT PARAMETERS=GRATING CHANGED AT 5.0, 7.5, 15.0 MICRON
##STATE=GAS (100 mmHg, N2 ADDED, TOTAL PRESSURE 600 mmHg)
##PATH LENGTH=5 CM
##SAMPLING PROCEDURE=TRANSMISSION
##RESOLUTION=2
##DATA PROCESSING=DIGITIZED BY COBLENTZ SOCIETY (BATCH II) FROM HARD COPY
##XUNITS=1/CM
##YUNITS=TRANSMITTANCE
##XFACTOR=1.0
##YFACTOR=1
##FIRSTX=452
##LASTX=3788
##FIRSTY=0.8799
##MAXX=3788
##MINX=452
##MAXY=0.8835
##MINY=0.0283
##NPOINTS=3337
##XYDATA=(X++(Y..Y))
452.000000 0.8799 0.8792 0.8778 0.8765 0.8751
457.000000 0.8738 0.8724 0.8711 0.8697 0.8684
462.000000 0.8670 0.8654 0.8638 0.8622 0.8607
467.000000 0.8591 0.8571 0.8549 0.8528 0.8503
472.000000 0.8475 0.8446 0.8417 0.8389 0.8370
477.000000 0.8357 0.8345 0.8333 0.8321 0.8308
482.000000 0.8304 0.8304 0.8304 0.8304 0.8306
487.000000 0.8309 0.8312 0.8315 0.8304 0.8288
492.000000 0.8261 0.8234 0.8207 0.8179 0.8146
497.000000 0.8112 0.8078 0.8045 0.8019 0.7992
502.000000 0.7966 0.7940 0.7919 0.7902 0.7885
507.000000 0.7868 0.7851 0.7844 0.7836 0.7829
512.000000 0.7823 0.7821 0.7851 0.7817 0.7816
517.000000 0.7814 0.7799 0.7760 0.7704 0.7664
522.000000 0.7668 0.7674 0.7686 0.7699 0.7711
527.000000 0.7724 0.7737 0.7750 0.7762 0.7773
532.000000 0.7784 0.7786 0.7785 0.7780 0.7763
537.000000 0.7746 0.7692 0.7633 0.7570 0.7523
542.000000 0.7489 0.7471 0.7357 0.7187 0.7016
547.000000 0.6846 0.6676 0.6584 0.6588 0.7689
552.000000 0.7776 0.7766 0.7769 0.7765 0.7764
557.000000 0.7762 0.7753 0.7743 0.7733 0.7721
562.000000 0.7709 0.7697 0.7687 0.7677 0.7667
567.000000 0.7651 0.7634 0.7617 0.7595 0.7568
572.000000 0.7538 0.7507 0.7475 0.7430 0.7385
577.000000 0.7333 0.7279 0.7189 0.7030 0.6845
582.000000 0.6615 0.6471 0.6313 0.6183 0.6049
587.000000 0.5974 0.5960 0.5966 0.5990 0.6005
592.000000 0.6009 0.6000 0.5967 0.5927 0.5898
597.000000 0.5909 0.5917 0.5968 0.6022 0.6089
602.000000 0.6145 0.6204 0.6328 0.6522 0.6787
607.000000 0.6939 0.7346 0.7548 0.7656 0.7745
612.000000 0.7827 0.7909 0.7967 0.8017 0.8067
617.000000 0.8117 0.8159 0.8188 0.8217 0.8246
622.000000 0.8274 0.8294 0.8314 0.8333 0.8352
627.000000 0.8372 0.8379 0.8384 0.8390 0.8374
632.000000 0.8395 0.8392 0.8388 0.8377 0.8366
637.000000 0.8355 0.8341 0.8327 0.8312 0.8298
642.000000 0.8284 0.8271 0.8259 0.8248 0.8236
647.000000 0.8224 0.8212 0.8200 0.8183 0.8167
652.000000 0.8151 0.8134 0.8118 0.8107 0.8099
657.000000 0.8090 0.8082 0.8078 0.8089 0.8103
662.000000 0.8121 0.8138 0.8162 0.8176 0.8173
667.000000 0.8153 0.8081 0.8035 0.7993 0.7950
672.000000 0.7914 0.7878 0.7844 0.7810 0.7776
677.000000 0.7744 0.7712 0.7688 0.7665 0.7650
682.000000 0.7641 0.7631 0.7629 0.7628 0.7627
687.000000 0.7627 0.7633 0.7640 0.7641 0.7639
692.000000 0.7629 0.7616 0.7602 0.7588 0.7577
697.000000 0.7569 0.7563 0.7557 0.7548 0.7539
702.000000 0.7529 0.7515 0.7477 0.7424 0.7373
707.000000 0.7309 0.7237 0.7160 0.7081 0.7001
712.000000 0.6873 0.6661 0.6444 0.6289 0.6155
717.000000 0.6006 0.5802 0.5578 0.4949 0.4705
722.000000 0.4460 0.4216 0.3972 0.3727 0.3483
727.000000 0.3239 0.2995 0.2731 0.2055 0.1678
732.000000 0.1357 0.1086 0.0918 0.0717 0.0582
737.000000 0.0469 0.0408 0.0375 0.0379 0.0362
742.000000 0.0367 0.0411 0.0472 0.0517 0.0547
747.000000 0.0556 0.0564 0.0546 0.0523 0.0449
752.000000 0.0306 0.0304 0.0306 0.0283 0.0331
757.000000 0.0357 0.0413 0.0523 0.0588 0.0917
762.000000 0.1567 0.2218 0.2868 0.3518 0.4050
767.000000 0.4121 0.4777 0.5460 0.5671 0.6104
772.000000 0.6224 0.6343 0.6479 0.6628 0.6783
777.000000 0.6964 0.7119 0.7215 0.7310 0.7406
782.000000 0.7496 0.7585 0.7674 0.7759 0.7841
787.000000 0.7922 0.7980 0.8034 0.8088 0.8133
792.000000 0.8171 0.8208 0.8246 0.8266 0.8284
797.000000 0.8298 0.8305 0.8312 0.8316 0.8318
802.000000 0.8321 0.8325 0.8334 0.8349 0.8367
807.000000 0.8387 0.8408 0.8423 0.8434 0.8443
812.000000 0.8444 0.8446 0.8447 0.8446 0.8445
817.000000 0.8444 0.8441 0.8434 0.8427 0.8419
822.000000 0.8412 0.8408 0.8406 0.8404 0.8401
827.000000 0.8399 0.8402 0.8402 0.8405 0.8408
832.000000 0.8411 0.8415 0.8424 0.8433 0.8442
837.000000 0.8451 0.8460 0.8468 0.8475 0.8482
842.000000 0.8489 0.8496 0.8499 0.8502 0.8505
847.000000 0.8508 0.8512 0.8507 0.8503 0.8498
852.000000 0.8494 0.8489 0.8484 0.8473 0.8461
857.000000 0.8450 0.8435 0.8418 0.8401 0.8384
862.000000 0.8367 0.8346 0.8318 0.8290 0.8262
867.000000 0.8234 0.8206 0.8177 0.8144 0.8086
872.000000 0.8029 0.7971 0.7898 0.7804 0.7710
877.000000 0.7609 0.7477 0.7158 0.6943 0.6728
882.000000 0.6513 0.6298 0.6083 0.5868 0.5653
887.000000 0.5438 0.5295 0.5194 0.5083 0.4826
892.000000 0.4801 0.4855 0.4961 0.5019 0.4999
897.000000 0.4573 0.4147 0.3721 0.3295 0.3033
902.000000 0.2955 0.2858 0.2742 0.2664 0.2586
907.000000 0.2516 0.2447 0.2304 0.2119 0.1885
912.000000 0.1543 0.1310 0.1117 0.0976 0.0883
917.000000 0.0833 0.0837 0.0842 0.0855 0.0865
922.000000 0.0867 0.0867 0.0866 0.0871 0.0881
927.000000 0.0884 0.0892 0.0824 0.0686 0.0619
932.000000 0.0591 0.0609 0.0630 0.0682 0.0771
937.000000 0.0880 0.1105 0.1271 0.1410 0.1660
942.000000 0.1986 0.2125 0.2269 0.2429 0.2588
947.000000 0.2748 0.2908 0.3068 0.3228 0.3388
952.000000 0.3712 0.4033 0.4172 0.4299 0.4432
957.000000 0.4484 0.4517 0.4529 0.4537 0.4549
962.000000 0.4525 0.4509 0.4490 0.4454 0.4381
967.000000 0.4300 0.4227 0.4117 0.3935 0.3754
972.000000 0.3572 0.3391 0.3209 0.3028 0.2846
977.000000 0.2665 0.2514 0.2540 0.2505 0.3782
982.000000 0.3772 0.3783 0.3726 0.3690 0.3650
987.000000 0.3520 0.3500 0.3495 0.3517 0.3665
992.000000 0.3807 0.3949 0.4092 0.4234 0.4376
997.000000 0.4519 0.4661 0.4803 0.4946 0.5145
1002.000000 0.5351 0.5565 0.5695 0.5821 0.5937
1007.000000 0.6052 0.6165 0.6269 0.6373 0.6470
1012.000000 0.6552 0.6633 0.6715 0.6800 0.6890
1017.000000 0.6980 0.7070 0.7148 0.7225 0.7302
1022.000000 0.7379 0.7441 0.7492 0.7543 0.7594
1027.000000 0.7637 0.7677 0.7717 0.7755 0.7781
1032.000000 0.7807 0.7833 0.7858 0.7921 0.7985
1037.000000 0.8044 0.8103 0.8162 0.8207 0.8248
1042.000000 0.8289 0.8322 0.8347 0.8368 0.8378
1047.000000 0.8387 0.8395 0.8400 0.8404 0.8409
1052.000000 0.8413 0.8418 0.8423 0.8429 0.8440
1057.000000 0.8443 0.8450 0.8459 0.8475 0.8486
1062.000000 0.8491 0.8497 0.8497 0.8496 0.8494
1067.000000 0.8493 0.8492 0.8490 0.8488 0.8486
1072.000000 0.8485 0.8483 0.8481 0.8478 0.8474
1077.000000 0.8470 0.8466 0.8457 0.8447 0.8438
1082.000000 0.8420 0.8400 0.8379 0.8355 0.8329
1087.000000 0.8304 0.8294 0.8292 0.8301 0.8300
1092.000000 0.8321 0.8333 0.8346 0.8363 0.8378
1097.000000 0.8391 0.8405 0.8417 0.8422 0.8422
1102.000000 0.8418 0.8414 0.8433 0.8463 0.8493
1107.000000 0.8522 0.8552 0.8581 0.8610 0.8636
1112.000000 0.8660 0.8678 0.8689 0.8700 0.8712
1117.000000 0.8723 0.8734 0.8745 0.8756 0.8763
1122.000000 0.8771 0.8779 0.8787 0.8794 0.8799
1127.000000 0.8805 0.8810 0.8820 0.8813 0.8813
1132.000000 0.8813 0.8813 0.8812 0.8811 0.8810
1137.000000 0.8809 0.8805 0.8799 0.8794 0.8788
1142.000000 0.8783 0.8777 0.8771 0.8766 0.8758
1147.000000 0.8750 0.8741 0.8733 0.8725 0.8716
1152.000000 0.8708 0.8699 0.8691 0.8682 0.8673
1157.000000 0.8665 0.8656 0.8647 0.8638 0.8630
1162.000000 0.8621 0.8612 0.8603 0.8596 0.8588
1167.000000 0.8580 0.8573 0.8565 0.8557 0.8547
1172.000000 0.8533 0.8520 0.8465 0.8262 0.8227
1177.000000 0.8243 0.8321 0.8402 0.8484 0.8492
1182.000000 0.8490 0.8486 0.8476 0.8461 0.8440
1187.000000 0.8418 0.8395 0.8373 0.8351 0.8328
1192.000000 0.8306 0.8286 0.8271 0.8256 0.8241
1197.000000 0.8225 0.8210 0.8194 0.8178 0.8162
1202.000000 0.8146 0.8130 0.8114 0.8097 0.8081
1207.000000 0.8065 0.8053 0.8047 0.8041 0.8036
1212.000000 0.8040 0.8045 0.8064 0.8084 0.8098
1217.000000 0.8110 0.8112 0.8113 0.8114 0.8102
1222.000000 0.8086 0.8068 0.8049 0.8023 0.7996
1227.000000 0.7969 0.7937 0.7903 0.7864 0.7815
1232.000000 0.7765 0.7696 0.7608 0.7487 0.7354
1237.000000 0.7081 0.6711 0.6212 0.5712 0.5212
1242.000000 0.4734 0.4480 0.3586 0.3095 0.2604
1247.000000 0.2113 0.1623 0.1450 0.1390 0.1370
1252.000000 0.1393 0.1504 0.1669 0.1834 0.1884
1257.000000 0.1773 0.1641 0.1528 0.2575 0.2552
1262.000000 0.2190 0.1705 0.1220 0.1143 0.1115
1267.000000 0.1089 0.1126 0.1198 0.1483 0.2025
1272.000000 0.2566 0.2924 0.3418 0.3911 0.4404
1277.000000 0.4897 0.5391 0.5550 0.5667 0.5716
1282.000000 0.5731 0.5734 0.5737 0.5739 0.5742
1287.000000 0.5744 0.5749 0.5758 0.5837 0.6207
1292.000000 0.6224 0.6242 0.6295 0.6311 0.6327
1297.000000 0.6341 0.6355 0.6369 0.6385 0.6410
1302.000000 0.6460 0.6514 0.6590 0.6705 0.6790
1307.000000 0.6875 0.7025 0.7499 0.7680 0.7773
1312.000000 0.7865 0.7986 0.8094 0.8169 0.8223
1317.000000 0.8246 0.8266 0.8274 0.8278 0.8270
1322.000000 0.8262 0.8253 0.8242 0.8230 0.8219
1327.000000 0.8213 0.8207 0.8201 0.8204 0.8209
1332.000000 0.8213 0.8218 0.8229 0.8243 0.8257
1337.000000 0.8270 0.8276 0.8282 0.8287 0.8292
1342.000000 0.8297 0.8302 0.8312 0.8333 0.8355
1347.000000 0.8376 0.8396 0.8416 0.8436 0.8456
1352.000000 0.8486 0.8520 0.8554 0.8588 0.8622
1357.000000 0.8657 0.8675 0.8685 0.8673 0.8669
1362.000000 0.8656 0.8641 0.8624 0.8607 0.8591
1367.000000 0.8576 0.8561 0.8547 0.8533 0.8513
1372.000000 0.8490 0.8468 0.8441 0.8404 0.8364
1377.000000 0.8324 0.8283 0.8240 0.8191 0.8143
1382.000000 0.8100 0.8056 0.8013 0.7963 0.7902
1387.000000 0.7840 0.7788 0.7735 0.7682 0.7630
1392.000000 0.7549 0.7469 0.7384 0.7293 0.7203
1397.000000 0.7053 0.6722 0.6238 0.5827 0.5560
1402.000000 0.5393 0.5251 0.5074 0.4942 0.4613
1407.000000 0.4490 0.4438 0.4428 0.4451 0.4454
1412.000000 0.4689 0.5078 0.5466 0.5567 0.4759
1417.000000 0.3987 0.3572 0.3564 0.5367 0.4573
1422.000000 0.4127 0.4060 0.4054 0.4043 0.4135
1427.000000 0.4251 0.4442 0.4612 0.5707 0.6094
1432.000000 0.6201 0.6261 0.6304 0.6310 0.6325
1437.000000 0.6325 0.6314 0.6287 0.6196 0.6140
1442.000000 0.6117 0.6123 0.6137 0.6208 0.6279
1447.000000 0.6310 0.6330 0.6257 0.6118 0.6049
1452.000000 0.6513 0.6572 0.6619 0.6648 0.6672
1457.000000 0.6684 0.6697 0.6720 0.6764 0.6818
1462.000000 0.6873 0.6930 0.6989 0.7070 0.7151
1467.000000 0.7230 0.7296 0.7363 0.7429 0.7499
1472.000000 0.7571 0.7643 0.7710 0.7777 0.7844
1477.000000 0.7908 0.7971 0.8027 0.8071 0.8116
1482.000000 0.8159 0.8190 0.8221 0.8252 0.8281
1487.000000 0.8302 0.8322 0.8342 0.8360 0.8376
1492.000000 0.8392 0.8408 0.8411 0.8413 0.8415
1497.000000 0.8420 0.8427 0.8434 0.8454 0.8484
1502.000000 0.8510 0.8560 0.8556 0.8537 0.8516
1507.000000 0.8499 0.8486 0.8474 0.8462 0.8458
1512.000000 0.8455 0.8458 0.8464 0.8469 0.8475
1517.000000 0.8484 0.8493 0.8487 0.8469 0.8452
1522.000000 0.8440 0.8433 0.8425 0.8416 0.8407
1527.000000 0.8398 0.8389 0.8385 0.8383 0.8381
1532.000000 0.8379 0.8414 0.8464 0.8506 0.8536
1537.000000 0.8544 0.8541 0.8526 0.8508 0.8482
1542.000000 0.8472 0.8468 0.8471 0.8473 0.8475
1547.000000 0.8479 0.8485 0.8490 0.8497 0.8507
1552.000000 0.8518 0.8568 0.8633 0.8675 0.8664
1557.000000 0.8629 0.8582 0.8503 0.8488 0.8473
1562.000000 0.8464 0.8458 0.8451 0.8444 0.8437
1567.000000 0.8428 0.8419 0.8410 0.8401 0.8393
1572.000000 0.8391 0.8389 0.8387 0.8387 0.8390
1577.000000 0.8392 0.8396 0.8401 0.8405 0.8412
1582.000000 0.8418 0.8424 0.8432 0.8439 0.8447
1587.000000 0.8454 0.8463 0.8472 0.8481 0.8489
1592.000000 0.8498 0.8503 0.8508 0.8512 0.8517
1597.000000 0.8521 0.8525 0.8526 0.8526 0.8525
1602.000000 0.8525 0.8524 0.8523 0.8520 0.8517
1607.000000 0.8513 0.8510 0.8511 0.8516 0.8521
1612.000000 0.8524 0.8477 0.8438 0.8400 0.8355
1617.000000 0.8308 0.8260 0.8212 0.8163 0.8111
1622.000000 0.8061 0.8020 0.7949 0.7832 0.7714
1627.000000 0.7597 0.7479 0.7362 0.7244 0.7127
1632.000000 0.7009 0.6892 0.6773 0.6672 0.6595
1637.000000 0.6530 0.6465 0.6377 0.6336 0.6338
1642.000000 0.6386 0.6434 0.6477 0.6384 0.6272
1647.000000 0.6160 0.6048 0.6069 0.6426 0.6729
1652.000000 0.6675 0.6599 0.6523 0.6517 0.6591
1657.000000 0.6683 0.6775 0.6842 0.6956 0.7154
1662.000000 0.7239 0.7347 0.7531 0.7758 0.8084
1667.000000 0.8184 0.8267 0.8345 0.8413 0.8422
1672.000000 0.8417 0.8417 0.8432 0.8466 0.8510
1677.000000 0.8589 0.8677 0.8697 0.8699 0.8696
1682.000000 0.8668 0.8639 0.8605 0.8572 0.8559
1687.000000 0.8570 0.8586 0.8604 0.8621 0.8638
1692.000000 0.8654 0.8668 0.8682 0.8696 0.8706
1697.000000 0.8680 0.8657 0.8639 0.8622 0.8610
1702.000000 0.8598 0.8590 0.8585 0.8579 0.8582
1707.000000 0.8587 0.8592 0.8617 0.8652 0.8660
1712.000000 0.8667 0.8667 0.8665 0.8657 0.8648
1717.000000 0.8635 0.8618 0.8600 0.8595 0.8596
1722.000000 0.8599 0.8601 0.8604 0.8607 0.8609
1727.000000 0.8657 0.8677 0.8666 0.8653 0.8639
1732.000000 0.8630 0.8623 0.8617 0.8612 0.8623
1737.000000 0.8608 0.8608 0.8608 0.8608 0.8615
1742.000000 0.8622 0.8632 0.8646 0.8653 0.8656
1747.000000 0.8658 0.8654 0.8649 0.8647 0.8646
1752.000000 0.8645 0.8644 0.8644 0.8644 0.8647
1757.000000 0.8655 0.8664 0.8673 0.8683 0.8693
1762.000000 0.8704 0.8716 0.8716 0.8714 0.8712
1767.000000 0.8709 0.8702 0.8694 0.8687 0.8678
1772.000000 0.8671 0.8669 0.8666 0.8666 0.8668
1777.000000 0.8669 0.8669 0.8669 0.8669 0.8668
1782.000000 0.8667 0.8666 0.8665 0.8664 0.8663
1787.000000 0.8662 0.8661 0.8660 0.8659 0.8658
1792.000000 0.8656 0.8653 0.8651 0.8649 0.8646
1797.000000 0.8644 0.8638 0.8631 0.8624 0.8616
1802.000000 0.8609 0.8602 0.8595 0.8588 0.8580
1807.000000 0.8571 0.8562 0.8554 0.8545 0.8536
1812.000000 0.8527 0.8519 0.8510 0.8501 0.8491
1817.000000 0.8480 0.8469 0.8458 0.8447 0.8436
1822.000000 0.8425 0.8412 0.8393 0.8374 0.8356
1827.000000 0.8337 0.8318 0.8299 0.8281 0.8262
1832.000000 0.8243 0.8212 0.8174 0.8137 0.8087
1837.000000 0.8034 0.7982 0.7927 0.7838 0.7749
1842.000000 0.7659 0.7568 0.7443 0.7283 0.7146
1847.000000 0.7041 0.6935 0.6912 0.6899 0.6896
1852.000000 0.6909 0.6931 0.6962 0.7004 0.7054
1857.000000 0.7107 0.7146 0.7183 0.7199 0.7225
1862.000000 0.6760 0.6711 0.6708 0.6723 0.6751
1867.000000 0.6793 0.6900 0.6994 0.7302 0.7452
1872.000000 0.7639 0.7733 0.7802 0.7869 0.7939
1877.000000 0.7972 0.8003 0.8034 0.8064 0.8097
1882.000000 0.8127 0.8153 0.8178 0.8204 0.8235
1887.000000 0.8267 0.8298 0.8329 0.8360 0.8391
1892.000000 0.8422 0.8444 0.8465 0.8481 0.8494
1897.000000 0.8507 0.8520 0.8533 0.8537 0.8541
1902.000000 0.8544 0.8547 0.8551 0.8554 0.8557
1907.000000 0.8560 0.8562 0.8563 0.8565 0.8567
1912.000000 0.8568 0.8568 0.8568 0.8568 0.8568
1917.000000 0.8568 0.8568 0.8569 0.8568 0.8564
1922.000000 0.8560 0.8557 0.8553 0.8551 0.8549
1927.000000 0.8546 0.8544 0.8541 0.8539 0.8537
1932.000000 0.8534 0.8532 0.8528 0.8523 0.8519
1937.000000 0.8514 0.8510 0.8505 0.8501 0.8496
1942.000000 0.8492 0.8486 0.8480 0.8474 0.8468
1947.000000 0.8461 0.8455 0.8449 0.8442 0.8436
1952.000000 0.8427 0.8413 0.8399 0.8386 0.8372
1957.000000 0.8372 0.8381 0.8383 0.8397 0.8405
1962.000000 0.8413 0.8420 0.8426 0.8432 0.8438
1967.000000 0.8444 0.8450 0.8456 0.8463 0.8469
1972.000000 0.8477 0.8485 0.8493 0.8503 0.8515
1977.000000 0.8526 0.8538 0.8549 0.8568 0.8588
1982.000000 0.8607 0.8621 0.8628 0.8636 0.8637
1987.000000 0.8637 0.8638 0.8639 0.8640 0.8639
1992.000000 0.8638 0.8637 0.8635 0.8634 0.8633
1997.000000 0.8632 0.8632 0.8631 0.8631 0.8630
2002.000000 0.8630 0.8630 0.8630 0.8630 0.8631
2007.000000 0.8632 0.8633 0.8633 0.8634 0.8635
2012.000000 0.8636 0.8637 0.8638 0.8638 0.8639
2017.000000 0.8640 0.8641 0.8642 0.8643 0.8643
2022.000000 0.8644 0.8645 0.8646 0.8647 0.8648
2027.000000 0.8648 0.8649 0.8650 0.8651 0.8652
2032.000000 0.8653 0.8653 0.8654 0.8655 0.8656
2037.000000 0.8657 0.8658 0.8659 0.8661 0.8663
2042.000000 0.8665 0.8667 0.8669 0.8670 0.8672
2047.000000 0.8672 0.8673 0.8673 0.8673 0.8672
2052.000000 0.8672 0.8672 0.8672 0.8671 0.8671
2057.000000 0.8671 0.8671 0.8670 0.8670 0.8670
2062.000000 0.8670 0.8669 0.8669 0.8668 0.8682
2067.000000 0.8668 0.8668 0.8667 0.8667 0.8666
2072.000000 0.8666 0.8664 0.8663 0.8662 0.8661
2077.000000 0.8659 0.8658 0.8656 0.8655 0.8653
2082.000000 0.8652 0.8651 0.8650 0.8648 0.8647
2087.000000 0.8645 0.8644 0.8642 0.8641 0.8639
2092.000000 0.8638 0.8636 0.8635 0.8633 0.8632
2097.000000 0.8631 0.8630 0.8630 0.8631 0.8632
2102.000000 0.8633 0.8634 0.8635 0.8636 0.8637
2107.000000 0.8638 0.8639 0.8639 0.8640 0.8641
2112.000000 0.8642 0.8643 0.8644 0.8645 0.8646
2117.000000 0.8647 0.8648 0.8649 0.8650 0.8651
2122.000000 0.8652 0.8653 0.8654 0.8655 0.8656
2127.000000 0.8657 0.8658 0.8659 0.8660 0.8661
2132.000000 0.8662 0.8663 0.8664 0.8665 0.8666
2137.000000 0.8666 0.8666 0.8666 0.8666 0.8666
2142.000000 0.8666 0.8666 0.8666 0.8666 0.8666
2147.000000 0.8666 0.8666 0.8666 0.8666 0.8666
2152.000000 0.8666 0.8666 0.8667 0.8667 0.8667
2157.000000 0.8667 0.8667 0.8667 0.8667 0.8667
2162.000000 0.8667 0.8667 0.8667 0.8667 0.8667
2167.000000 0.8667 0.8667 0.8666 0.8665 0.8664
2172.000000 0.8663 0.8662 0.8661 0.8660 0.8659
2177.000000 0.8658 0.8657 0.8656 0.8655 0.8654
2182.000000 0.8653 0.8651 0.8650 0.8649 0.8648
2187.000000 0.8648 0.8648 0.8647 0.8647 0.8646
2192.000000 0.8646 0.8645 0.8645 0.8644 0.8644
2197.000000 0.8643 0.8643 0.8642 0.8642 0.8642
2202.000000 0.8642 0.8643 0.8644 0.8645 0.8647
2207.000000 0.8648 0.8650 0.8651 0.8653 0.8654
2212.000000 0.8655 0.8656 0.8658 0.8659 0.8661
2217.000000 0.8662 0.8664 0.8666 0.8668 0.8670
2222.000000 0.8672 0.8674 0.8676 0.8678 0.8681
2227.000000 0.8683 0.8685 0.8687 0.8689 0.8691
2232.000000 0.8694 0.8696 0.8698 0.8700 0.8703
2237.000000 0.8705 0.8707 0.8708 0.8710 0.8712
2242.000000 0.8714 0.8715 0.8717 0.8719 0.8721
2247.000000 0.8723 0.8725 0.8726 0.8728 0.8730
2252.000000 0.8732 0.8733 0.8735 0.8737 0.8739
2257.000000 0.8740 0.8742 0.8744 0.8746 0.8748
2262.000000 0.8750 0.8751 0.8753 0.8754 0.8756
2267.000000 0.8756 0.8756 0.8755 0.8755 0.8755
2272.000000 0.8755 0.8754 0.8754 0.8754 0.8754
2277.000000 0.8753 0.8753 0.8753 0.8753 0.8753
2282.000000 0.8753 0.8753 0.8753 0.8753 0.8753
2287.000000 0.8753 0.8753 0.8753 0.8753 0.8754
2292.000000 0.8755 0.8756 0.8757 0.8758 0.8759
2297.000000 0.8760 0.8761 0.8762 0.8764 0.8766
2302.000000 0.8768 0.8769 0.8771 0.8773 0.8775
2307.000000 0.8776 0.8778 0.8780 0.8782 0.8784
2312.000000 0.8787 0.8794 0.8801 0.8807 0.8814
2317.000000 0.8821 0.8828 0.8831 0.8835 0.8835
2322.000000 0.8835 0.8834 0.8833 0.8826 0.8820
2327.000000 0.8805 0.8790 0.8776 0.8762 0.8761
2332.000000 0.8760 0.8759 0.8759 0.8751 0.8743
2337.000000 0.8729 0.8716 0.8702 0.8689 0.8682
2342.000000 0.8676 0.8677 0.8679 0.8680 0.8682
2347.000000 0.8700 0.8718 0.8737 0.8756 0.8768
2352.000000 0.8780 0.8782 0.8785 0.8784 0.8783
2357.000000 0.8782 0.8781 0.8780 0.8780 0.8779
2362.000000 0.8779 0.8776 0.8774 0.8772 0.8770
2367.000000 0.8765 0.8761 0.8755 0.8749 0.8743
2372.000000 0.8737 0.8727 0.8718 0.8708 0.8698
2377.000000 0.8687 0.8677 0.8665 0.8654 0.8643
2382.000000 0.8633 0.8633 0.8634 0.8634 0.8634
2387.000000 0.8634 0.8634 0.8634 0.8634 0.8634
2392.000000 0.8635 0.8635 0.8636 0.8636 0.8637
2397.000000 0.8639 0.8641 0.8643 0.8646 0.8649
2402.000000 0.8652 0.8654 0.8657 0.8661 0.8665
2407.000000 0.8669 0.8674 0.8679 0.8685 0.8691
2412.000000 0.8697 0.8702 0.8708 0.8714 0.8720
2417.000000 0.8722 0.8725 0.8727 0.8729 0.8730
2422.000000 0.8732 0.8732 0.8733 0.8733 0.8733
2427.000000 0.8733 0.8734 0.8734 0.8735 0.8735
2432.000000 0.8735 0.8735 0.8736 0.8736 0.8737
2437.000000 0.8738 0.8739 0.8739 0.8740 0.8741
2442.000000 0.8742 0.8742 0.8743 0.8743 0.8744
2447.000000 0.8745 0.8746 0.8746 0.8747 0.8747
2452.000000 0.8748 0.8748 0.8749 0.8749 0.8750
2457.000000 0.8750 0.8751 0.8751 0.8752 0.8752
2462.000000 0.8752 0.8751 0.8751 0.8750 0.8749
2467.000000 0.8748 0.8747 0.8746 0.8745 0.8744
2472.000000 0.8743 0.8742 0.8741 0.8740 0.8739
2477.000000 0.8738 0.8737 0.8736 0.8736 0.8735
