##TITLE=ALLYL AMINE
##JCAMP-DX=4.24
##DATA TYPE=INFRARED SPECTRUM
##CLASS=COBLENTZ
##ORIGIN=DOW CHEMICAL COMPANY
##OWNER=Copyright (C) 1987 by the Coblentz Society
Collection (C) 2018 copyright by the U.S. Secretary of Commerce
on behalf of the United States of America. All rights reserved.
##DATE=1964
##NAMES=allylamine
2-propen-1-amine
2-PROPENAMINE
##CAS REGISTRY NO=107-11-9
##MOLFORM=C3 H7 N
##SOURCE REFERENCE=COBLENTZ NO. 8805
##$NIST SOURCE=COBLENTZ
##$NIST IMAGE=cob8805
##SPECTROMETER/DATA SYSTEM=DOW KBr FOREPRISM-GRATING
##INSTRUMENT PARAMETERS=GRATING CHANGED AT 5.0, 7.5, 15.0 MICRON
##STATE=GAS (80 mmHg, N2 ADDED, TOTAL PRESSURE 600 mmHg)
##PATH LENGTH=5 CM
##SAMPLING PROCEDURE=TRANSMISSION
##RESOLUTION=2
##DATA PROCESSING=DIGITIZED BY COBLENTZ SOCIETY (BATCH II) FROM HARD COPY
##XUNITS=1/CM
##YUNITS=TRANSMITTANCE
##XFACTOR=1.0
##YFACTOR=1
##FIRSTX=455
##LASTX=3796
##FIRSTY=0.8132
##MAXX=3796
##MINX=455
##MAXY=0.9253
##MINY=0.0296
##NPOINTS=3342
##XYDATA=(X++(Y..Y))
455.000000 0.8132 0.8131 0.8129 0.8127 0.8126
460.000000 0.8124 0.8122 0.8121 0.8119 0.8121
465.000000 0.8135 0.8126 0.8128 0.8130 0.8133
470.000000 0.8139 0.8144 0.8150 0.8155 0.8159
475.000000 0.8164 0.8168 0.8172 0.8176 0.8177
480.000000 0.8178 0.8179 0.8180 0.8181 0.8178
485.000000 0.8175 0.8172 0.8170 0.8167 0.8164
490.000000 0.8161 0.8159 0.8153 0.8147 0.8142
495.000000 0.8136 0.8130 0.8124 0.8118 0.8113
500.000000 0.8106 0.8100 0.8093 0.8087 0.8081
505.000000 0.8074 0.8068 0.8061 0.8055 0.8049
510.000000 0.8037 0.8025 0.8013 0.8001 0.7989
515.000000 0.7977 0.7965 0.7953 0.7941 0.7927
520.000000 0.7910 0.7893 0.7877 0.7860 0.7844
525.000000 0.7827 0.7810 0.7794 0.7777 0.7760
530.000000 0.7733 0.7707 0.7680 0.7653 0.7626
535.000000 0.7600 0.7573 0.7546 0.7519 0.7489
540.000000 0.7460 0.7430 0.7400 0.7371 0.7339
545.000000 0.7298 0.7256 0.7202 0.7110 0.6941
550.000000 0.6772 0.6604 0.6559 0.6555 0.6583
555.000000 0.6581 0.6676 0.6722 0.6724 0.6725
560.000000 0.6734 0.6685 0.6654 0.6622 0.6590
565.000000 0.6547 0.6539 0.6582 0.6698 0.6814
570.000000 0.6908 0.6873 0.6819 0.6766 0.6763
575.000000 0.6825 0.6890 0.6879 0.6762 0.6646
580.000000 0.6647 0.6740 0.7041 0.7090 0.7142
585.000000 0.7207 0.7270 0.7325 0.7376 0.7405
590.000000 0.7434 0.7462 0.7488 0.7509 0.7530
595.000000 0.7551 0.7569 0.7585 0.7602 0.7613
600.000000 0.7615 0.7624 0.7610 0.7605 0.7592
605.000000 0.7578 0.7563 0.7548 0.7532 0.7512
610.000000 0.7492 0.7470 0.7439 0.7408 0.7378
615.000000 0.7346 0.7314 0.7281 0.7249 0.7217
620.000000 0.7185 0.7151 0.7112 0.7072 0.7032
625.000000 0.6993 0.6953 0.6906 0.6855 0.6804
630.000000 0.6753 0.6702 0.6669 0.6644 0.6618
635.000000 0.6593 0.6588 0.6582 0.6576 0.6573
640.000000 0.6570 0.6568 0.6565 0.6563 0.6567
645.000000 0.6573 0.6589 0.6612 0.6636 0.6660
650.000000 0.6684 0.6709 0.6733 0.6757 0.6800
655.000000 0.6846 0.6891 0.6937 0.6981 0.7026
660.000000 0.7071 0.7117 0.7186 0.7255 0.7324
665.000000 0.7394 0.7409 0.7410 0.7396 0.7378
670.000000 0.7353 0.7335 0.7340 0.7349 0.7361
675.000000 0.7373 0.7380 0.7387 0.7392 0.7395
680.000000 0.7398 0.7402 0.7394 0.7392 0.7391
685.000000 0.7383 0.7376 0.7369 0.7362 0.7355
690.000000 0.7349 0.7344 0.7340 0.7335 0.7326
695.000000 0.7316 0.7305 0.7294 0.7277 0.7259
700.000000 0.7241 0.7224 0.7205 0.7184 0.7163
705.000000 0.7141 0.7120 0.7095 0.7068 0.7041
710.000000 0.7014 0.6987 0.6951 0.6911 0.6872
715.000000 0.6832 0.6791 0.6742 0.6693 0.6644
720.000000 0.6594 0.6536 0.6465 0.6395 0.6325
725.000000 0.6248 0.6166 0.6084 0.5992 0.5894
730.000000 0.5796 0.5694 0.5581 0.5463 0.5296
735.000000 0.5128 0.4960 0.4793 0.4625 0.4457
740.000000 0.4290 0.4116 0.4014 0.3863 0.3666
745.000000 0.3442 0.3254 0.3115 0.2977 0.2781
750.000000 0.2549 0.2393 0.2246 0.2092 0.1928
755.000000 0.1764 0.1606 0.1450 0.1332 0.1247
760.000000 0.1161 0.1075 0.0986 0.0894 0.0801
765.000000 0.0724 0.0649 0.0584 0.0554 0.0526
770.000000 0.0518 0.0514 0.0506 0.0506 0.0473
775.000000 0.0427 0.0381 0.0318 0.0296 0.0312
780.000000 0.0310 0.0431 0.0460 0.0496 0.0455
785.000000 0.0438 0.0409 0.0379 0.0364 0.0387
790.000000 0.0414 0.0442 0.0495 0.0553 0.0614
795.000000 0.0691 0.0782 0.0895 0.1121 0.1389
800.000000 0.1658 0.1926 0.2127 0.2482 0.2695
805.000000 0.2843 0.2991 0.3135 0.3276 0.3594
810.000000 0.3985 0.4239 0.4400 0.4560 0.4871
815.000000 0.5293 0.5822 0.5990 0.6153 0.6306
820.000000 0.6459 0.6611 0.6743 0.6841 0.6939
825.000000 0.7011 0.7075 0.7139 0.7209 0.7295
830.000000 0.7380 0.7431 0.7479 0.7517 0.7545
835.000000 0.7572 0.7596 0.7608 0.7620 0.7632
840.000000 0.7641 0.7646 0.7651 0.7653 0.7651
845.000000 0.7647 0.7658 0.7638 0.7629 0.7619
850.000000 0.7605 0.7591 0.7575 0.7555 0.7534
855.000000 0.7514 0.7494 0.7459 0.7415 0.7356
860.000000 0.7286 0.7211 0.7118 0.7025 0.6955
865.000000 0.6889 0.6824 0.6759 0.6662 0.6566
870.000000 0.6469 0.6375 0.6281 0.6195 0.6110
875.000000 0.6026 0.5893 0.5750 0.5609 0.5468
880.000000 0.5311 0.5134 0.5045 0.5034 0.5040
885.000000 0.5063 0.5091 0.5086 0.4493 0.4245
890.000000 0.4218 0.4198 0.4182 0.4119 0.4019
895.000000 0.3919 0.3788 0.3638 0.3479 0.3328
900.000000 0.3200 0.3097 0.2994 0.2896 0.2798
905.000000 0.2716 0.2637 0.2586 0.2536 0.2481
910.000000 0.2423 0.1560 0.1525 0.1729 0.1869
915.000000 0.1983 0.1883 0.1975 0.1248 0.1209
920.000000 0.2027 0.2458 0.2462 0.2445 0.2426
925.000000 0.2431 0.2454 0.2485 0.2731 0.2875
930.000000 0.3019 0.3162 0.3306 0.3450 0.3594
935.000000 0.3738 0.3882 0.4026 0.4169 0.4313
940.000000 0.4457 0.4601 0.4756 0.5152 0.5306
945.000000 0.5392 0.5478 0.5563 0.5672 0.5790
950.000000 0.5902 0.6015 0.6138 0.6222 0.6283
955.000000 0.6301 0.6318 0.6322 0.6350 0.6316
960.000000 0.6310 0.6302 0.6295 0.6288 0.6274
965.000000 0.6257 0.6229 0.6201 0.6169 0.6131
970.000000 0.6082 0.5999 0.5940 0.5884 0.5826
975.000000 0.5759 0.5693 0.5574 0.5451 0.5368
980.000000 0.5284 0.5207 0.5133 0.5059 0.4982
985.000000 0.4905 0.4827 0.4745 0.4620 0.4445
990.000000 0.4270 0.4096 0.4024 0.4020 0.4115
995.000000 0.4269 0.4405 0.4461 0.4522 0.4640
1000.000000 0.4713 0.4756 0.4780 0.4805 0.4828
1005.000000 0.4855 0.4893 0.4931 0.4967 0.5003
1010.000000 0.5052 0.5131 0.5214 0.5312 0.5410
1015.000000 0.5620 0.5704 0.5783 0.5711 0.5639
1020.000000 0.5568 0.5532 0.5708 0.6011 0.6110
1025.000000 0.6070 0.6073 0.6068 0.6046 0.6009
1030.000000 0.5983 0.5959 0.5934 0.5904 0.5874
1035.000000 0.5836 0.5787 0.5773 0.5764 0.5767
1040.000000 0.5780 0.5800 0.5824 0.5839 0.5846
1045.000000 0.5834 0.5803 0.5751 0.5718 0.5726
1050.000000 0.6255 0.6256 0.6266 0.6099 0.5990
1055.000000 0.5881 0.5809 0.5812 0.5786 0.5847
1060.000000 0.5879 0.5931 0.6019 0.6145 0.6227
1065.000000 0.6301 0.6406 0.6552 0.6852 0.6955
1070.000000 0.7011 0.7067 0.7108 0.7146 0.7184
1075.000000 0.7216 0.7244 0.7272 0.7300 0.7325
1080.000000 0.7348 0.7370 0.7392 0.7415 0.7437
1085.000000 0.7460 0.7482 0.7505 0.7527 0.7546
1090.000000 0.7564 0.7588 0.7605 0.7620 0.7630
1095.000000 0.7639 0.7646 0.7652 0.7659 0.7666
1100.000000 0.7657 0.7650 0.7643 0.7637 0.7630
1105.000000 0.7622 0.7613 0.7605 0.7597 0.7589
1110.000000 0.7581 0.7573 0.7565 0.7558 0.7553
1115.000000 0.7549 0.7548 0.7560 0.7571 0.7588
1120.000000 0.7616 0.7646 0.7676 0.7706 0.7720
1125.000000 0.7726 0.7731 0.7736 0.7727 0.7715
1130.000000 0.7664 0.7588 0.7584 0.7583 0.7582
1135.000000 0.7582 0.7588 0.7595 0.7601 0.7621
1140.000000 0.7640 0.7660 0.7685 0.7711 0.7738
1145.000000 0.7759 0.7779 0.7798 0.7817 0.7837
1150.000000 0.7852 0.7867 0.7881 0.7896 0.7911
1155.000000 0.7926 0.7941 0.7957 0.7973 0.7989
1160.000000 0.8005 0.8021 0.8037 0.8052 0.8066
1165.000000 0.8080 0.8093 0.8107 0.8120 0.8134
1170.000000 0.8146 0.8159 0.8172 0.8185 0.8198
1175.000000 0.8229 0.8267 0.8304 0.8336 0.8368
1180.000000 0.8384 0.8386 0.8389 0.8390 0.8389
1185.000000 0.8388 0.8387 0.8392 0.8397 0.8402
1190.000000 0.8416 0.8433 0.8448 0.8456 0.8464
1195.000000 0.8468 0.8457 0.8446 0.8436 0.8433
1200.000000 0.8454 0.8469 0.8485 0.8500 0.8512
1205.000000 0.8525 0.8532 0.8539 0.8545 0.8553
1210.000000 0.8561 0.8569 0.8577 0.8584 0.8589
1215.000000 0.8594 0.8598 0.8603 0.8608 0.8612
1220.000000 0.8617 0.8616 0.8611 0.8605 0.8597
1225.000000 0.8600 0.8577 0.8567 0.8557 0.8547
1230.000000 0.8534 0.8518 0.8501 0.8485 0.8468
1235.000000 0.8450 0.8431 0.8412 0.8393 0.8375
1240.000000 0.8356 0.8337 0.8319 0.8300 0.8279
1245.000000 0.8258 0.8238 0.8217 0.8196 0.8176
1250.000000 0.8155 0.8134 0.8112 0.8091 0.8069
1255.000000 0.8047 0.8025 0.8004 0.7982 0.7959
1260.000000 0.7937 0.7915 0.7893 0.7871 0.7849
1265.000000 0.7827 0.7804 0.7782 0.7761 0.7739
1270.000000 0.7718 0.7702 0.7688 0.7675 0.7657
1275.000000 0.7639 0.7623 0.7611 0.7599 0.7586
1280.000000 0.7574 0.7568 0.7567 0.7565 0.7573
1285.000000 0.7579 0.7585 0.7592 0.7605 0.7619
1290.000000 0.7633 0.7648 0.7662 0.7676 0.7687
1295.000000 0.7698 0.7710 0.7721 0.7736 0.7750
1300.000000 0.7764 0.7772 0.7781 0.7790 0.7798
1305.000000 0.7780 0.7794 0.7791 0.7780 0.7769
1310.000000 0.7757 0.7741 0.7724 0.7708 0.7692
1315.000000 0.7676 0.7660 0.7643 0.7627 0.7611
1320.000000 0.7592 0.7574 0.7556 0.7538 0.7519
1325.000000 0.7501 0.7478 0.7452 0.7427 0.7401
1330.000000 0.7375 0.7346 0.7313 0.7280 0.7247
1335.000000 0.7214 0.7189 0.7165 0.7141 0.7117
1340.000000 0.7093 0.7089 0.7086 0.7082 0.7083
1345.000000 0.7084 0.7084 0.7085 0.7087 0.7093
1350.000000 0.7099 0.7104 0.7110 0.7107 0.7102
1355.000000 0.7098 0.7092 0.7080 0.7068 0.7056
1360.000000 0.7045 0.7033 0.7021 0.7007 0.6992
1365.000000 0.6978 0.6963 0.6949 0.6962 0.6976
1370.000000 0.6991 0.7005 0.7022 0.7039 0.7056
1375.000000 0.7074 0.7090 0.7106 0.7122 0.7138
1380.000000 0.7151 0.7162 0.7172 0.7183 0.7193
1385.000000 0.7201 0.7199 0.7197 0.7171 0.7177
1390.000000 0.7156 0.7136 0.7105 0.7074 0.7043
1395.000000 0.7009 0.6973 0.6938 0.6903 0.6867
1400.000000 0.6828 0.6789 0.6751 0.6712 0.6673
1405.000000 0.6633 0.6594 0.6553 0.6497 0.6441
1410.000000 0.6364 0.6263 0.6133 0.5955 0.5886
1415.000000 0.5855 0.5832 0.5835 0.5842 0.5799
1420.000000 0.5869 0.5893 0.5919 0.5941 0.5960
1425.000000 0.5963 0.5963 0.5959 0.5953 0.5945
1430.000000 0.5937 0.5931 0.5927 0.5929 0.5946
1435.000000 0.5976 0.6016 0.6057 0.6146 0.6245
1440.000000 0.6349 0.6471 0.6554 0.6631 0.6691
1445.000000 0.6733 0.6775 0.6814 0.6853 0.6889
1450.000000 0.6922 0.6944 0.6950 0.6949 0.6948
1455.000000 0.6947 0.6946 0.6945 0.6943 0.6943
1460.000000 0.6987 0.7092 0.7116 0.7123 0.7128
1465.000000 0.7132 0.7137 0.7145 0.7164 0.7195
1470.000000 0.7237 0.7279 0.7307 0.7334 0.7362
1475.000000 0.7389 0.7417 0.7444 0.7471 0.7498
1480.000000 0.7525 0.7552 0.7579 0.7605 0.7632
1485.000000 0.7658 0.7684 0.7711 0.7734 0.7758
1490.000000 0.7781 0.7805 0.7828 0.7850 0.7869
1495.000000 0.7889 0.7908 0.7927 0.7947 0.7966
1500.000000 0.7980 0.7991 0.8001 0.8012 0.8022
1505.000000 0.8031 0.8035 0.8039 0.8044 0.8048
1510.000000 0.8052 0.8057 0.8061 0.8064 0.8067
1515.000000 0.8070 0.8073 0.8075 0.8078 0.8081
1520.000000 0.8082 0.8082 0.8082 0.8114 0.8081
1525.000000 0.8081 0.8080 0.8080 0.8079 0.8076
1530.000000 0.8072 0.8069 0.8066 0.8063 0.8055
1535.000000 0.8043 0.8030 0.8017 0.8009 0.8006
1540.000000 0.8003 0.8003 0.8002 0.8001 0.8001
1545.000000 0.8000 0.7999 0.7998 0.7997 0.7993
1550.000000 0.7988 0.7984 0.7979 0.7974 0.7969
1555.000000 0.7960 0.7951 0.7943 0.7934 0.7925
1560.000000 0.7917 0.7901 0.7885 0.7869 0.7853
1565.000000 0.7837 0.7821 0.7806 0.7790 0.7772
1570.000000 0.7748 0.7723 0.7698 0.7674 0.7649
1575.000000 0.7625 0.7600 0.7569 0.7537 0.7505
1580.000000 0.7472 0.7440 0.7407 0.7375 0.7339
1585.000000 0.7301 0.7263 0.7225 0.7187 0.7149
1590.000000 0.7111 0.7056 0.6991 0.6927 0.6862
1595.000000 0.6798 0.6732 0.6666 0.6600 0.6534
1600.000000 0.6468 0.6409 0.6350 0.6292 0.6233
1605.000000 0.6174 0.6115 0.6056 0.5996 0.5937
1610.000000 0.5877 0.5807 0.5730 0.5653 0.5575
1615.000000 0.5499 0.5436 0.5372 0.5309 0.5246
1620.000000 0.5182 0.5123 0.5064 0.5006 0.4947
1625.000000 0.4892 0.4840 0.4787 0.4735 0.4693
1630.000000 0.4653 0.4612 0.4583 0.4555 0.4534
1635.000000 0.4542 0.4554 0.4568 0.4588 0.4622
1640.000000 0.4668 0.4719 0.4789 0.4863 0.4945
1645.000000 0.5037 0.5057 0.5071 0.5088 0.5111
1650.000000 0.5194 0.5329 0.5494 0.5581 0.5652
1655.000000 0.5692 0.5730 0.5768 0.5854 0.6097
1660.000000 0.6273 0.6578 0.6752 0.6903 0.7076
1665.000000 0.7242 0.7351 0.7460 0.7575 0.7690
1670.000000 0.7774 0.7849 0.7907 0.7955 0.8003
1675.000000 0.8050 0.8086 0.8122 0.8157 0.8189
1680.000000 0.8211 0.8233 0.8254 0.8270 0.8287
1685.000000 0.8303 0.8313 0.8324 0.8335 0.8345
1690.000000 0.8356 0.8364 0.8370 0.8377 0.8384
1695.000000 0.8390 0.8397 0.8404 0.8409 0.8413
1700.000000 0.8417 0.8421 0.8425 0.8429 0.8434
1705.000000 0.8438 0.8442 0.8447 0.8452 0.8456
1710.000000 0.8461 0.8465 0.8466 0.8468 0.8480
1715.000000 0.8471 0.8472 0.8473 0.8473 0.8473
1720.000000 0.8473 0.8473 0.8474 0.8471 0.8468
1725.000000 0.8465 0.8462 0.8459 0.8452 0.8444
1730.000000 0.8440 0.8441 0.8443 0.8444 0.8449
1735.000000 0.8454 0.8459 0.8463 0.8468 0.8472
1740.000000 0.8472 0.8471 0.8470 0.8469 0.8467
1745.000000 0.8465 0.8463 0.8461 0.8458 0.8456
1750.000000 0.8454 0.8452 0.8450 0.8449 0.8447
1755.000000 0.8445 0.8444 0.8442 0.8441 0.8439
1760.000000 0.8437 0.8436 0.8434 0.8432 0.8431
1765.000000 0.8429 0.8427 0.8426 0.8424 0.8422
1770.000000 0.8421 0.8419 0.8417 0.8416 0.8414
1775.000000 0.8412 0.8411 0.8409 0.8407 0.8406
1780.000000 0.8404 0.8402 0.8401 0.8399 0.8398
1785.000000 0.8396 0.8392 0.8387 0.8383 0.8377
1790.000000 0.8370 0.8364 0.8357 0.8351 0.8344
1795.000000 0.8333 0.8322 0.8311 0.8300 0.8289
1800.000000 0.8278 0.8267 0.8253 0.8237 0.8221
1805.000000 0.8205 0.8189 0.8173 0.8156 0.8129
1810.000000 0.8102 0.8075 0.8048 0.8020 0.7994
1815.000000 0.7968 0.7942 0.7916 0.7890 0.7864
1820.000000 0.7838 0.7808 0.7779 0.7750 0.7720
1825.000000 0.7691 0.7661 0.7639 0.7619 0.7599
1830.000000 0.7579 0.7568 0.7568 0.7571 0.7576
1835.000000 0.7582 0.7587 0.7593 0.7593 0.7586
1840.000000 0.7569 0.7555 0.7546 0.7539 0.7554
1845.000000 0.7562 0.7580 0.7603 0.7633 0.7671
1850.000000 0.7713 0.7754 0.7789 0.7825 0.7860
1855.000000 0.7889 0.7918 0.7946 0.7975 0.8004
1860.000000 0.8033 0.8067 0.8107 0.8146 0.8188
1865.000000 0.8231 0.8273 0.8300 0.8328 0.8355
1870.000000 0.8369 0.8380 0.8391 0.8400 0.8407
1875.000000 0.8413 0.8420 0.8426 0.8433 0.8438
1880.000000 0.8444 0.8449 0.8454 0.8459 0.8465
1885.000000 0.8468 0.8470 0.8472 0.8473 0.8475
1890.000000 0.8477 0.8478 0.8480 0.8480 0.8481
1895.000000 0.8481 0.8481 0.8481 0.8482 0.8484
1900.000000 0.8485 0.8487 0.8489 0.8490 0.8492
1905.000000 0.8493 0.8495 0.8497 0.8498 0.8500
1910.000000 0.8502 0.8504 0.8506 0.8508 0.8510
1915.000000 0.8512 0.8514 0.8515 0.8518 0.8520
1920.000000 0.8522 0.8524 0.8526 0.8528 0.8530
1925.000000 0.8532 0.8534 0.8537 0.8539 0.8541
1930.000000 0.8543 0.8546 0.8548 0.8550 0.8553
1935.000000 0.8552 0.8550 0.8548 0.8546 0.8544
1940.000000 0.8542 0.8540 0.8538 0.8536 0.8534
1945.000000 0.8532 0.8530 0.8529 0.8527 0.8525
1950.000000 0.8519 0.8513 0.8506 0.8500 0.8493
1955.000000 0.8487 0.8479 0.8471 0.8464 0.8456
1960.000000 0.8448 0.8440 0.8433 0.8426 0.8419
1965.000000 0.8412 0.8405 0.8404 0.8403 0.8402
1970.000000 0.8401 0.8399 0.8399 0.8401 0.8402
1975.000000 0.8403 0.8404 0.8406 0.8407 0.8410
1980.000000 0.8413 0.8417 0.8421 0.8425 0.8429
1985.000000 0.8434 0.8440 0.8445 0.8453 0.8461
1990.000000 0.8469 0.8481 0.8492 0.8504 0.8509
1995.000000 0.8515 0.8520 0.8526 0.8532 0.8537
2000.000000 0.8543 0.8547 0.8551 0.8553 0.8555
2005.000000 0.8557 0.8559 0.8560 0.8561 0.8562
2010.000000 0.8563 0.8564 0.8565 0.8566 0.8567
2015.000000 0.8568 0.8569 0.8570 0.8571 0.8572
2020.000000 0.8573 0.8574 0.8575 0.8576 0.8577
2025.000000 0.8578 0.8579 0.8580 0.8581 0.8581
2030.000000 0.8582 0.8582 0.8583 0.8583 0.8583
2035.000000 0.8583 0.8584 0.8584 0.8585 0.8585
2040.000000 0.8585 0.8585 0.8586 0.8586 0.8587
2045.000000 0.8587 0.8588 0.8588 0.8588 0.8588
2050.000000 0.8589 0.8589 0.8590 0.8590 0.8590
2055.000000 0.8590 0.8591 0.8591 0.8592 0.8592
2060.000000 0.8592 0.8592 0.8593 0.8593 0.8594
2065.000000 0.8594 0.8595 0.8595 0.8595 0.8595
2070.000000 0.8596 0.8596 0.8597 0.8597 0.8598
2075.000000 0.8598 0.8599 0.8600 0.8601 0.8601
2080.000000 0.8602 0.8602 0.8603 0.8603 0.8604
2085.000000 0.8604 0.8605 0.8605 0.8606 0.8607
2090.000000 0.8608 0.8608 0.8609 0.8609 0.8610
2095.000000 0.8610 0.8611 0.8611 0.8612 0.8613
2100.000000 0.8614 0.8614 0.8615 0.8615 0.8616
2105.000000 0.8616 0.8617 0.8617 0.8618 0.8618
2110.000000 0.8619 0.8618 0.8618 0.8618 0.8618
2115.000000 0.8617 0.8617 0.8617 0.8617 0.8617
2120.000000 0.8617 0.8616 0.8616 0.8616 0.8616
2125.000000 0.8616 0.8616 0.8615 0.8615 0.8615
2130.000000 0.8615 0.8614 0.8614 0.8614 0.8614
2135.000000 0.8614 0.8614 0.8613 0.8613 0.8613
2140.000000 0.8613 0.8613 0.8613 0.8612 0.8612
2145.000000 0.8612 0.8612 0.8611 0.8611 0.8611
2150.000000 0.8611 0.8611 0.8611 0.8611 0.8611
2155.000000 0.8611 0.8611 0.8611 0.8612 0.8612
2160.000000 0.8612 0.8612 0.8613 0.8613 0.8613
2165.000000 0.8613 0.8614 0.8614 0.8614 0.8614
2170.000000 0.8615 0.8615 0.8615 0.8615 0.8616
2175.000000 0.8616 0.8616 0.8616 0.8617 0.8617
2180.000000 0.8617 0.8617 0.8617 0.8617 0.8618
2185.000000 0.8618 0.8618 0.8618 0.8619 0.8619
2190.000000 0.8619 0.8619 0.8610 0.8620 0.8620
2195.000000 0.8620 0.8621 0.8621 0.8621 0.8621
2200.000000 0.8621 0.8621 0.8622 0.8622 0.8622
2205.000000 0.8622 0.8623 0.8623 0.8623 0.8623
2210.000000 0.8623 0.8623 0.8624 0.8624 0.8624
2215.000000 0.8624 0.8624 0.8624 0.8625 0.8625
2220.000000 0.8625 0.8625 0.8625 0.8625 0.8626
2225.000000 0.8626 0.8626 0.8626 0.8627 0.8627
2230.000000 0.8627 0.8627 0.8627 0.8627 0.8628
2235.000000 0.8628 0.8628 0.8628 0.8628 0.8628
2240.000000 0.8629 0.8629 0.8629 0.8629 0.8629
2245.000000 0.8629 0.8630 0.8630 0.8630 0.8630
2250.000000 0.8631 0.8631 0.8631 0.8631 0.8631
2255.000000 0.8631 0.8632 0.8632 0.8632 0.8632
2260.000000 0.8633 0.8633 0.8633 0.8633 0.8633
2265.000000 0.8633 0.8634 0.8634 0.8634 0.8634
2270.000000 0.8635 0.8635 0.8635 0.8635 0.8636
2275.000000 0.8638 0.8640 0.8642 0.8645 0.8647
2280.000000 0.8650 0.8652 0.8655 0.8658 0.8661
2285.000000 0.8663 0.8666 0.8668 0.8671 0.8673
2290.000000 0.8676 0.8678 0.8681 0.8683 0.8686
2295.000000 0.8688 0.8691 0.8694 0.8697 0.8699
2300.000000 0.8702 0.8704 0.8707 0.8710 0.8713
2305.000000 0.8715 0.8718 0.8720 0.8723 0.8725
2310.000000 0.8728 0.8730 0.8733 0.8735 0.8738
2315.000000 0.8740 0.8743 0.8745 0.8748 0.8750
2320.000000 0.8752 0.8754 0.8757 0.8759 0.8761
2325.000000 0.8763 0.8765 0.8767 0.8769 0.8771
2330.000000 0.8773 0.8774 0.8776 0.8774 0.8772
2335.000000 0.8769 0.8766 0.8763 0.8761 0.8761
2340.000000 0.8761 0.8765 0.8769 0.8780 0.8791
2345.000000 0.8806 0.8822 0.8841 0.8861 0.8895
2350.000000 0.8930 0.8967 0.9004 0.9038 0.9072
2355.000000 0.9105 0.9139 0.9165 0.9191 0.9213
2360.000000 0.9236 0.9243 0.9250 0.9251 0.9253
2365.000000 0.9245 0.9238 0.9182 0.9127 0.9071
2370.000000 0.9016 0.8961 0.8906 0.8850 0.8795
2375.000000 0.8762 0.8730 0.8715 0.8700 0.8691
2380.000000 0.8683 0.8676 0.8670 0.8664 0.8658
2385.000000 0.8656 0.8654 0.8652 0.8650 0.8647
2390.000000 0.8645 0.8644 0.8643 0.8642 0.8641
2395.000000 0.8640 0.8639 0.8638 0.8637 0.8638
2400.000000 0.8639 0.8640 0.8642 0.8643 0.8644
2405.000000 0.8645 0.8646 0.8647 0.8648 0.8649
2410.000000 0.8651 0.8652 0.8653 0.8654 0.8655
2415.000000 0.8655 0.8656 0.8656 0.8657 0.8657
2420.000000 0.8658 0.8658 0.8659 0.8659 0.8659
2425.000000 0.8659 0.8659 0.8659 0.8659 0.8659
2430.000000 0.8659 0.8659 0.8659 0.8659 0.8660
2435.000000 0.8658 0.8657 0.8655 0.8654 0.8652
2440.000000 0.8651 0.8649 0.8647 0.8645 0.8644
2445.000000 0.8642 0.8641 0.8639 0.8638 0.8637
2450.000000 0.8636 0.8634 0.8633 0.8632 0.8631
2455.000000 0.8629 0.8628 0.8627 0.8626 0.8625
2460.000000 0.8624 0.8622 0.8621 0.8620 0.8619
2465.000000 0.8617 0.8616 0.8615 0.8614 0.8612
2470.000000 0.8611 0.8610 0.8609 0.8607 0.8606
2475.000000 0.8605 0.8604 0.8602 0.8601 0.8600
2480.000000 0.8599 0.8598 0.8597 0.8596 0.8595
