##TITLE=PROPENENITRILE
##JCAMP-DX=4.24
##DATA TYPE=INFRARED SPECTRUM
##CLASS=COBLENTZ III
##ORIGIN=DOW CORNING CORP.
##OWNER=COBLENTZ SOCIETY
Collection (C) 2018 copyright by the U.S. Secretary of Commerce
on behalf of the United States of America. All rights reserved.
##DATE=1966
##NAMES=acrylonitrile
ACRYLONITRILE
##CAS REGISTRY NO=107-13-1
##MOLFORM=C3 H3 N
##SOURCE REFERENCE=COBLENTZ NO. 4823
##$NIST SOURCE=COBLENTZ
##$NIST IMAGE=cob4823
##SPECTROMETER/DATA SYSTEM=PERKIN-ELMER 521 (GRATING)
##INSTRUMENT PARAMETERS=FILTERS AT 3150, 2500, 2000, 1150, 700, 410; GRATING CHANGES AT 2000, 630 CM^-^1
##STATE=SOLUTION (10% IN CCl4 FOR 3800-1300, 10% IN CS2 FOR 1300-650, 10% IN CCl4 FOR 650-240 CM^-^1) VERSUS SOLVENT
##PATH LENGTH=0.011, 0.010, AND 0.010 CM (CsBr CELL)
$$ 97% PURE
##SAMPLING PROCEDURE=TRANSMISSION
##RESOLUTION=4
##DATA PROCESSING=DIGITIZED BY NIST FROM HARD COPY (FROM TWO SEGMENTS)
##XUNITS=1/CM
##YUNITS=TRANSMITTANCE
##XFACTOR=1.000000
##YFACTOR=1
##DELTAX=0.985223
##FIRSTX=231.527
##LASTX=3790.15
##FIRSTY=0.852
##MAXX=3790.15
##MINX=231.527
##MAXY=1.014
##MINY=0.046
##NPOINTS=3613
##XYDATA=(X++(Y..Y))
231.527000 0.8520 0.8520 0.8520 0.8520 0.8520
236.453117 0.8520 0.8520 0.8520 0.8520 0.8510
241.379233 0.8510 0.8510 0.8510 0.8510 0.8490
246.305350 0.8490 0.8480 0.8450 0.8450 0.8440
251.231466 0.8420 0.8420 0.8420 0.8420 0.8420
256.157583 0.8420 0.8420 0.8420 0.8420 0.8410
261.083700 0.8410 0.8410 0.8410 0.8420 0.8420
266.009816 0.8410 0.8410 0.8410 0.8400 0.8400
270.935933 0.8400 0.8400 0.8400 0.8400 0.8400
275.862049 0.8400 0.8400 0.8400 0.8400 0.8400
280.788166 0.8410 0.8410 0.8410 0.8420 0.8420
285.714282 0.8420 0.8440 0.8440 0.8450 0.8450
290.640399 0.8450 0.8460 0.8460 0.8480 0.8480
295.566516 0.8480 0.8480 0.8480 0.8480 0.8460
300.492632 0.8460 0.8460 0.8460 0.8480 0.8480
305.418749 0.8490 0.8510 0.8510 0.8510 0.8510
310.344865 0.8510 0.8520 0.8520 0.8520 0.8510
315.270982 0.8510 0.8510 0.8490 0.8490 0.8490
320.197099 0.8490 0.8480 0.8480 0.8480 0.8460
325.123215 0.8460 0.8460 0.8460 0.8460 0.8460
330.049332 0.8480 0.8480 0.8480 0.8490 0.8490
334.975448 0.8490 0.8490 0.8510 0.8510 0.8510
339.901565 0.8520 0.8550 0.8550 0.8570 0.8600
344.827681 0.8610 0.8640 0.8650 0.8670 0.8680
349.753798 0.8710 0.8720 0.8730 0.8750 0.8760
354.679915 0.8760 0.8770 0.8770 0.8790 0.8790
359.606031 0.8800 0.8800 0.8810 0.8810 0.8840
364.532148 0.8850 0.8870 0.8870 0.8890 0.8890
369.458264 0.8910 0.8910 0.8920 0.8920 0.8930
374.384381 0.8920 0.8930 0.8930 0.8950 0.8950
379.310498 0.8950 0.8960 0.8960 0.8970 0.8970
384.236614 0.8970 0.8990 0.8990 0.9000 0.9000
389.162731 0.9020 0.9020 0.9020 0.9020 0.9020
394.088847 0.9020 0.9020 0.9030 0.9030 0.9030
399.014964 0.9030 0.9030 0.9030 0.9030 0.9030
403.941080 0.9030 0.9030 0.9030 0.9030 0.9030
408.867197 0.9040 0.9040 0.9040 0.9060 0.9070
413.793314 0.9070 0.9070 0.9080 0.9080 0.9070
418.719430 0.9080 0.9100 0.9100 0.9100 0.9110
423.645547 0.9110 0.9110 0.9110 0.9110 0.9100
428.571663 0.9100 0.9100 0.9100 0.9080 0.9080
433.497780 0.9080 0.9080 0.9080 0.9070 0.9070
438.423897 0.9080 0.9100 0.9100 0.9100 0.9110
443.350013 0.9120 0.9120 0.9140 0.9140 0.9150
448.276130 0.9150 0.9160 0.9160 0.9160 0.9160
453.202246 0.9150 0.9140 0.9140 0.9120 0.9120
458.128363 0.9110 0.9100 0.9100 0.9110 0.9110
463.054480 0.9140 0.9180 0.9220 0.9230 0.9240
467.980596 0.9260 0.9280 0.9300 0.9310 0.9310
472.906713 0.9320 0.9340 0.9340 0.9350 0.9350
477.832829 0.9350 0.9340 0.9320 0.9320 0.9320
482.758946 0.9340 0.9340 0.9350 0.9350 0.9360
487.685062 0.9420 0.9430 0.9440 0.9460 0.9460
492.611179 0.9460 0.9460 0.9470 0.9470 0.9470
497.537296 0.9470 0.9470 0.9470 0.9470 0.9470
502.463412 0.9470 0.9470 0.9470 0.9470 0.9470
507.389529 0.9460 0.9460 0.9460 0.9460 0.9460
512.315645 0.9470 0.9470 0.9470 0.9470 0.9480
517.241762 0.9480 0.9470 0.9470 0.9470 0.9470
522.167879 0.9470 0.9470 0.9470 0.9480 0.9500
527.093995 0.9500 0.9500 0.9500 0.9500 0.9500
532.020112 0.9500 0.9480 0.9470 0.9470 0.9460
536.946228 0.9470 0.9460 0.9460 0.9440 0.9460
541.872345 0.9460 0.9440 0.9440 0.9430 0.9430
546.798461 0.9420 0.9420 0.9420 0.9430 0.9420
551.724578 0.9420 0.9420 0.9400 0.9400 0.9400
556.650695 0.9400 0.9400 0.9420 0.9420 0.9420
561.576811 0.9420 0.9420 0.9420 0.9420 0.9400
566.502928 0.9400 0.9420 0.9430 0.9430 0.9420
571.429044 0.9430 0.9430 0.9430 0.9440 0.9440
576.355161 0.9440 0.9440 0.9440 0.9430 0.9440
581.281278 0.9460 0.9460 0.9470 0.9470 0.9470
586.207394 0.9480 0.9480 0.9500 0.9500 0.9500
591.133511 0.9500 0.9500 0.9510 0.9510 0.9530
596.059627 0.9530 0.9530 0.9510 0.9510 0.9480
600.985744 0.9480 0.9470 0.9430 0.9390 0.9380
605.911861 0.9360 0.9350 0.9340 0.9310 0.9310
610.837977 0.9300 0.9300 0.9280 0.9270 0.9270
615.764094 0.9270 0.9270 0.9280 0.9320 0.9400
620.690210 0.9460 0.9460 0.9440 0.9430 0.9420
625.616327 0.9380 0.9360 0.9340 0.9320 0.9300
630.542443 0.9280 0.9270 0.9270 0.9260 0.9260
635.468560 0.9230 0.9230 0.9220 0.9220 0.9200
640.394677 0.9200 0.9190 0.9120 0.9060 0.8990
645.320793 0.8920 0.8870 0.8800 0.8730 0.8690
650.246910 0.8680 0.8640 0.8590 0.8560 0.8530
655.173026 0.8480 0.8450 0.8380 0.8340 0.8320
660.099143 0.8300 0.8260 0.8220 0.8180 0.8100
665.025260 0.8020 0.7980 0.7910 0.7790 0.7650
669.951376 0.7361 0.7260 0.7061 0.7000 0.6950
674.877493 0.6810 0.6640 0.6560 0.6220 0.6080
679.803609 0.5691 0.5550 0.5361 0.5161 0.4971
684.729726 0.4800 0.4790 0.4790 0.4800 0.4810
689.655842 0.4910 0.5000 0.5140 0.5220 0.5927
694.581959 0.6260 0.6490 0.6810 0.7140 0.7470
699.508076 0.7769 0.8049 0.8200 0.8300 0.8420
704.434192 0.8570 0.8670 0.8720 0.8880 0.8950
709.360309 0.9000 0.9070 0.9100 0.9190 0.9260
714.286425 0.9280 0.9350 0.9390 0.9400 0.9430
719.212542 0.9480 0.9530 0.9580 0.9590 0.9610
724.138659 0.9620 0.9630 0.9630 0.9650 0.9660
729.064775 0.9670 0.9690 0.9700 0.9710 0.9740
733.990892 0.9740 0.9740 0.9750 0.9750 0.9790
738.917008 0.9790 0.9790 0.9780 0.9780 0.9780
743.843125 0.9780 0.9780 0.9790 0.9810 0.9820
748.769241 0.9830 0.9850 0.9860 0.9860 0.9860
753.695358 0.9870 0.9870 0.9890 0.9900 0.9910
758.621475 0.9930 0.9930 0.9940 0.9940 0.9970
763.547591 0.9980 0.9980 1.0000 1.0000 1.0010
768.473708 1.0020 1.0040 1.0050 1.0060 1.0060
773.399824 1.0080 1.0080 1.0090 1.0090 1.0090
778.325941 1.0090 1.0080 1.0080 1.0080 1.0080
783.252058 1.0060 1.0040 1.0020 0.9970 0.9940
788.178174 0.9930 0.9860 0.9830 0.9820 0.9790
793.104291 0.9780 0.9750 0.9730 0.9710 0.9700
798.030407 0.9610 0.9530 0.9440 0.9440 0.9500
802.956524 0.9570 0.9620 0.9690 0.9710 0.9740
807.882641 0.9770 0.9790 0.9820 0.9820 0.9830
812.808757 0.9860 0.9870 0.9870 0.9890 0.9890
817.734874 0.9900 0.9900 0.9890 0.9890 0.9890
822.660990 0.9870 0.9870 0.9860 0.9860 0.9860
827.587107 0.9860 0.9850 0.9850 0.9850 0.9850
832.513223 0.9830 0.9830 0.9820 0.9820 0.9810
837.439340 0.9810 0.9790 0.9790 0.9790 0.9790
842.365457 0.9810 0.9810 0.9810 0.9810 0.9810
847.291573 0.9810 0.9790 0.9780 0.9750 0.9740
852.217690 0.9740 0.9730 0.9710 0.9670 0.9630
857.143806 0.9550 0.9500 0.9460 0.9420 0.9400
862.069923 0.9380 0.9310 0.9180 0.9160 0.9020
866.996040 0.8880 0.8720 0.8560 0.8401 0.8400
871.922156 0.8510 0.8600 0.8990 0.9020 0.9120
876.848273 0.9280 0.9350 0.9420 0.9430 0.9440
881.774389 0.9460 0.9460 0.9440 0.9420 0.9390
886.700506 0.9380 0.9360 0.9340 0.9320 0.9310
891.626622 0.9300 0.9230 0.9200 0.9190 0.9160
896.552739 0.9150 0.9120 0.9110 0.9080 0.9030
901.478856 0.8970 0.8950 0.8920 0.8850 0.8790
906.404972 0.8770 0.8760 0.8710 0.8570 0.8550
911.331089 0.8490 0.8480 0.8450 0.8380 0.8340
916.257205 0.8320 0.8250 0.8120 0.8050 0.7940
921.183322 0.7890 0.7830 0.7810 0.7730 0.7620
926.109439 0.7500 0.7470 0.7300 0.7220 0.7021
931.035555 0.6890 0.6790 0.6650 0.6530 0.6370
935.961672 0.6170 0.6060 0.5930 0.5671 0.5431
940.887788 0.5110 0.4970 0.4710 0.4400 0.4210
945.813905 0.3931 0.3341 0.3151 0.2801 0.2511
950.740022 0.2260 0.2010 0.1750 0.1500 0.0991
955.666138 0.0760 0.0730 0.0521 0.0480 0.0460
960.592255 0.0460 0.0460 0.0460 0.0460 0.0460
965.518371 0.0480 0.0490 0.0490 0.0550 0.0570
970.444488 0.0590 0.0760 0.0790 0.0990 0.1100
975.370604 0.1190 0.1380 0.1609 0.1809 0.2298
980.296721 0.2690 0.3160 0.3400 0.3830 0.4120
985.222838 0.4479 0.4749 0.4929 0.5259 0.5459
990.148954 0.5730 0.5890 0.6080 0.6210 0.6360
995.075071 0.6490 0.6600 0.6730 0.6840 0.6989
1000.001187 0.7110 0.7200 0.7270 0.7360 0.7440
1004.927304 0.7500 0.7580 0.7610 0.7630 0.7670
1009.853421 0.7710 0.7710 0.7770 0.7790 0.7830
1014.779537 0.7860 0.7870 0.7870 0.7890 0.7900
1019.705654 0.7910 0.7910 0.7950 0.7980 0.7980
1024.631770 0.8010 0.8080 0.8140 0.8170 0.8240
1029.557887 0.8290 0.8330 0.8370 0.8400 0.8440
1034.484003 0.8530 0.8600 0.8640 0.8670 0.8690
1039.410120 0.8760 0.8770 0.8790 0.8830 0.8880
1044.336237 0.8950 0.8950 0.8960 0.8990 0.9000
1049.262353 0.9020 0.9020 0.9040 0.9060 0.9080
1054.188470 0.9100 0.9100 0.9100 0.9110 0.9110
1059.114586 0.9120 0.9120 0.9140 0.9140 0.9140
1064.040703 0.9140 0.9140 0.9140 0.9120 0.9120
1068.966820 0.9110 0.9110 0.9110 0.9100 0.9100
1073.892936 0.9100 0.9100 0.9100 0.9080 0.9060
1078.819053 0.8970 0.8870 0.8840 0.8770 0.8680
1083.745169 0.8570 0.8480 0.8340 0.8250 0.7931
1088.671286 0.7440 0.7200 0.6970 0.6750 0.6750
1093.597402 0.7080 0.7419 0.7749 0.8059 0.8459
1098.523519 0.8870 0.9080 0.9280 0.9300 0.9350
1103.449636 0.9390 0.9470 0.9510 0.9530 0.9550
1108.375752 0.9570 0.9570 0.9570 0.9570 0.9570
1113.301869 0.9540 0.9530 0.9530 0.9500 0.9480
1118.227985 0.9470 0.9470 0.9480 0.9480 0.9500
1123.154102 0.9510 0.9530 0.9540 0.9570 0.9590
1128.080219 0.9620 0.9630 0.9690 0.9710 0.9740
1133.006335 0.9750 0.9790 0.9850 0.9910 0.9940
1137.932452 0.9970 0.9980 1.0000 1.0010 1.0040
1142.858568 1.0050 1.0080 1.0090 1.0100 1.0120
1147.784685 1.0130 1.0130 1.0140 1.0140 1.0140
1152.710802 1.0130 1.0130 1.0130 1.0130 1.0120
1157.636918 1.0120 1.0100 1.0090 1.0080 1.0060
1162.563035 1.0050 1.0040 1.0040 1.0020 1.0000
1167.489151 0.9980 0.9970 0.9970 0.9950 0.9950
1172.415268 0.9940 0.9940 0.9930 0.9930 0.9930
1177.341384 0.9910 0.9930 0.9910 0.9910 0.9910
1182.267501 0.9910 0.9900 0.9900 0.9900 0.9900
1187.193618 0.9900 0.9910 0.9910 0.9910 0.9910
1192.119734 0.9910 0.9910 0.9910 0.9910 0.9910
1197.045851 0.9910 0.9910 0.9910 0.9910 0.9900
1201.971967 0.9900 0.9900 0.9900 0.9900 0.9900
1206.898084 0.9900 0.9900 0.9890 0.9890 0.9890
1211.824201 0.9890 0.9870 0.9870 0.9870 0.9860
1216.750317 0.9850 0.9850 0.9830 0.9830 0.9830
1221.676434 0.9820 0.9820 0.9820 0.9810 0.9810
1226.602550 0.9810 0.9810 0.9810 0.9810 0.9790
1231.528667 0.9790 0.9790 0.9790 0.9790 0.9790
1236.454783 0.9790 0.9780 0.9780 0.9770 0.9750
1241.380900 0.9740 0.9740 0.9730 0.9700 0.9670
1246.307017 0.9670 0.9660 0.9650 0.9590 0.9590
1251.233133 0.9580 0.9570 0.9540 0.9530 0.9510
1256.159250 0.9510 0.9500 0.9480 0.9480 0.9470
1261.085366 0.9460 0.9460 0.9430 0.9390 0.9350
1266.011483 0.9320 0.9300 0.9270 0.9230 0.9200
1270.937600 0.9180 0.9150 0.9110 0.9100 0.9070
1275.863716 0.9060 0.9030 0.8970 0.8910 0.8910
1280.789833 0.8890 0.8870 0.8850 0.8840 0.8810
1285.715949 0.8800 0.8770 0.8750 0.8750 0.8730
1290.642066 0.8730 0.8720 0.8720 0.8710 0.8690
1295.568182 0.8690 0.8680 0.8680 0.8670 0.8670
1300.494299 0.8650 0.8650 0.8640 0.8630 0.8630
1305.420416 0.8630 0.8630 0.8630 0.8630 0.8630
1310.346532 0.8630 0.8630 0.8630 0.8640 0.8640
1315.272649 0.8640 0.8650 0.8650 0.8650 0.8640
1320.198765 0.8640 0.8640 0.8640 0.8640 0.8630
1325.124882 0.8630 0.8610 0.8610 0.8600 0.8610
1330.050999 0.8610 0.8630 0.8630 0.8630 0.8640
1334.977115 0.8640 0.8640 0.8640 0.8630 0.8600
1339.903232 0.8590 0.8570 0.8560 0.8530 0.8520
1344.829348 0.8520 0.8510 0.8510 0.8490 0.8490
1349.755465 0.8480 0.8480 0.8460 0.8450 0.8420
1354.681582 0.8400 0.8340 0.8260 0.8250 0.8200
1359.607698 0.8170 0.8160 0.8140 0.8130 0.8120
1364.533815 0.8100 0.8090 0.8090 0.8090 0.8100
1369.459931 0.8120 0.8130 0.8130 0.8130 0.8140
1374.386048 0.8170 0.8180 0.8180 0.8200 0.8200
1379.312164 0.8210 0.8210 0.8200 0.8200 0.8200
1384.238281 0.8180 0.8170 0.8160 0.8160 0.8140
1389.164398 0.8100 0.8080 0.8050 0.8000 0.7970
1394.090514 0.7850 0.7820 0.7790 0.7620 0.7480
1399.016631 0.7420 0.7300 0.7220 0.6991 0.6870
1403.942747 0.6710 0.6440 0.6140 0.5790 0.5530
1408.868864 0.4811 0.4461 0.3901 0.3142 0.2372
1413.794981 0.1820 0.1821 0.2841 0.4100 0.5000
1418.721097 0.5929 0.6409 0.6879 0.7070 0.7259
1423.647214 0.7470 0.7620 0.7660 0.7670 0.7670
1428.573330 0.7700 0.7730 0.7820 0.7870 0.7950
1433.499447 0.8000 0.8010 0.8040 0.8060 0.8130
1438.425563 0.8240 0.8360 0.8460 0.8480 0.8490
1443.351680 0.8570 0.8640 0.8670 0.8670 0.8680
1448.277797 0.8690 0.8720 0.8720 0.8720 0.8720
1453.203913 0.8730 0.8730 0.8750 0.8760 0.8760
1458.130030 0.8770 0.8770 0.8790 0.8770 0.8800
1463.056146 0.8810 0.8830 0.8830 0.8840 0.8840
1467.982263 0.8870 0.8880 0.8880 0.8890 0.8890
1472.908380 0.8910 0.8910 0.8920 0.8920 0.8920
1477.834496 0.8920 0.8920 0.8920 0.8930 0.8930
1482.760613 0.8930 0.8950 0.8960 0.8960 0.8970
1487.686729 0.8970 0.8990 0.9000 0.9000 0.9020
1492.612846 0.9030 0.9040 0.9060 0.9060 0.9060
1497.538963 0.9080 0.9080 0.9100 0.9110 0.9110
1502.465079 0.9110 0.9110 0.9120 0.9140 0.9150
1507.391196 0.9140 0.9160 0.9180 0.9190 0.9200
1512.317312 0.9200 0.9220 0.9220 0.9230 0.9230
1517.243429 0.9230 0.9230 0.9240 0.9240 0.9240
1522.169545 0.9240 0.9260 0.9260 0.9260 0.9270
1527.095662 0.9280 0.9280 0.9280 0.9310 0.9340
1532.021779 0.9350 0.9390 0.9390 0.9420 0.9430
1536.947895 0.9460 0.9470 0.9480 0.9480 0.9500
1541.874012 0.9500 0.9500 0.9500 0.9480 0.9480
1546.800128 0.9440 0.9420 0.9390 0.9380 0.9380
1551.726245 0.9350 0.9320 0.9260 0.9220 0.9190
1556.652362 0.9180 0.9160 0.9120 0.9100 0.9060
1561.578478 0.9030 0.8990 0.8970 0.8960 0.8960
1566.504595 0.8950 0.8950 0.8930 0.8930 0.8930
1571.430711 0.8920 0.8920 0.8920 0.8910 0.8910
1576.356828 0.8890 0.8870 0.8870 0.8850 0.8840
1581.282944 0.8830 0.8810 0.8800 0.8770 0.8760
1586.209061 0.8750 0.8750 0.8720 0.8670 0.8530
1591.135178 0.8480 0.8450 0.8440 0.8380 0.8330
1596.061294 0.8280 0.8220 0.8170 0.8100 0.8050
1600.987411 0.7980 0.7930 0.7860 0.7780 0.7650
1605.913527 0.7590 0.7470 0.7220 0.6961 0.6960
1610.839644 0.6990 0.7120 0.7270 0.7310 0.7610
1615.765761 0.7790 0.7930 0.7950 0.8020 0.8080
1620.691877 0.8120 0.8200 0.8250 0.8290 0.8300
1625.617994 0.8320 0.8330 0.8340 0.8340 0.8340
1630.544110 0.8330 0.8320 0.8300 0.8280 0.8250
1635.470227 0.8240 0.8210 0.8210 0.8180 0.8170
1640.396343 0.8130 0.8050 0.8040 0.8010 0.7980
1645.322460 0.7970 0.7950 0.7940 0.7930 0.7930
1650.248577 0.7940 0.7950 0.7970 0.7980 0.8010
1655.174693 0.8050 0.8080 0.8130 0.8160 0.8210
1660.100810 0.8320 0.8340 0.8370 0.8410 0.8460
1665.026926 0.8530 0.8570 0.8590 0.8610 0.8650
1669.953043 0.8690 0.8730 0.8730 0.8750 0.8750
1674.879160 0.8760 0.8770 0.8770 0.8790 0.8790
1679.805276 0.8800 0.8800 0.8800 0.8810 0.8810
1684.731393 0.8810 0.8810 0.8810 0.8810 0.8810
1689.657509 0.8810 0.8810 0.8810 0.8810 0.8810
1694.583626 0.8810 0.8840 0.8850 0.8850 0.8870
1699.509743 0.8870 0.8870 0.8870 0.8850 0.8850
1704.435859 0.8850 0.8840 0.8840 0.8830 0.8830
1709.361976 0.8830 0.8810 0.8800 0.8800 0.8800
1714.288092 0.8770 0.8760 0.8760 0.8750 0.8750
1719.214209 0.8750 0.8750 0.8760 0.8760 0.8760
1724.140325 0.8770 0.8800 0.8800 0.8840 0.8870
1729.066442 0.8880 0.8920 0.8920 0.8930 0.8950
1733.992559 0.8950 0.8950 0.8960 0.8960 0.8970
1738.918675 0.8970 0.8970 0.8970 0.8970 0.8970
1743.844792 0.8970 0.8990 0.8990 0.8990 0.9000
1748.770908 0.9020 0.9020 0.9030 0.9030 0.9030
1753.697025 0.9030 0.9030 0.9040 0.9040 0.9040
1758.623142 0.9040 0.9040 0.9030 0.9030 0.9030
1763.549258 0.9030 0.9030 0.9030 0.9030 0.9030
1768.475375 0.9030 0.9020 0.9020 0.9020 0.9020
1773.401491 0.9020 0.9020 0.9020 0.9020 0.9020
1778.327608 0.9020 0.9020 0.9020 0.9030 0.9030
1783.253724 0.9030 0.9030 0.9040 0.9040 0.9040
1788.179841 0.9040 0.9040 0.9040 0.9040 0.9060
1793.105958 0.9030 0.9030 0.9030 0.9030 0.9030
1798.032074 0.9030 0.9030 0.9030 0.9030 0.9030
1802.958191 0.9030 0.9030 0.9030 0.9030 0.9030
1807.884307 0.9030 0.9030 0.9030 0.9020 0.9020
1812.810424 0.9020 0.9020 0.9020 0.9020 0.9020
1817.736541 0.9020 0.9000 0.9000 0.9000 0.9000
1822.662657 0.9000 0.8990 0.8990 0.8990 0.8990
1827.588774 0.8970 0.8970 0.8970 0.8970 0.8960
1832.514890 0.8960 0.8960 0.8950 0.8950 0.8950
1837.441007 0.8930 0.8930 0.8930 0.8920 0.8920
1842.367123 0.8920 0.8920 0.8920 0.8920 0.8920
1847.293240 0.8920 0.8920 0.8920 0.8920 0.8930
1852.219357 0.8930 0.8930 0.8930 0.8930 0.8930
1857.145473 0.8930 0.8930 0.8930 0.8930 0.8920
1862.071590 0.8920 0.8920 0.8920 0.8920 0.8920
1866.997706 0.8920 0.8910 0.8890 0.8890 0.8880
1871.923823 0.8880 0.8880 0.8870 0.8870 0.8870
1876.849940 0.8850 0.8840 0.8840 0.8830 0.8810
1881.776056 0.8810 0.8800 0.8790 0.8790 0.8770
1886.702173 0.8750 0.8750 0.8730 0.8720 0.8690
1891.628289 0.8670 0.8640 0.8610 0.8590 0.8570
1896.554406 0.8550 0.8520 0.8450 0.8400 0.8360
1901.480523 0.8340 0.8330 0.8260 0.8180 0.8140
1906.406639 0.8090 0.8040 0.7980 0.7910 0.7860
1911.332756 0.7810 0.7750 0.7700 0.7620 0.7480
1916.258872 0.7420 0.7380 0.7350 0.7340 0.7340
1921.184989 0.7340 0.7340 0.7340 0.7340 0.7340
1926.111105 0.7340 0.7350 0.7350 0.7380 0.7400
1931.037222 0.7430 0.7540 0.7570 0.7590 0.7650
1935.963339 0.7670 0.7750 0.7820 0.7900 0.7950
1940.889455 0.7980 0.8000 0.8050 0.8140 0.8200
1945.815572 0.8280 0.8320 0.8340 0.8380 0.8450
1950.741688 0.8510 0.8550 0.8550 0.8590 0.8610
1955.667805 0.8630 0.8640 0.8650 0.8670 0.8680
1960.593922 0.8680 0.8680 0.8680 0.8680 0.8690
1965.520038 0.8710 0.8730 0.8750 0.8760 0.8760
1970.446155 0.8770 0.8770 0.8770 0.8770 0.8770
1975.372271 0.8790 0.8800 0.8810 0.8830 0.8840
1980.298388 0.8870 0.8870 0.8880 0.8890 0.8920
1985.224504 0.8920 0.8930 0.8950 0.8950 0.8960
1990.150621 0.8970 0.8970 0.8970 0.8990 0.8990
1995.076738 0.9000 0.9000 0.9000 0.9000 0.9000
2000.002854 0.9000 0.8995 0.8990 0.8980 0.8970
2004.928971 0.8970 0.8970 0.8970 0.8970 0.8970
2009.855087 0.8970 0.8970 0.8970 0.8970 0.8970
2014.781204 0.8980 0.8990 0.8990 0.8990 0.8990
2019.707321 0.8990 0.8990 0.8990 0.8990 0.8990
2024.633437 0.8990 0.8990 0.8990 0.8990 0.8990
2029.559554 0.8990 0.8990 0.8990 0.8990 0.8990
2034.485670 0.8990 0.8990 0.8990 0.8990 0.8990
2039.411787 0.8990 0.8990 0.8990 0.8990 0.8990
2044.337904 0.8990 0.8990 0.8990 0.8990 0.8990
2049.264020 0.8990 0.8990 0.8990 0.8990 0.8990
2054.190137 0.8990 0.8990 0.8990 0.8990 0.8990
2059.116253 0.8990 0.8990 0.8990 0.8990 0.8990
2064.042370 0.8990 0.8990 0.8995 0.9000 0.9000
2068.968486 0.9000 0.9000 0.9000 0.9000 0.9000
2073.894603 0.9000 0.9000 0.9000 0.9000 0.9000
2078.820720 0.9000 0.9000 0.9000 0.9000 0.9000
2083.746836 0.9000 0.9000 0.9000 0.9000 0.9000
2088.672953 0.9000 0.9000 0.9000 0.9000 0.9000
2093.599069 0.9000 0.9000 0.9000 0.9000 0.8995
2098.525186 0.8990 0.8990 0.8990 0.8990 0.8990
2103.451303 0.8990 0.8990 0.8990 0.8990 0.8990
2108.377419 0.8990 0.8990 0.8990 0.8990 0.8990
2113.303536 0.8990 0.8990 0.8990 0.8990 0.8981
2118.229652 0.8971 0.8970 0.8970 0.8970 0.8970
2123.155769 0.8965 0.8960 0.8960 0.8960 0.8960
2128.081885 0.8960 0.8955 0.8950 0.8950 0.8950
2133.008002 0.8950 0.8950 0.8950 0.8950 0.8950
2137.934119 0.8950 0.8941 0.8931 0.8930 0.8930
2142.860235 0.8930 0.8930 0.8930 0.8930 0.8930
2147.786352 0.8930 0.8925 0.8920 0.8920 0.8920
2152.712468 0.8920 0.8920 0.8916 0.8911 0.8910
2157.638585 0.8910 0.8901 0.8891 0.8885 0.8880
2162.564702 0.8880 0.8880 0.8875 0.8870 0.8861
2167.490818 0.8851 0.8850 0.8850 0.8846 0.8841
2172.416935 0.8836 0.8831 0.8830 0.8830 0.8821
2177.343051 0.8811 0.8810 0.8810 0.8810 0.8810
2182.269168 0.8810 0.8810 0.8806 0.8801 0.8796
2187.195284 0.8791 0.8790 0.8790 0.8781 0.8771
2192.121401 0.8770 0.8770 0.8766 0.8761 0.8756
2197.047518 0.8751 0.8741 0.8731 0.8721 0.8711
2201.973634 0.8692 0.8672 0.8661 0.8651 0.8641
2206.899751 0.8631 0.8604 0.8574 0.8561 0.8551
2211.825867 0.8533 0.8513 0.8462 0.8407 0.8335
2216.751984 0.8259 0.8140 0.8015 0.7846 0.7672
