##TITLE=2-PROPEN-1-OL
##JCAMP-DX=4.24
##DATA TYPE=INFRARED SPECTRUM
##CLASS=COBLENTZ
##ORIGIN=DOW CHEMICAL COMPANY
##OWNER=COBLENTZ SOCIETY
Collection (C) 2018 copyright by the U.S. Secretary of Commerce
on behalf of the United States of America. All rights reserved.
##DATE=1964/03/11
##NAMES=ALLYL ALCOHOL
##CAS REGISTRY NO=107-18-6
##MOLFORM=C3 H6 O
##SOURCE REFERENCE=COBLENTZ NO. 10478
##$NIST SOURCE=COBLENTZ
##$NIST IMAGE=cob10478
##SPECTROMETER/DATA SYSTEM=BECKMAN IR-9 (GRATING)
##INSTRUMENT PARAMETERS=ORDER CHANGES AT 670, 1200, 2000 CM^-^1
##STATE=GAS (13 mmHg DILUTED TO A TOTAL PRESSURE OF 600 mmHg WITH N2)
##PATH LENGTH=100 CM CELL
##SAMPLING PROCEDURE=TRANSMISSION
##RESOLUTION=4
##DATA PROCESSING=DIGITIZED BY NIST FROM HARD COPY (FROM TWO SEGMENTS)
##XUNITS=1/CM
##YUNITS=TRANSMITTANCE
##XFACTOR=1.000000
##YFACTOR=1
##DELTAX=0.888326
##FIRSTX=398.35
##LASTX=3793.53
##FIRSTY=0.555
##MAXX=3793.53
##MINX=398.35
##MAXY=0.968
##MINY=0.001
##NPOINTS=3823
##XYDATA=(X++(Y..Y))
398.350000 0.5550 0.5540 0.5510 0.5480 0.5470
402.791629 0.5450 0.5420 0.5380 0.5360 0.5330
407.233258 0.5300 0.5260 0.5200 0.5160 0.5120
411.674887 0.5090 0.5060 0.5050 0.5040 0.5010
416.116516 0.5000 0.4980 0.4950 0.4940 0.4930
420.558146 0.4910 0.4900 0.4880 0.4880 0.4860
424.999775 0.4860 0.4840 0.4830 0.4830 0.4810
429.441404 0.4800 0.4800 0.4790 0.4790 0.4790
433.883033 0.4790 0.4790 0.4790 0.4790 0.4790
438.324662 0.4800 0.4800 0.4810 0.4810 0.4830
442.766291 0.4830 0.4860 0.4860 0.4880 0.4900
447.207920 0.4910 0.4970 0.4980 0.5010 0.5040
451.649549 0.5050 0.5060 0.5110 0.5130 0.5160
456.091178 0.5200 0.5240 0.5270 0.5310 0.5340
460.532807 0.5400 0.5410 0.5410 0.5410 0.5410
464.974437 0.5410 0.5420 0.5420 0.5440 0.5440
469.416066 0.5470 0.5470 0.5490 0.5520 0.5560
473.857695 0.5650 0.5670 0.5690 0.5670 0.5660
478.299324 0.5660 0.5650 0.5650 0.5630 0.5630
482.740953 0.5630 0.5650 0.5700 0.5730 0.5740
487.182582 0.5740 0.5740 0.5740 0.5730 0.5720
491.624211 0.5720 0.5730 0.5740 0.5740 0.5740
496.065840 0.5760 0.5760 0.5740 0.5720 0.5670
500.507469 0.5670 0.5730 0.5810 0.5870 0.5810
504.949098 0.5740 0.5810 0.5840 0.5870 0.5870
509.390728 0.5880 0.5880 0.5870 0.5840 0.5770
513.832357 0.5740 0.5730 0.5740 0.5760 0.5850
518.273986 0.5900 0.5990 0.6010 0.5950 0.5920
522.715615 0.5850 0.5830 0.5850 0.6020 0.6060
527.157244 0.6050 0.6030 0.5990 0.5980 0.5980
531.598873 0.5980 0.5990 0.5990 0.6010 0.6010
536.040502 0.6020 0.6030 0.6030 0.6030 0.6030
540.482131 0.6030 0.6050 0.6050 0.6050 0.6050
544.923760 0.6050 0.6050 0.6030 0.6020 0.5980
549.365389 0.5770 0.5450 0.5020 0.5020 0.5220
553.807019 0.5410 0.5580 0.5739 0.6079 0.6170
558.248648 0.6190 0.6230 0.6300 0.6410 0.6480
562.690277 0.6550 0.6590 0.6590 0.6620 0.6680
567.131906 0.6740 0.6780 0.6800 0.6820 0.6910
571.573535 0.6990 0.7060 0.7070 0.7100 0.7239
576.015164 0.7270 0.7310 0.7320 0.7340 0.7400
580.456793 0.7490 0.7540 0.7570 0.7570 0.7590
584.898422 0.7590 0.7600 0.7600 0.7600 0.7640
589.340051 0.7720 0.7830 0.7920 0.8000 0.8010
593.781680 0.8010 0.8030 0.8040 0.8060 0.8060
598.223310 0.8110 0.8130 0.8180 0.8190 0.8190
602.664939 0.8170 0.8080 0.8060 0.7970 0.7950
607.106568 0.7930 0.7950 0.7960 0.7970 0.8000
611.548197 0.8000 0.7990 0.7970 0.7960 0.7950
615.989826 0.7950 0.7960 0.7970 0.7990 0.8000
620.431455 0.8000 0.8000 0.8010 0.8030 0.8030
624.873084 0.8030 0.8030 0.8010 0.8010 0.8010
629.314713 0.8030 0.8010 0.8010 0.8000 0.7990
633.756342 0.7970 0.7950 0.7950 0.7930 0.7930
638.197971 0.7930 0.7930 0.7950 0.7950 0.7950
642.639601 0.7960 0.7970 0.7970 0.8010 0.8030
647.081230 0.8040 0.8080 0.8110 0.8150 0.8180
651.522859 0.8210 0.8250 0.8310 0.8310 0.8350
655.964488 0.8370 0.8400 0.8430 0.8460 0.8500
660.406117 0.8510 0.8570 0.8670 0.8680 0.8690
664.847746 0.8710 0.8710 0.8720 0.8730 0.8750
669.289375 0.8750 0.8750 0.8760 0.8760 0.8780
673.731004 0.8780 0.8780 0.8790 0.8790 0.8800
678.172633 0.8800 0.8820 0.8820 0.8820 0.8830
682.614262 0.8830 0.8850 0.8850 0.8850 0.8860
687.055892 0.8860 0.8870 0.8870 0.8890 0.8890
691.497521 0.8900 0.8900 0.8910 0.8910 0.8930
695.939150 0.8930 0.8940 0.8940 0.8960 0.8960
700.380779 0.8970 0.8970 0.8980 0.8980 0.9000
704.822408 0.9000 0.9010 0.9010 0.9010 0.9030
709.264037 0.9040 0.9050 0.9070 0.9080 0.9080
713.705666 0.9090 0.9110 0.9120 0.9140 0.9140
718.147295 0.9150 0.9150 0.9150 0.9160 0.9160
722.588924 0.9160 0.9180 0.9180 0.9180 0.9190
727.030553 0.9190 0.9190 0.9210 0.9210 0.9210
731.472183 0.9220 0.9220 0.9220 0.9230 0.9230
735.913812 0.9230 0.9230 0.9250 0.9250 0.9250
740.355441 0.9250 0.9260 0.9260 0.9260 0.9260
744.797070 0.9270 0.9270 0.9270 0.9270 0.9290
749.238699 0.9290 0.9290 0.9290 0.9290 0.9300
753.680328 0.9300 0.9300 0.9300 0.9320 0.9320
758.121957 0.9320 0.9320 0.9330 0.9330 0.9330
762.563586 0.9330 0.9340 0.9340 0.9340 0.9360
767.005215 0.9360 0.9360 0.9360 0.9370 0.9370
771.446844 0.9370 0.9370 0.9390 0.9390 0.9390
775.888474 0.9390 0.9400 0.9400 0.9400 0.9400
780.330103 0.9410 0.9410 0.9410 0.9410 0.9430
784.771732 0.9430 0.9430 0.9440 0.9440 0.9440
789.213361 0.9440 0.9440 0.9440 0.9450 0.9450
793.654990 0.9450 0.9450 0.9450 0.9470 0.9470
798.096619 0.9470 0.9470 0.9470 0.9470 0.9480
802.538248 0.9480 0.9480 0.9480 0.9480 0.9500
806.979877 0.9500 0.9500 0.9500 0.9500 0.9510
811.421506 0.9510 0.9510 0.9510 0.9510 0.9510
815.863135 0.9510 0.9510 0.9510 0.9510 0.9510
820.304765 0.9510 0.9500 0.9500 0.9500 0.9500
824.746394 0.9500 0.9500 0.9480 0.9480 0.9480
829.188023 0.9480 0.9470 0.9450 0.9440 0.9430
833.629652 0.9400 0.9400 0.9400 0.9400 0.9390
838.071281 0.9370 0.9360 0.9340 0.9330 0.9300
842.512910 0.9300 0.9290 0.9270 0.9250 0.9230
846.954539 0.9220 0.9210 0.9190 0.9180 0.9160
851.396168 0.9150 0.9110 0.9070 0.9040 0.9010
855.837797 0.8960 0.8910 0.8890 0.8830 0.8730
860.279426 0.8620 0.8550 0.8530 0.8500 0.8390
864.721056 0.8350 0.8310 0.8210 0.8150 0.8130
869.162685 0.8010 0.7930 0.7820 0.7770 0.7680
873.604314 0.7640 0.7570 0.7500 0.7400 0.7251
878.045943 0.7210 0.6930 0.6770 0.6630 0.6490
882.487572 0.6320 0.6161 0.5901 0.5631 0.5491
886.929201 0.5240 0.5130 0.4830 0.4580 0.4291
891.370830 0.4031 0.3821 0.3710 0.3461 0.3321
895.812459 0.3170 0.3060 0.2830 0.2650 0.2500
900.254088 0.2390 0.2290 0.2220 0.2140 0.2060
904.695717 0.1860 0.1820 0.1630 0.1590 0.1480
909.137347 0.1340 0.1190 0.1060 0.0980 0.0880
913.578976 0.0770 0.0700 0.0620 0.0490 0.0410
918.020605 0.0240 0.0160 0.0150 0.0160 0.0190
922.462234 0.0230 0.0240 0.0260 0.0260 0.0270
926.903863 0.0290 0.0290 0.0300 0.0300 0.0310
931.345492 0.0310 0.0330 0.0330 0.0340 0.0340
935.787121 0.0370 0.0370 0.0400 0.0410 0.0440
940.228750 0.0470 0.0490 0.0510 0.0550 0.0630
944.670379 0.0670 0.0720 0.0780 0.0800 0.0920
949.112008 0.1030 0.1200 0.1260 0.1410 0.1490
953.553638 0.1600 0.1730 0.1780 0.1840 0.1920
957.995267 0.2000 0.2060 0.2140 0.2180 0.2210
962.436896 0.2220 0.2250 0.2270 0.2310 0.2350
966.878525 0.2380 0.2390 0.2390 0.2210 0.2110
971.320154 0.2100 0.2090 0.2060 0.2000 0.1821
975.761783 0.1670 0.1560 0.1460 0.1340 0.1130
980.203412 0.0960 0.0840 0.0780 0.0780 0.0730
984.645041 0.0690 0.0660 0.0630 0.0620 0.0590
989.086670 0.0550 0.0540 0.0510 0.0480 0.0470
993.528299 0.0470 0.0450 0.0440 0.0440 0.0420
997.969929 0.0420 0.0420 0.0420 0.0410 0.0400
1002.411558 0.0380 0.0370 0.0340 0.0330 0.0300
1006.853187 0.0290 0.0290 0.0270 0.0270 0.0260
1011.294816 0.0260 0.0260 0.0240 0.0220 0.0180
1015.736445 0.0160 0.0130 0.0130 0.0120 0.0120
1020.178074 0.0110 0.0090 0.0090 0.0090 0.0080
1024.619703 0.0080 0.0080 0.0060 0.0060 0.0060
1029.061332 0.0050 0.0040 0.0040 0.0040 0.0040
1033.502961 0.0020 0.0020 0.0020 0.0040 0.0040
1037.944590 0.0040 0.0050 0.0060 0.0060 0.0080
1042.386220 0.0080 0.0060 0.0060 0.0040 0.0040
1046.827849 0.0020 0.0010 0.0010 0.0020 0.0090
1051.269478 0.0130 0.0160 0.0310 0.0450 0.0629
1055.711107 0.1010 0.1140 0.1550 0.1919 0.2249
1060.152736 0.2569 0.2859 0.3129 0.3389 0.3619
1064.594365 0.3850 0.4030 0.4220 0.4370 0.4450
1069.035994 0.4580 0.4789 0.4900 0.5000 0.5020
1073.477623 0.5060 0.5120 0.5160 0.5260 0.5290
1077.919252 0.5300 0.5340 0.5340 0.5310 0.5290
1082.360881 0.5260 0.5240 0.5220 0.5180 0.5110
1086.802511 0.5020 0.4930 0.4790 0.4621 0.4431
1091.244140 0.4230 0.4120 0.3910 0.3800 0.3650
1095.685769 0.3510 0.3370 0.3280 0.3151 0.3031
1100.127398 0.2880 0.2780 0.2680 0.2610 0.2600
1104.569027 0.2520 0.2490 0.2450 0.2420 0.2400
1109.010656 0.2390 0.2390 0.2380 0.2360 0.2340
1113.452285 0.2310 0.2240 0.2180 0.2160 0.2130
1117.893914 0.2130 0.2110 0.2110 0.2060 0.1990
1122.335543 0.1930 0.1860 0.1840 0.1820 0.1840
1126.777172 0.1860 0.1890 0.1960 0.2100 0.2140
1131.218802 0.2220 0.2240 0.2280 0.2738 0.2919
1135.660431 0.3150 0.3190 0.3290 0.3330 0.3370
1140.102060 0.3440 0.3500 0.3530 0.3640 0.3819
1144.543689 0.3980 0.4090 0.4330 0.4470 0.4570
1148.985318 0.4650 0.4660 0.5288 0.5489 0.5619
1153.426947 0.5740 0.5810 0.5880 0.6020 0.6120
1157.868576 0.6200 0.6270 0.6310 0.6380 0.6420
1162.310205 0.6440 0.6450 0.6480 0.6490 0.6500
1166.751834 0.6490 0.6480 0.6450 0.6440 0.6370
1171.193463 0.6310 0.6300 0.6210 0.6170 0.6060
1175.635093 0.6010 0.5880 0.5780 0.5760 0.5631
1180.076722 0.5520 0.5480 0.5370 0.5300 0.5270
1184.518351 0.5240 0.5150 0.5110 0.5020 0.5010
1188.959980 0.4950 0.4760 0.4550 0.4390 0.4360
1193.401609 0.4360 0.4360 0.4360 0.4290 0.4161
1197.843238 0.4120 0.4030 0.3910 0.3820 0.3620
1202.284867 0.3610 0.3610 0.3600 0.3600 0.3600
1206.726496 0.3580 0.3580 0.3600 0.3610 0.3640
1211.168125 0.3650 0.3670 0.3670 0.3680 0.3690
1215.609754 0.3710 0.3730 0.3790 0.3830 0.3890
1220.051384 0.3900 0.4000 0.4030 0.4120 0.4190
1224.493013 0.4260 0.4320 0.4390 0.4450 0.4520
1228.934642 0.4620 0.4720 0.4810 0.4999 0.5010
1233.376271 0.5050 0.5110 0.5220 0.5330 0.5410
1237.817900 0.5490 0.5520 0.5620 0.5670 0.5760
1242.259529 0.5770 0.5780 0.5830 0.5910 0.5960
1246.701158 0.6030 0.6140 0.6190 0.6270 0.6320
1251.142787 0.6370 0.6410 0.6420 0.6460 0.6480
1255.584416 0.6530 0.6550 0.6570 0.6590 0.6600
1260.026045 0.6630 0.6670 0.6680 0.6680 0.6700
1264.467675 0.6740 0.6750 0.6780 0.6810 0.6860
1268.909304 0.6910 0.6920 0.6960 0.6990 0.6990
1273.350933 0.7000 0.7030 0.7040 0.7040 0.7060
1277.792562 0.7060 0.7060 0.7070 0.7070 0.7070
1282.234191 0.7060 0.7040 0.7060 0.7030 0.7030
1286.675820 0.7020 0.7000 0.7000 0.6990 0.6960
1291.117449 0.6930 0.6920 0.6910 0.6850 0.6840
1295.559078 0.6810 0.6780 0.6770 0.6740 0.6710
1300.000707 0.6640 0.6600 0.6590 0.6530 0.6450
1304.442336 0.6440 0.6370 0.6300 0.6200 0.6170
1308.883966 0.6160 0.6140 0.6140 0.6130 0.6120
1313.325595 0.6100 0.6090 0.6090 0.6080 0.6080
1317.767224 0.6080 0.6050 0.6020 0.5602 0.5600
1322.208853 0.5950 0.5940 0.5880 0.5810 0.5740
1326.650482 0.5630 0.5550 0.5510 0.5400 0.5370
1331.092111 0.5360 0.5330 0.5310 0.5310 0.5310
1335.533740 0.5310 0.5300 0.5300 0.5290 0.5290
1339.975369 0.5260 0.5090 0.5010 0.4930 0.4830
1344.416998 0.4730 0.4570 0.4361 0.4260 0.4121
1348.858627 0.3970 0.3790 0.3470 0.3240 0.3150
1353.300257 0.2960 0.2790 0.2631 0.2491 0.2361
1357.741886 0.2210 0.2020 0.1810 0.1730 0.1670
1362.183515 0.1640 0.1630 0.1620 0.1620 0.1630
1366.625144 0.1630 0.1630 0.1570 0.1520 0.1420
1371.066773 0.1350 0.1081 0.1080 0.1558 0.1600
1375.508402 0.1620 0.1590 0.1530 0.1460 0.1350
1379.950031 0.1240 0.1190 0.1160 0.1200 0.1280
1384.391660 0.1390 0.1500 0.1670 0.1850 0.2000
1388.833289 0.2140 0.2220 0.2310 0.2380 0.2450
1393.274918 0.2500 0.2540 0.2600 0.2750 0.2830
1397.716548 0.2860 0.2920 0.2960 0.3030 0.3080
1402.158177 0.3110 0.3130 0.3140 0.3150 0.3150
1406.599806 0.3150 0.3130 0.3100 0.3070 0.3040
1411.041435 0.2960 0.2770 0.2670 0.2380 0.2250
1415.483064 0.2220 0.2210 0.2210 0.2200 0.2180
1419.924693 0.2110 0.2070 0.2040 0.2030 0.2040
1424.366322 0.2070 0.2100 0.2110 0.2100 0.2090
1428.807951 0.2060 0.2070 0.2140 0.2220 0.2310
1433.249580 0.2340 0.2380 0.2380 0.2380 0.2350
1437.691209 0.2340 0.2340 0.2360 0.2520 0.2570
1442.132839 0.2740 0.2880 0.3129 0.3389 0.3569
1446.574468 0.3820 0.3980 0.4070 0.4430 0.4789
1451.016097 0.4950 0.5060 0.5160 0.5270 0.5370
1455.457726 0.5480 0.5490 0.5520 0.5650 0.5800
1459.899355 0.6059 0.6060 0.5881 0.5900 0.6010
1464.340984 0.6050 0.6090 0.6100 0.6210 0.6280
1468.782613 0.6300 0.6300 0.6300 0.6310 0.6310
1473.224242 0.6310 0.6320 0.6370 0.6440 0.6440
1477.665871 0.6460 0.6600 0.6700 0.6780 0.6890
1482.107500 0.7000 0.7130 0.7240 0.7280 0.7400
1486.549130 0.7430 0.7470 0.7600 0.7710 0.7770
1490.990759 0.7950 0.8140 0.8170 0.8180 0.8190
1495.432388 0.8220 0.8250 0.8320 0.8420 0.8440
1499.874017 0.8530 0.8620 0.8670 0.8690 0.8710
1504.315646 0.8720 0.8730 0.8730 0.8750 0.8760
1508.757275 0.8860 0.8960 0.9000 0.9070 0.9110
1513.198904 0.9110 0.9120 0.9140 0.9140 0.9150
1517.640533 0.9160 0.9180 0.9180 0.9190 0.9190
1522.082162 0.9210 0.9210 0.9210 0.9210 0.9210
1526.523791 0.9210 0.9210 0.9210 0.9190 0.9190
1530.965421 0.9180 0.9180 0.9150 0.9140 0.9140
1535.407050 0.9120 0.9120 0.9110 0.9110 0.9090
1539.848679 0.9080 0.9080 0.9080 0.9070 0.9070
1544.290308 0.9070 0.9050 0.9050 0.9040 0.9040
1548.731937 0.9030 0.9030 0.9030 0.9030 0.9010
1553.173566 0.9010 0.9010 0.9000 0.9000 0.9000
1557.615195 0.9000 0.9000 0.9000 0.9000 0.9010
1562.056824 0.9010 0.9010 0.9010 0.9030 0.9030
1566.498453 0.9040 0.9040 0.9050 0.9050 0.9070
1570.940082 0.9070 0.9080 0.9080 0.9090 0.9090
1575.381712 0.9090 0.9110 0.9120 0.9120 0.9140
1579.823341 0.9150 0.9150 0.9160 0.9160 0.9180
1584.264970 0.9180 0.9190 0.9190 0.9210 0.9210
1588.706599 0.9220 0.9220 0.9220 0.9230 0.9230
1593.148228 0.9230 0.9230 0.9230 0.9230 0.9250
1597.589857 0.9250 0.9250 0.9250 0.9230 0.9220
1602.031486 0.9210 0.9210 0.9210 0.9190 0.9180
1606.473115 0.9180 0.9180 0.9160 0.9150 0.9140
1610.914744 0.9110 0.9090 0.9090 0.9070 0.9050
1615.356373 0.9010 0.8970 0.8910 0.8870 0.8820
1619.798003 0.8790 0.8720 0.8690 0.8690 0.8640
1624.239632 0.8440 0.8320 0.8240 0.8190 0.8130
1628.681261 0.7930 0.7701 0.7590 0.7241 0.7091
1633.122890 0.7060 0.7060 0.7000 0.6920 0.6750
1637.564519 0.6620 0.6530 0.6450 0.6420 0.6410
1642.006148 0.6410 0.6420 0.6420 0.6450 0.6550
1646.447777 0.6560 0.6590 0.6640 0.6660 0.6660
1650.889406 0.6570 0.6570 0.6680 0.6750 0.6740
1655.331035 0.6590 0.6490 0.6440 0.6340 0.6310
1659.772664 0.6300 0.6310 0.6490 0.6750 0.6840
1664.214294 0.7070 0.7140 0.7280 0.7400 0.7768
1668.655923 0.8030 0.8170 0.8390 0.8470 0.8540
1673.097552 0.8600 0.8690 0.8869 0.9010 0.9070
1677.539181 0.9090 0.9120 0.9190 0.9220 0.9260
1681.980810 0.9270 0.9300 0.9320 0.9330 0.9330
1686.422439 0.9340 0.9360 0.9360 0.9370 0.9370
1690.864068 0.9390 0.9400 0.9440 0.9450 0.9470
1695.305697 0.9470 0.9480 0.9480 0.9500 0.9510
1699.747326 0.9520 0.9520 0.9540 0.9550 0.9550
1704.188955 0.9570 0.9570 0.9570 0.9570 0.9570
1708.630585 0.9570 0.9580 0.9580 0.9580 0.9580
1713.072214 0.9580 0.9580 0.9580 0.9580 0.9580
1717.513843 0.9580 0.9580 0.9580 0.9580 0.9580
1721.955472 0.9580 0.9580 0.9580 0.9580 0.9580
1726.397101 0.9580 0.9580 0.9570 0.9570 0.9570
1730.838730 0.9570 0.9570 0.9570 0.9570 0.9570
1735.280359 0.9570 0.9580 0.9580 0.9580 0.9580
1739.721988 0.9580 0.9580 0.9580 0.9580 0.9580
1744.163617 0.9580 0.9570 0.9570 0.9570 0.9570
1748.605246 0.9570 0.9570 0.9550 0.9550 0.9550
1753.046876 0.9550 0.9550 0.9550 0.9550 0.9550
1757.488505 0.9550 0.9550 0.9550 0.9550 0.9540
1761.930134 0.9540 0.9540 0.9540 0.9540 0.9550
1766.371763 0.9550 0.9550 0.9550 0.9550 0.9550
1770.813392 0.9550 0.9570 0.9570 0.9570 0.9580
1775.255021 0.9580 0.9590 0.9590 0.9590 0.9610
1779.696650 0.9610 0.9620 0.9620 0.9630 0.9630
1784.138279 0.9650 0.9650 0.9650 0.9650 0.9650
1788.579908 0.9650 0.9660 0.9660 0.9660 0.9660
1793.021537 0.9660 0.9660 0.9660 0.9660 0.9660
1797.463167 0.9660 0.9680 0.9680 0.9680 0.9660
1801.904796 0.9660 0.9660 0.9650 0.9630 0.9630
1806.346425 0.9620 0.9610 0.9610 0.9590 0.9570
1810.788054 0.9550 0.9550 0.9540 0.9540 0.9520
1815.229683 0.9470 0.9400 0.9390 0.9360 0.9320
1819.671312 0.9260 0.9180 0.9140 0.9110 0.9090
1824.112941 0.9030 0.9000 0.8960 0.8910 0.8870
1828.554570 0.8820 0.8780 0.8720 0.8690 0.8670
1832.996199 0.8610 0.8540 0.8510 0.8490 0.8420
1837.437828 0.8370 0.8360 0.8330 0.8310 0.8250
1841.879458 0.8240 0.8220 0.8190 0.8170 0.8110
1846.321087 0.7920 0.7820 0.7770 0.7720 0.7650
1850.762716 0.7610 0.7600 0.7600 0.7600 0.7600
1855.204345 0.7600 0.7600 0.7610 0.7610 0.7630
1859.645974 0.7640 0.7650 0.7670 0.7680 0.7700
1864.087603 0.7700 0.7720 0.7740 0.7750 0.7770
1868.529232 0.7790 0.7850 0.7920 0.7970 0.8030
1872.970861 0.8040 0.8070 0.8140 0.8280 0.8320
1877.412490 0.8360 0.8430 0.8530 0.8550 0.8640
1881.854119 0.8730 0.8780 0.8800 0.8890 0.8970
1886.295749 0.9000 0.9040 0.9110 0.9150 0.9220
1890.737378 0.9230 0.9260 0.9270 0.9270 0.9320
1895.179007 0.9320 0.9330 0.9360 0.9360 0.9390
1899.620636 0.9400 0.9410 0.9430 0.9430 0.9440
1904.062265 0.9440 0.9440 0.9450 0.9470 0.9470
1908.503894 0.9480 0.9480 0.9480 0.9480 0.9480
1912.945523 0.9480 0.9480 0.9480 0.9480 0.9480
1917.387152 0.9480 0.9480 0.9480 0.9470 0.9450
1921.828781 0.9450 0.9450 0.9450 0.9450 0.9440
1926.270410 0.9430 0.9430 0.9430 0.9430 0.9430
1930.712040 0.9410 0.9410 0.9410 0.9400 0.9370
1935.153669 0.9360 0.9340 0.9340 0.9330 0.9330
1939.595298 0.9330 0.9320 0.9320 0.9320 0.9320
1944.036927 0.9320 0.9300 0.9270 0.9260 0.9220
1948.478556 0.9180 0.9150 0.9140 0.9140 0.9150
1952.920185 0.9150 0.9150 0.9140 0.9120 0.8860
1957.361814 0.8311 0.8310 0.8679 0.8999 0.9040
1961.803443 0.9070 0.9080 0.9080 0.9080 0.9080
1966.245072 0.9070 0.9080 0.9070 0.9070 0.9050
1970.686701 0.9030 0.9030 0.9010 0.9000 0.8980
1975.128331 0.8980 0.8980 0.8970 0.8970 0.8970
1979.569960 0.8960 0.8960 0.8960 0.8960 0.8940
1984.011589 0.8940 0.8940 0.8940 0.8960 0.8960
1988.453218 0.8970 0.8970 0.8970 0.8980 0.8980
1992.894847 0.8980 0.8980 0.8980 0.8980 0.9000
1997.336476 0.9000 0.9010 0.9030 0.9030 0.9030
2001.778105 0.9030 0.9030 0.9030 0.9035 0.9040
2006.219734 0.9040 0.9040 0.9055 0.9070 0.9075
2010.661363 0.9080 0.9085 0.9090 0.9100 0.9110
2015.102992 0.9115 0.9120 0.9120 0.9120 0.9130
2019.544622 0.9140 0.9145 0.9150 0.9150 0.9150
2023.986251 0.9145 0.9140 0.9125 0.9110 0.9071
2028.427880 0.9031 0.9030 0.9030 0.9069 0.9109
2032.869509 0.9110 0.9110 0.9110 0.9110 0.9076
2037.311138 0.9041 0.9006 0.8971 0.8951 0.8931
2041.752767 0.8911 0.8891 0.8861 0.8831 0.8830
2046.194396 0.8830 0.8811 0.8791 0.8757 0.8722
2050.636025 0.8715 0.8710 0.8710 0.8710 0.8715
2055.077654 0.8720 0.8720 0.8720 0.8720 0.8720
2059.519283 0.8720 0.8720 0.8720 0.8720 0.8720
2063.960913 0.8720 0.8720 0.8720 0.8720 0.8720
2068.402542 0.8725 0.8730 0.8772 0.8818 0.8853
2072.844171 0.8888 0.8909 0.8929 0.8963 0.8998
2077.285800 0.9019 0.9039 0.9077 0.9117 0.9134
2081.727429 0.9149 0.9155 0.9160 0.9174 0.9189
2086.169058 0.9190 0.9190 0.9199 0.9209 0.9215
2090.610687 0.9220 0.9225 0.9230 0.9230 0.9230
2095.052316 0.9239 0.9249 0.9250 0.9250 0.9255
2099.493945 0.9260 0.9265 0.9270 0.9270 0.9270
2103.935574 0.9279 0.9289 0.9290 0.9290 0.9295
2108.377204 0.9300 0.9300 0.9300 0.9300 0.9300
2112.818833 0.9300 0.9300 0.9295 0.9290 0.9290
2117.260462 0.9290 0.9290 0.9290 0.9290 0.9290
2121.702091 0.9294 0.9299 0.9300 0.9300 0.9300
2126.143720 0.9300 0.9309 0.9319 0.9320 0.9320
2130.585349 0.9320 0.9320 0.9324 0.9329 0.9330
2135.026978 0.9330 0.9330 0.9330 0.9330 0.9330
2139.468607 0.9334 0.9339 0.9349 0.9359 0.9365
2143.910236 0.9369 0.9370 0.9370 0.9379 0.9389
2148.351865 0.9390 0.9390 0.9381 0.9371 0.9370
2152.793495 0.9370 0.9370 0.9370 0.9370 0.9370
2157.235124 0.9370 0.9370 0.9366 0.9361 0.9360
2161.676753 0.9360 0.9360 0.9360 0.9360 0.9360
2166.118382 0.9360 0.9360 0.9364 0.9369 0.9366
2170.560011 0.9361 0.9351 0.9341 0.9340 0.9340
2175.001640 0.9340 0.9340 0.9340 0.9340 0.9340
2179.443269 0.9340 0.9349 0.9359 0.9360 0.9360
2183.884898 0.9360 0.9360 0.9360 0.9360 0.9347
2188.326527 0.9332 0.9330 0.9330 0.9330 0.9330
2192.768156 0.9330 0.9330 0.9330 0.9330 0.9330
2197.209786 0.9330 0.9334 0.9339 0.9336 0.9331
2201.651415 0.9326 0.9321 0.9320 0.9320 0.9320
