##TITLE=PROPARGYL ALCOHOL
##JCAMP-DX=4.24
##DATA TYPE=INFRARED SPECTRUM
##CLASS=COBLENTZ
##OWNER=COBLENTZ SOCIETY
Collection (C) 2018 copyright by the U.S. Secretary of Commerce
on behalf of the United States of America. All rights reserved.
##DATE=1960
##NAMES=2-propyn-1-ol
2-PROPYN-1-OL
##CAS REGISTRY NO=107-19-7
##MOLFORM=C3 H4 O
##SOURCE REFERENCE=COBLENTZ NO. 988
##$NIST SOURCE=COBLENTZ
##$NIST IMAGE=cob988
##SPECTROMETER/DATA SYSTEM=Not specified, most likely a prism, grating, or hybrid spectrometer.
##PATH LENGTH=FILM
##SAMPLING PROCEDURE=TRANSMISSION
##RESOLUTION=4
##DATA PROCESSING=DIGITIZED BY NIST FROM HARD COPY
##XUNITS=MICROMETERS
##YUNITS=TRANSMITTANCE
##XFACTOR=1.000000
##YFACTOR=1
##DELTAX=000.006636
##FIRSTX=2.133
##LASTX=16.0086
##FIRSTY=1.011
##MAXX=16.0086
##MINX=2.133
##MAXY=1.018
##MINY=0.026
##NPOINTS=2092
##XYDATA=(X++(Y..Y))
2.133000 1.0110 1.0090 1.0090 1.0090 1.0090
2.166196 1.0090 1.0110 1.0110 1.0130 1.0140
2.199000 1.0140 1.0140 1.0160 1.0160 1.0160
2.232196 1.0140 1.0140 1.0140 1.0160 1.0160
2.265000 1.0160 1.0160 1.0160 1.0180 1.0180
2.298196 1.0180 1.0160 1.0160 1.0160 1.0160
2.332000 1.0160 1.0110 1.0060 1.0060 1.0030
2.365196 1.0030 1.0010 1.0010 1.0010 1.0000
2.398000 1.0000 1.0000 1.0000 1.0000 1.0060
2.431196 1.0060 1.0040 1.0040 1.0030 1.0010
2.465000 0.9980 0.9960 0.9980 0.9980 1.0040
2.498196 1.0040 1.0040 1.0040 1.0040 1.0030
2.531000 1.0010 1.0000 0.9980 0.9950 0.9860
2.564196 0.9830 0.9800 0.9700 0.9610 0.9600
2.597000 0.9600 0.9600 0.9610 0.9610 0.9650
2.630196 0.9680 0.9730 0.9780 0.9800 0.9800
2.664000 0.9810 0.9860 0.9910 0.9930 0.9950
2.697196 0.9960 0.9980 1.0000 1.0010 1.0010
2.730000 1.0010 1.0010 1.0010 1.0000 1.0000
2.763196 0.9980 0.9900 0.9780 0.9610 0.9450
2.796000 0.9120 0.8650 0.8110 0.7510 0.6880
2.829196 0.6240 0.5620 0.5060 0.4550 0.4380
2.863000 0.4050 0.3900 0.3750 0.3640 0.3470
2.896196 0.3270 0.3070 0.2930 0.2740 0.2560
2.929000 0.2360 0.2200 0.2010 0.1920 0.1830
2.962196 0.1670 0.1570 0.1420 0.1290 0.1140
2.995000 0.1040 0.0970 0.0910 0.0840 0.0810
3.028196 0.0770 0.0740 0.0710 0.0690 0.0660
3.062000 0.0660 0.0640 0.0640 0.0620 0.0590
3.095196 0.0570 0.0520 0.0490 0.0440 0.0430
3.128000 0.0410 0.0380 0.0360 0.0380 0.0390
3.161196 0.0480 0.0620 0.0860 0.0940 0.1390
3.194000 0.1580 0.1800 0.2030 0.2250 0.2500
3.227196 0.2730 0.2980 0.3240 0.3490 0.3740
3.261000 0.3990 0.4250 0.4480 0.4730 0.4960
3.294196 0.5180 0.5390 0.5590 0.5720 0.5860
3.327000 0.5990 0.6150 0.6290 0.6440 0.6550
3.360196 0.6630 0.6680 0.6850 0.6930 0.7000
3.394000 0.7030 0.7110 0.7250 0.7300 0.7330
3.427196 0.7350 0.7330 0.7100 0.6900 0.6250
3.460000 0.5610 0.4980 0.4450 0.4270 0.4250
3.493196 0.4280 0.4600 0.5000 0.5030 0.5030
3.526000 0.4600 0.4580 0.4600 0.4880 0.5090
3.559196 0.5380 0.5860 0.6200 0.6520 0.6650
3.593000 0.6800 0.6970 0.7150 0.7330 0.7500
3.626196 0.7630 0.7690 0.7780 0.7880 0.7990
3.659000 0.8020 0.8090 0.8120 0.8140 0.8170
3.692196 0.8240 0.8290 0.8290 0.8340 0.8360
3.725000 0.8370 0.8410 0.8440 0.8460 0.8470
3.758196 0.8490 0.8500 0.8520 0.8540 0.8570
3.792000 0.8590 0.8590 0.8600 0.8600 0.8600
3.825196 0.8600 0.8600 0.8600 0.8600 0.8600
3.858000 0.8600 0.8620 0.8600 0.8600 0.8620
3.891196 0.8690 0.8790 0.8900 0.9020 0.9070
3.924000 0.9180 0.9270 0.9330 0.9380 0.9400
3.957196 0.9400 0.9400 0.9420 0.9430 0.9450
3.991000 0.9470 0.9480 0.9500 0.9530 0.9580
4.024196 0.9630 0.9660 0.9700 0.9710 0.9750
4.057000 0.9800 0.9810 0.9810 0.9830 0.9850
4.090196 0.9850 0.9860 0.9860 0.9880 0.9860
4.124000 0.9880 0.9880 0.9830 0.9780 0.9730
4.157196 0.9700 0.9630 0.9580 0.9560 0.9550
4.190000 0.9530 0.9530 0.9510 0.9510 0.9510
4.223196 0.9510 0.9510 0.9510 0.9530 0.9560
4.256000 0.9600 0.9630 0.9650 0.9700 0.9710
4.289196 0.9750 0.9810 0.9830 0.9850 0.9860
4.323000 0.9880 0.9900 0.9910 0.9950 0.9980
4.356196 0.9980 1.0000 1.0000 1.0000 1.0030
4.389000 1.0040 1.0060 1.0080 1.0090 1.0110
4.422196 1.0160 1.0180 1.0180 1.0180 1.0180
4.455000 1.0180 1.0180 1.0160 1.0140 1.0130
4.488196 1.0110 1.0090 1.0090 1.0090 1.0090
4.522000 1.0090 1.0060 1.0060 1.0060 1.0060
4.555196 1.0040 1.0040 1.0040 1.0030 1.0030
4.588000 1.0030 1.0010 1.0030 1.0030 1.0040
4.621196 1.0040 1.0040 1.0060 1.0080 1.0080
4.654000 1.0080 1.0080 1.0090 1.0090 1.0080
4.687196 1.0080 1.0030 1.0000 0.9960 0.9830
4.721000 0.9630 0.9250 0.8740 0.7360 0.7260
4.754196 0.7260 0.7480 0.8590 0.9070 0.9420
4.787000 0.9470 0.9600 0.9800 0.9810 0.9810
4.820196 0.9810 0.9810 0.9810 0.9810 0.9800
4.853000 0.9800 0.9800 0.9780 0.9730 0.9680
4.886196 0.9580 0.9530 0.9510 0.9510 0.9500
4.920000 0.9500 0.9510 0.9510 0.9530 0.9610
4.953196 0.9650 0.9700 0.9730 0.9760 0.9780
4.986000 0.9780 0.9800 0.9810 0.9860 0.9930
5.019196 1.0000 1.0040 1.0080 1.0080 1.0090
5.053000 1.0090 1.0080 1.0080 1.0060 1.0060
5.086196 1.0040 1.0040 1.0030 1.0030 1.0010
5.119000 1.0000 0.9980 0.9960 0.9980 0.9980
5.152196 0.9960 0.9950 0.9950 0.9930 0.9930
5.185000 0.9930 0.9930 0.9930 0.9950 0.9950
5.218196 0.9980 1.0030 1.0040 1.0080 1.0090
5.252000 1.0110 1.0110 1.0110 1.0080 1.0080
5.285196 1.0090 1.0110 1.0110 1.0110 1.0110
5.318000 1.0090 1.0040 1.0010 0.9980 0.9930
5.351196 0.9910 0.9900 0.9900 0.9930 0.9980
5.384000 1.0000 1.0000 1.0030 1.0060 1.0110
5.417196 1.0110 1.0160 1.0180 1.0180 1.0140
5.451000 1.0130 1.0110 1.0080 1.0080 1.0090
5.484196 1.0090 1.0080 1.0080 1.0060 1.0040
5.517000 1.0040 1.0040 1.0040 1.0060 1.0060
5.550196 1.0060 1.0060 1.0060 1.0060 1.0060
5.583000 1.0060 1.0060 1.0060 1.0040 1.0040
5.616196 1.0030 1.0010 1.0000 0.9910 0.9900
5.650000 0.9910 0.9950 1.0010 1.0010 1.0010
5.683196 1.0000 0.9980 0.9960 0.9950 0.9930
5.716000 0.9930 0.9930 0.9930 0.9960 0.9960
5.749196 0.9980 0.9980 0.9980 0.9980 0.9980
5.783000 0.9960 0.9960 0.9950 0.9950 0.9930
5.816196 0.9910 0.9900 0.9880 0.9880 0.9900
5.849000 0.9900 0.9910 0.9910 0.9900 0.9900
5.882196 0.9900 0.9900 0.9900 0.9900 0.9900
5.915000 0.9910 0.9910 0.9900 0.9850 0.9800
5.948196 0.9780 0.9800 0.9800 0.9800 0.9800
5.982000 0.9800 0.9800 0.9760 0.9730 0.9730
6.015196 0.9700 0.9680 0.9630 0.9610 0.9600
6.048000 0.9600 0.9610 0.9650 0.9650 0.9630
6.081196 0.9560 0.9510 0.9450 0.9430 0.9430
6.114000 0.9420 0.9420 0.9400 0.9380 0.9400
6.147196 0.9400 0.9380 0.9380 0.9380 0.9370
6.181000 0.9370 0.9370 0.9350 0.9350 0.9350
6.214196 0.9330 0.9350 0.9350 0.9350 0.9350
6.247000 0.9350 0.9330 0.9320 0.9300 0.9270
6.280196 0.9230 0.9220 0.9220 0.9220 0.9220
6.313000 0.9220 0.9220 0.9200 0.9200 0.9180
6.346196 0.9180 0.9170 0.9170 0.9150 0.9130
6.380000 0.9130 0.9120 0.9120 0.9120 0.9170
6.413196 0.9170 0.9150 0.9100 0.9080 0.9050
6.446000 0.9000 0.9000 0.9000 0.9000 0.9000
6.479196 0.9100 0.9100 0.9080 0.9000 0.8970
6.513000 0.8920 0.8890 0.8850 0.8800 0.8820
6.546196 0.8800 0.8800 0.8800 0.8790 0.8770
6.579000 0.8740 0.8690 0.8640 0.8590 0.8540
6.612196 0.8540 0.8490 0.8460 0.8410 0.8390
6.645000 0.8320 0.8210 0.8090 0.8020 0.8020
6.678196 0.7990 0.7780 0.7690 0.7680 0.7630
6.712000 0.7530 0.7400 0.7260 0.7100 0.6950
6.745196 0.6820 0.6680 0.6600 0.6530 0.6490
6.778000 0.6350 0.6120 0.5870 0.5690 0.5560
6.811196 0.5430 0.5310 0.5180 0.5030 0.4950
6.844000 0.4860 0.4710 0.4560 0.4350 0.4050
6.877196 0.3870 0.3820 0.3820 0.3870 0.3900
6.911000 0.3950 0.4000 0.4020 0.4050 0.4070
6.944196 0.4070 0.4070 0.4070 0.4030 0.3990
6.977000 0.3970 0.3940 0.3900 0.3870 0.3850
7.010196 0.3820 0.3820 0.3800 0.3790 0.3790
7.043000 0.3790 0.3790 0.3750 0.3750 0.3740
7.076196 0.3740 0.3740 0.3740 0.3770 0.3840
7.110000 0.3850 0.3870 0.3900 0.3920 0.3920
7.143196 0.3940 0.3970 0.3990 0.4020 0.4050
7.176000 0.4070 0.4070 0.4080 0.4100 0.4120
7.209196 0.4130 0.4130 0.4150 0.4200 0.4270
7.242000 0.4320 0.4350 0.4370 0.4380 0.4400
7.275196 0.4420 0.4430 0.4430 0.4430 0.4380
7.309000 0.4280 0.4230 0.4200 0.4150 0.4120
7.342196 0.4080 0.4070 0.4080 0.4100 0.4130
7.375000 0.4180 0.4280 0.4420 0.4510 0.4700
7.408196 0.4800 0.4860 0.4930 0.4980 0.5010
7.442000 0.5080 0.5130 0.5190 0.5230 0.5260
7.475196 0.5280 0.5290 0.5310 0.5310 0.5310
7.508000 0.5290 0.5290 0.5290 0.5290 0.5290
7.541196 0.5290 0.5290 0.5290 0.5280 0.5280
7.574000 0.5280 0.5280 0.5280 0.5290 0.5290
7.607196 0.5280 0.5280 0.5240 0.5210 0.5210
7.641000 0.5210 0.5190 0.5190 0.5180 0.5140
7.674196 0.5130 0.5130 0.5130 0.5130 0.5130
7.707000 0.5140 0.5140 0.5160 0.5180 0.5180
7.740196 0.5180 0.5210 0.5260 0.5310 0.5340
7.773000 0.5380 0.5410 0.5460 0.5490 0.5560
7.806196 0.5620 0.5640 0.5670 0.5710 0.5740
7.840000 0.5790 0.5860 0.5910 0.5960 0.5990
7.873196 0.6000 0.6040 0.6040 0.6050 0.6050
7.906000 0.6090 0.6120 0.6150 0.6170 0.6190
7.939196 0.6200 0.6220 0.6250 0.6270 0.6290
7.972000 0.6290 0.6290 0.6270 0.6200 0.6190
8.005196 0.6140 0.6100 0.6020 0.5940 0.5790
8.039000 0.5670 0.5590 0.5480 0.5380 0.5280
8.072196 0.5210 0.5130 0.5080 0.5030 0.5010
8.105000 0.4980 0.4960 0.4950 0.4930 0.4930
8.138196 0.4930 0.5000 0.5040 0.5130 0.5230
8.172000 0.5340 0.5460 0.5590 0.5710 0.5870
8.205196 0.5960 0.6020 0.6070 0.6140 0.6220
8.238000 0.6290 0.6340 0.6400 0.6470 0.6530
8.271196 0.6620 0.6700 0.6800 0.6920 0.7010
8.304000 0.7110 0.7160 0.7260 0.7410 0.7460
8.337196 0.7500 0.7500 0.7510 0.7560 0.7630
8.371000 0.7690 0.7760 0.7790 0.7840 0.7890
8.404196 0.7940 0.7980 0.8040 0.8090 0.8110
8.437000 0.8110 0.8120 0.8140 0.8160 0.8160
8.470196 0.8170 0.8190 0.8220 0.8240 0.8270
8.503000 0.8290 0.8310 0.8340 0.8340 0.8360
8.536196 0.8370 0.8390 0.8410 0.8420 0.8470
8.570000 0.8490 0.8500 0.8520 0.8520 0.8540
8.603196 0.8540 0.8550 0.8550 0.8550 0.8570
8.636000 0.8590 0.8590 0.8590 0.8590 0.8600
8.669196 0.8600 0.8600 0.8600 0.8600 0.8620
8.702000 0.8620 0.8600 0.8600 0.8620 0.8620
8.735196 0.8620 0.8620 0.8620 0.8620 0.8600
8.769000 0.8600 0.8590 0.8550 0.8550 0.8520
8.802196 0.8500 0.8470 0.8460 0.8410 0.8390
8.835000 0.8390 0.8390 0.8390 0.8370 0.8360
8.868196 0.8360 0.8320 0.8310 0.8290 0.8270
8.901000 0.8240 0.8210 0.8170 0.8110 0.8060
8.934196 0.8020 0.7990 0.7980 0.7930 0.7910
8.968000 0.7880 0.7860 0.7840 0.7830 0.7810
9.001196 0.7810 0.7790 0.7790 0.7790 0.7790
9.034000 0.7780 0.7780 0.7780 0.7760 0.7740
9.067196 0.7760 0.7810 0.7890 0.7910 0.7910
9.101000 0.7930 0.7930 0.7930 0.7930 0.7930
9.134196 0.7930 0.7910 0.7910 0.7910 0.7890
9.167000 0.7890 0.7840 0.7830 0.7790 0.7790
9.200196 0.7760 0.7760 0.7740 0.7730 0.7690
9.233000 0.7680 0.7640 0.7630 0.7610 0.7580
9.266196 0.7510 0.7460 0.7430 0.7380 0.7350
9.300000 0.7300 0.7230 0.7160 0.7110 0.7010
9.333196 0.6950 0.6830 0.6720 0.6630 0.6550
9.366000 0.6450 0.6370 0.6290 0.6150 0.5960
9.399196 0.5620 0.5510 0.5330 0.5130 0.4900
9.432000 0.4650 0.4380 0.4130 0.3820 0.3490
9.465196 0.3140 0.2840 0.2590 0.2300 0.2010
9.499000 0.1770 0.1520 0.1300 0.1090 0.0940
9.532196 0.0840 0.0710 0.0660 0.0560 0.0520
9.565000 0.0460 0.0410 0.0390 0.0380 0.0330
9.598196 0.0310 0.0310 0.0290 0.0290 0.0290
9.631000 0.0290 0.0290 0.0290 0.0290 0.0290
9.664196 0.0280 0.0280 0.0260 0.0260 0.0260
9.698000 0.0260 0.0260 0.0260 0.0260 0.0260
9.731196 0.0260 0.0260 0.0260 0.0280 0.0310
9.764000 0.0330 0.0330 0.0330 0.0340 0.0380
9.797196 0.0460 0.0540 0.0610 0.0640 0.0670
9.831000 0.0720 0.0790 0.0920 0.1100 0.1300
9.864196 0.1500 0.1680 0.1880 0.2100 0.2280
9.897000 0.2480 0.2660 0.2840 0.3020 0.3190
9.930196 0.3320 0.3490 0.3650 0.3800 0.3970
9.963000 0.4120 0.4250 0.4400 0.4510 0.4650
9.996196 0.4750 0.4850 0.4950 0.5010 0.5080
10.030000 0.5130 0.5140 0.5140 0.5130 0.5130
10.063196 0.5130 0.5110 0.5060 0.5010 0.4950
10.096000 0.4880 0.4810 0.4710 0.4630 0.4550
10.129196 0.4480 0.4430 0.4350 0.4320 0.4300
10.162000 0.4280 0.4280 0.4280 0.4280 0.4280
10.195196 0.4300 0.4330 0.4380 0.4450 0.4530
10.229000 0.4580 0.4660 0.4750 0.4810 0.4880
10.262196 0.5000 0.5090 0.5230 0.5360 0.5410
10.295000 0.5480 0.5590 0.5670 0.5770 0.5860
10.328196 0.5960 0.6020 0.6140 0.6220 0.6320
10.361000 0.6390 0.6490 0.6530 0.6550 0.6580
10.394196 0.6630 0.6700 0.6830 0.6880 0.6920
10.428000 0.6970 0.7050 0.7110 0.7150 0.7180
10.461196 0.7260 0.7300 0.7310 0.7330 0.7360
10.494000 0.7380 0.7410 0.7450 0.7450 0.7460
10.527196 0.7460 0.7480 0.7480 0.7500 0.7510
10.560000 0.7510 0.7510 0.7530 0.7530 0.7530
10.593196 0.7530 0.7530 0.7530 0.7530 0.7530
10.627000 0.7510 0.7510 0.7480 0.7460 0.7460
10.660196 0.7450 0.7430 0.7380 0.7330 0.7280
10.693000 0.7230 0.7200 0.7130 0.7060 0.6980
10.726196 0.6900 0.6800 0.6700 0.6600 0.6470
10.760000 0.6340 0.6170 0.6000 0.5810 0.5610
10.793196 0.5360 0.5090 0.4850 0.4560 0.4330
10.826000 0.4070 0.3870 0.3640 0.3390 0.3140
10.859196 0.2910 0.2740 0.2580 0.2460 0.2380
10.892000 0.2310 0.2300 0.2300 0.2300 0.2310
10.925196 0.2450 0.2590 0.2760 0.2930 0.3120
10.959000 0.3320 0.3540 0.3750 0.4000 0.4230
10.992196 0.4500 0.4760 0.5030 0.5310 0.5570
11.025000 0.5770 0.5940 0.6120 0.6270 0.6400
11.058196 0.6570 0.6700 0.6850 0.6980 0.7060
11.091000 0.7150 0.7260 0.7350 0.7430 0.7480
11.124196 0.7540 0.7640 0.7710 0.7790 0.7830
11.158000 0.7840 0.7860 0.7880 0.7910 0.7940
11.191196 0.8010 0.8060 0.8110 0.8170 0.8210
11.224000 0.8220 0.8220 0.8220 0.8240 0.8260
11.257196 0.8270 0.8290 0.8320 0.8360 0.8390
11.290000 0.8420 0.8460 0.8490 0.8490 0.8520
11.323196 0.8540 0.8550 0.8570 0.8570 0.8570
11.357000 0.8590 0.8600 0.8600 0.8600 0.8600
11.390196 0.8620 0.8600 0.8620 0.8620 0.8620
11.423000 0.8620 0.8620 0.8620 0.8620 0.8640
11.456196 0.8640 0.8640 0.8640 0.8640 0.8640
11.490000 0.8640 0.8620 0.8620 0.8620 0.8600
11.523196 0.8590 0.8590 0.8590 0.8590 0.8600
11.556000 0.8600 0.8600 0.8600 0.8620 0.8620
11.589196 0.8620 0.8640 0.8640 0.8640 0.8640
11.622000 0.8670 0.8670 0.8700 0.8700 0.8690
11.655196 0.8650 0.8620 0.8600 0.8600 0.8590
11.689000 0.8590 0.8570 0.8570 0.8570 0.8550
11.722196 0.8550 0.8540 0.8540 0.8540 0.8520
11.755000 0.8520 0.8520 0.8500 0.8500 0.8490
11.788196 0.8490 0.8470 0.8470 0.8460 0.8440
11.821000 0.8440 0.8420 0.8410 0.8420 0.8410
11.854196 0.8410 0.8410 0.8410 0.8410 0.8390
11.888000 0.8390 0.8370 0.8370 0.8370 0.8360
11.921196 0.8360 0.8340 0.8320 0.8310 0.8290
11.954000 0.8290 0.8290 0.8270 0.8270 0.8260
11.987196 0.8260 0.8260 0.8260 0.8260 0.8240
12.020000 0.8240 0.8220 0.8220 0.8220 0.8220
12.053196 0.8210 0.8210 0.8190 0.8190 0.8170
12.087000 0.8160 0.8160 0.8160 0.8160 0.8140
12.120196 0.8140 0.8110 0.8110 0.8110 0.8090
12.153000 0.8090 0.8070 0.8040 0.8040 0.8020
12.186196 0.8020 0.8010 0.7990 0.8010 0.7990
12.219000 0.7980 0.7980 0.7960 0.7940 0.7940
12.252196 0.7930 0.7910 0.7910 0.7890 0.7890
12.286000 0.7880 0.7840 0.7830 0.7810 0.7810
12.319196 0.7790 0.7780 0.7780 0.7760 0.7760
12.352000 0.7760 0.7760 0.7740 0.7730 0.7730
12.385196 0.7730 0.7730 0.7730 0.7710 0.7660
12.419000 0.7660 0.7630 0.7630 0.7630 0.7630
12.452196 0.7610 0.7610 0.7590 0.7540 0.7530
12.485000 0.7510 0.7500 0.7500 0.7480 0.7460
12.518196 0.7450 0.7400 0.7380 0.7360 0.7360
12.551000 0.7360 0.7350 0.7350 0.7330 0.7330
12.584196 0.7330 0.7310 0.7300 0.7280 0.7280
12.618000 0.7260 0.7250 0.7230 0.7230 0.7230
12.651196 0.7210 0.7180 0.7160 0.7150 0.7130
12.684000 0.7110 0.7080 0.7080 0.7050 0.7050
12.717196 0.7050 0.7030 0.7010 0.7010 0.7000
12.750000 0.7000 0.6980 0.6980 0.6950 0.6930
12.783196 0.6900 0.6880 0.6870 0.6850 0.6830
12.817000 0.6820 0.6800 0.6780 0.6770 0.6750
12.850196 0.6730 0.6720 0.6700 0.6700 0.6680
12.883000 0.6670 0.6650 0.6630 0.6620 0.6600
12.916196 0.6600 0.6600 0.6580 0.6570 0.6550
12.949000 0.6530 0.6520 0.6500 0.6500 0.6490
12.982196 0.6490 0.6470 0.6470 0.6450 0.6450
13.016000 0.6440 0.6440 0.6390 0.6350 0.6340
13.049196 0.6300 0.6300 0.6290 0.6290 0.6290
13.082000 0.6270 0.6270 0.6250 0.6250 0.6220
13.115196 0.6200 0.6190 0.6150 0.6150 0.6140
13.149000 0.6140 0.6120 0.6100 0.6040 0.6020
13.182196 0.6000 0.5990 0.5970 0.5940 0.5910
13.215000 0.5890 0.5890 0.5870 0.5870 0.5870
13.248196 0.5860 0.5860 0.5810 0.5790 0.5770
13.281000 0.5770 0.5770 0.5760 0.5740 0.5710
13.314196 0.5660 0.5640 0.5620 0.5610 0.5610
13.348000 0.5610 0.5590 0.5560 0.5520 0.5490
13.381196 0.5490 0.5480 0.5440 0.5410 0.5380
13.414000 0.5340 0.5340 0.5330 0.5310 0.5290
13.447196 0.5290 0.5280 0.5230 0.5210 0.5210
13.480000 0.5180 0.5140 0.5090 0.5090 0.5080
13.513196 0.5060 0.5030 0.5010 0.5000 0.4980
13.547000 0.4950 0.4930 0.4930 0.4930 0.4930
13.580196 0.4910 0.4900 0.4880 0.4850 0.4810
13.613000 0.4750 0.4710 0.4700 0.4650 0.4630
13.646196 0.4600 0.4580 0.4560 0.4550 0.4530
13.679000 0.4530 0.4510 0.4510 0.4500 0.4500
13.712196 0.4470 0.4450 0.4430 0.4400 0.4350
13.746000 0.4320 0.4280 0.4270 0.4230 0.4200
13.779196 0.4180 0.4180 0.4170 0.4130 0.4120
13.812000 0.4080 0.4050 0.4020 0.4020 0.3990
13.845196 0.3990 0.3940 0.3920 0.3890 0.3840
13.879000 0.3820 0.3800 0.3790 0.3770 0.3720
13.912196 0.3690 0.3650 0.3640 0.3620 0.3600
13.945000 0.3600 0.3570 0.3520 0.3470 0.3440
13.978196 0.3420 0.3420 0.3420 0.3410 0.3390
14.011000 0.3370 0.3320 0.3290 0.3290 0.3240
14.044196 0.3210 0.3170 0.3140 0.3110 0.3070
14.078000 0.3060 0.3040 0.3020 0.3010 0.3010
14.111196 0.2990 0.2940 0.2930 0.2910 0.2880
14.144000 0.2830 0.2790 0.2710 0.2690 0.2680
14.177196 0.2660 0.2640 0.2610 0.2610 0.2590
14.210000 0.2530 0.2560 0.2540 0.2530 0.2510
14.243196 0.2500 0.2500 0.2450 0.2430 0.2410
14.277000 0.2400 0.2400 0.2330 0.2310 0.2310
14.310196 0.2300 0.2280 0.2260 0.2250 0.2230
14.343000 0.2210 0.2110 0.2110 0.2100 0.2100
14.376196 0.2100 0.2080 0.2030 0.2010 0.2010
14.409000 0.1980 0.1970 0.1930 0.1930 0.1930
14.442196 0.1930 0.1930 0.1930 0.1930 0.1920
14.476000 0.1920 0.1920 0.1900 0.1880 0.1870
14.509196 0.1830 0.1800 0.1800 0.1780 0.1770
14.542000 0.1730 0.1720 0.1700 0.1670 0.1650
14.575196 0.1650 0.1650 0.1650 0.1650 0.1650
14.608000 0.1630 0.1630 0.1620 0.1620 0.1620
14.641196 0.1600 0.1600 0.1600 0.1600 0.1600
14.675000 0.1600 0.1600 0.1600 0.1600 0.1580
14.708196 0.1580 0.1580 0.1570 0.1570 0.1570
14.741000 0.1550 0.1550 0.1530 0.1530 0.1520
14.774196 0.1520 0.1530 0.1530 0.1520 0.1530
14.808000 0.1530 0.1530 0.1530 0.1530 0.1530
14.841196 0.1530 0.1530 0.1520 0.1520 0.1530
14.874000 0.1530 0.1530 0.1530 0.1550 0.1580
14.907196 0.1670 0.1730 0.1800 0.1830 0.1850
14.940000 0.1920 0.1930 0.2000 0.2000 0.2010
14.973196 0.2030 0.2030 0.2010 0.1930 0.1870
15.007000 0.1770 0.1730 0.1700 0.1670 0.1630
15.040196 0.1600 0.1600 0.1600 0.1600 0.1600
15.073000 0.1600 0.1600 0.1600 0.1600 0.1600
15.106196 0.1600 0.1600 0.1600 0.1620 0.1630
15.139000 0.1650 0.1670 0.1680 0.1680 0.1720
15.172196 0.1730 0.1750 0.1750 0.1770 0.1780
15.206000 0.1800 0.1820 0.1820 0.1830 0.1830
15.239196 0.1850 0.1850 0.1880 0.1900 0.1900
15.272000 0.1920 0.1920 0.1920 0.1930 0.1950
15.305196 0.1970 0.1980 0.1980 0.2000 0.2010
15.338000 0.2010 0.2050 0.2050 0.2060 0.2080
15.371196 0.2080 0.2100 0.2130 0.2150 0.2150
15.405000 0.2150 0.2150 0.2150 0.2150 0.2160
15.438196 0.2180 0.2210 0.2230 0.2250 0.2260
15.471000 0.2260 0.2260 0.2300 0.2330 0.2330
15.504196 0.2350 0.2350 0.2360 0.2380 0.2400
15.538000 0.2400 0.2410 0.2410 0.2430 0.2450
15.571196 0.2460 0.2480 0.2480 0.2480 0.2510
15.604000 0.2510 0.2530 0.2540 0.2560 0.2590
15.637196 0.2630 0.2660 0.2690 0.2730 0.2740
15.670000 0.2760 0.2790 0.2840 0.2880 0.2910
15.703196 0.2930 0.2940 0.2940 0.2980 0.2990
15.737000 0.3020 0.3040 0.3110 0.3110 0.3160
15.770196 0.3170 0.3220 0.3220 0.3290 0.3320
15.803000 0.3340 0.3370 0.3440 0.3490 0.3500
15.836196 0.3540 0.3590 0.3620 0.3640 0.3650
15.869000 0.3670 0.3700 0.3740 0.3770 0.3790
15.902196 0.3820 0.3850 0.3890 0.3900 0.3990
15.936000 0.3990 0.4000 0.4020 0.4030 0.4100
15.969196 0.4130 0.4180 0.4200 0.4230 0.4250
16.002000 0.4270 0.4280
##END=
