##TITLE=1-BUTYNE
##JCAMP-DX=4.24
##DATA TYPE=INFRARED SPECTRUM
##CLASS=COBLENTZ III
##ORIGIN=DOW CHEMICAL COMPANY
##OWNER=COBLENTZ SOCIETY
Collection (C) 2018 copyright by the U.S. Secretary of Commerce
on behalf of the United States of America. All rights reserved.
##DATE=1959/04/16
##CAS REGISTRY NO=107-00-6
##MOLFORM=C4 H6
##SOURCE REFERENCE=COBLENTZ NO. 10135
##$NIST SOURCE=COBLENTZ
##$NIST IMAGE=cob10135
##SPECTROMETER/DATA SYSTEM=DOW KBr FOREPRISM-GRATING
##INSTRUMENT PARAMETERS=BLAZED AT 3.5, 12.0, 20.0 MICRON, CHANGED AT 5.0, 7.5, 14.9 MICRON
##STATE=GAS IN SOLUTION (CCl4 FOR 3800-1330, CS2 FOR 1330-450 CM^-^1)
##PATH LENGTH=0.011, 0.012 CM
$$SPECTRAL CONTAMINATION DUE TO CCl4 AROUND 1550, AND CS2 AROUND 855 CM^-^1
##SAMPLING PROCEDURE=TRANSMISSION
##RESOLUTION=4
##DATA PROCESSING=DIGITIZED BY NIST FROM HARD COPY (FROM TWO SEGMENTS)
##XUNITS=1/CM
##YUNITS=TRANSMITTANCE
##XFACTOR=1.000000
##YFACTOR=1
##DELTAX=0.869565
##FIRSTX=452.174
##LASTX=3789.57
##FIRSTY=0.867
##MAXX=3789.57
##MINX=452.174
##MAXY=1.014
##MINY=0.023
##NPOINTS=3839
##XYDATA=(X++(Y..Y))
452.174000 0.8670 0.8670 0.8670 0.8670 0.8670
456.521826 0.8670 0.8670 0.8670 0.8670 0.8700
460.869652 0.8700 0.8690 0.8690 0.8700 0.8700
465.217478 0.8700 0.8700 0.8700 0.8700 0.8700
469.565303 0.8690 0.8690 0.8690 0.8690 0.8690
473.913129 0.8690 0.8690 0.8690 0.8690 0.8690
478.260955 0.8690 0.8690 0.8700 0.8690 0.8690
482.608781 0.8690 0.8690 0.8690 0.8690 0.8690
486.956607 0.8690 0.8670 0.8670 0.8660 0.8660
491.304433 0.8650 0.8650 0.8650 0.8630 0.8620
495.652258 0.8620 0.8610 0.8590 0.8580 0.8560
500.000084 0.8550 0.8500 0.8480 0.8440 0.8360
504.347910 0.8330 0.8280 0.8200 0.8140 0.8100
508.695736 0.8100 0.8090 0.8090 0.8100 0.8180
513.043562 0.8290 0.8320 0.8390 0.8500 0.8520
517.391388 0.8590 0.8670 0.8690 0.8710 0.8760
521.739213 0.8800 0.8840 0.8850 0.8890 0.8910
526.087039 0.8910 0.8920 0.8920 0.8930 0.8950
530.434865 0.8950 0.8960 0.8970 0.9000 0.9040
534.782691 0.9050 0.9070 0.9070 0.9100 0.9110
539.130517 0.9120 0.9120 0.9140 0.9150 0.9150
543.478343 0.9160 0.9180 0.9190 0.9200 0.9220
547.826169 0.9230 0.9250 0.9250 0.9260 0.9270
552.173994 0.9270 0.9270 0.9270 0.9270 0.9290
556.521820 0.9290 0.9300 0.9300 0.9300 0.9300
560.869646 0.9300 0.9290 0.9290 0.9300 0.9300
565.217472 0.9310 0.9310 0.9310 0.9310 0.9310
569.565298 0.9310 0.9310 0.9310 0.9310 0.9290
573.913124 0.9290 0.9290 0.9290 0.9290 0.9290
578.260949 0.9270 0.9270 0.9290 0.9290 0.9260
582.608775 0.9250 0.9230 0.9230 0.9200 0.9190
586.956601 0.9150 0.9110 0.9110 0.9110 0.9110
591.304427 0.9110 0.9110 0.9110 0.9080 0.9050
595.652253 0.9030 0.9030 0.9030 0.9010 0.8990
600.000079 0.8960 0.8920 0.8890 0.8860 0.8850
604.347904 0.8820 0.8740 0.8700 0.8690 0.8561
608.695730 0.8480 0.8400 0.8290 0.8170 0.8030
613.043556 0.7950 0.7801 0.7651 0.7491 0.7381
617.391382 0.7240 0.7000 0.6860 0.6530 0.6171
621.739208 0.5791 0.5361 0.4902 0.4452 0.3883
626.087034 0.3260 0.2610 0.1861 0.1580 0.1141
630.434860 0.1110 0.1140 0.1329 0.1400 0.1728
634.782685 0.2050 0.2470 0.2869 0.3289 0.3759
639.130511 0.4009 0.4777 0.5138 0.5657 0.5740
643.478337 0.6110 0.6520 0.6820 0.7040 0.7110
647.826163 0.7260 0.7380 0.7430 0.7579 0.7839
652.173989 0.7900 0.8060 0.8220 0.8260 0.8310
656.521815 0.8330 0.8430 0.8500 0.8520 0.8540
660.869640 0.8630 0.8670 0.8710 0.8730 0.8740
665.217466 0.8770 0.8929 0.9000 0.9010 0.9030
669.565292 0.9030 0.9030 0.9030 0.9030 0.9050
673.913118 0.9050 0.9110 0.9120 0.9140 0.9160
678.260944 0.9180 0.9180 0.9190 0.9200 0.9230
682.608770 0.9260 0.9270 0.9290 0.9300 0.9300
686.956596 0.9300 0.9300 0.9300 0.9300 0.9300
691.304421 0.9310 0.9310 0.9310 0.9310 0.9310
695.652247 0.9310 0.9310 0.9310 0.9310 0.9310
700.000073 0.9310 0.9290 0.9290 0.9290 0.9290
704.347899 0.9290 0.9290 0.9300 0.9310 0.9310
708.695725 0.9330 0.9330 0.9340 0.9340 0.9340
713.043551 0.9350 0.9370 0.9370 0.9340 0.9340
717.391376 0.9340 0.9340 0.9340 0.9350 0.9350
721.739202 0.9370 0.9380 0.9370 0.9370 0.9370
726.087028 0.9350 0.9340 0.9340 0.9340 0.9340
730.434854 0.9340 0.9340 0.9340 0.9340 0.9340
734.782680 0.9340 0.9340 0.9340 0.9350 0.9370
739.130506 0.9400 0.9420 0.9440 0.9450 0.9460
743.478331 0.9460 0.9460 0.9460 0.9480 0.9480
747.826157 0.9490 0.9490 0.9490 0.9490 0.9490
752.173983 0.9490 0.9490 0.9490 0.9500 0.9530
756.521809 0.9530 0.9550 0.9550 0.9550 0.9550
760.869635 0.9550 0.9530 0.9500 0.9480 0.9480
765.217461 0.9460 0.9460 0.9460 0.9460 0.9460
769.565287 0.9460 0.9460 0.9450 0.9440 0.9410
773.913112 0.9400 0.9380 0.9350 0.9330 0.9310
778.260938 0.9310 0.9300 0.9290 0.9250 0.9230
782.608764 0.9230 0.9250 0.9250 0.9270 0.9310
786.956590 0.9330 0.9340 0.9340 0.9350 0.9350
791.304416 0.9370 0.9380 0.9380 0.9400 0.9400
795.652242 0.9400 0.9400 0.9400 0.9380 0.9380
800.000067 0.9380 0.9380 0.9400 0.9420 0.9420
804.347893 0.9440 0.9450 0.9460 0.9450 0.9450
808.695719 0.9440 0.9420 0.9420 0.9440 0.9450
813.043545 0.9450 0.9450 0.9450 0.9450 0.9460
817.391371 0.9460 0.9460 0.9450 0.9450 0.9440
821.739197 0.9440 0.9440 0.9440 0.9440 0.9440
826.087022 0.9420 0.9410 0.9400 0.9380 0.9380
830.434848 0.9370 0.9340 0.9330 0.9310 0.9290
834.782674 0.9250 0.9220 0.9180 0.9110 0.9050
839.130500 0.9050 0.9040 0.9000 0.8910 0.8801
843.478326 0.8740 0.8620 0.8540 0.8440 0.8400
847.826152 0.8310 0.8141 0.8050 0.7950 0.7831
852.173978 0.7680 0.7650 0.7620 0.7600 0.7600
856.521803 0.7600 0.7610 0.7610 0.7640 0.7650
860.869629 0.7690 0.7720 0.7750 0.7830 0.7880
865.217455 0.7940 0.7940 0.7980 0.8020 0.8100
869.565281 0.8170 0.8200 0.8250 0.8290 0.8310
873.913107 0.8320 0.8350 0.8390 0.8460 0.8500
878.260933 0.8500 0.8510 0.8540 0.8560 0.8650
882.608758 0.8730 0.8800 0.8820 0.8850 0.8920
886.956584 0.8970 0.8990 0.9070 0.9110 0.9140
891.304410 0.9160 0.9230 0.9260 0.9290 0.9310
895.652236 0.9310 0.9330 0.9340 0.9350 0.9400
900.000062 0.9420 0.9440 0.9440 0.9440 0.9440
904.347888 0.9440 0.9460 0.9480 0.9490 0.9490
908.695713 0.9500 0.9520 0.9530 0.9530 0.9550
913.043539 0.9560 0.9560 0.9560 0.9590 0.9590
917.391365 0.9570 0.9570 0.9570 0.9570 0.9560
921.739191 0.9570 0.9590 0.9600 0.9600 0.9600
926.087017 0.9600 0.9600 0.9600 0.9610 0.9610
930.434843 0.9610 0.9600 0.9600 0.9610 0.9610
934.782669 0.9610 0.9610 0.9630 0.9630 0.9640
939.130494 0.9640 0.9640 0.9640 0.9640 0.9640
943.478320 0.9640 0.9640 0.9640 0.9640 0.9640
947.826146 0.9640 0.9640 0.9640 0.9650 0.9650
952.173972 0.9650 0.9650 0.9650 0.9650 0.9670
956.521798 0.9680 0.9680 0.9680 0.9670 0.9650
960.869624 0.9670 0.9670 0.9650 0.9640 0.9640
965.217449 0.9640 0.9640 0.9640 0.9640 0.9640
969.565275 0.9630 0.9630 0.9630 0.9610 0.9610
973.913101 0.9600 0.9600 0.9600 0.9600 0.9600
978.260927 0.9600 0.9600 0.9610 0.9610 0.9630
982.608753 0.9630 0.9610 0.9600 0.9600 0.9600
986.956579 0.9600 0.9600 0.9590 0.9570 0.9570
991.304404 0.9560 0.9560 0.9560 0.9550 0.9550
995.652230 0.9530 0.9530 0.9530 0.9520 0.9520
1000.000056 0.9520 0.9520 0.9500 0.9500 0.9500
1004.347882 0.9500 0.9500 0.9500 0.9500 0.9500
1008.695708 0.9500 0.9500 0.9520 0.9520 0.9500
1013.043534 0.9500 0.9490 0.9480 0.9480 0.9460
1017.391360 0.9460 0.9460 0.9460 0.9460 0.9460
1021.739185 0.9460 0.9460 0.9450 0.9440 0.9440
1026.087011 0.9440 0.9440 0.9440 0.9440 0.9440
1030.434837 0.9440 0.9440 0.9440 0.9440 0.9440
1034.782663 0.9420 0.9410 0.9400 0.9370 0.9350
1039.130489 0.9350 0.9340 0.9340 0.9340 0.9340
1043.478315 0.9330 0.9330 0.9330 0.9330 0.9330
1047.826140 0.9310 0.9310 0.9310 0.9300 0.9270
1052.173966 0.9260 0.9250 0.9250 0.9250 0.9230
1056.521792 0.9220 0.9190 0.9150 0.9140 0.9100
1060.869618 0.9050 0.9040 0.9010 0.8950 0.8920
1065.217444 0.8890 0.8850 0.8760 0.8591 0.8550
1069.565270 0.8550 0.8580 0.8610 0.8630 0.8650
1073.913096 0.8710 0.8740 0.8770 0.8800 0.8810
1078.260921 0.8840 0.8850 0.8890 0.8890 0.8910
1082.608747 0.8910 0.8920 0.8930 0.8960 0.8970
1086.956573 0.9000 0.9040 0.9070 0.9100 0.9150
1091.304399 0.9180 0.9190 0.9220 0.9220 0.9230
1095.652225 0.9230 0.9230 0.9250 0.9250 0.9250
1100.000051 0.9250 0.9270 0.9270 0.9260 0.9250
1104.347876 0.9250 0.9250 0.9250 0.9250 0.9250
1108.695702 0.9260 0.9260 0.9250 0.9220 0.9190
1113.043528 0.9190 0.9190 0.9190 0.9180 0.9160
1117.391354 0.9150 0.9140 0.9120 0.9110 0.9110
1121.739180 0.9110 0.9110 0.9110 0.9120 0.9120
1126.087006 0.9140 0.9160 0.9190 0.9190 0.9190
1130.434831 0.9190 0.9190 0.9190 0.9190 0.9200
1134.782657 0.9200 0.9200 0.9200 0.9200 0.9190
1139.130483 0.9190 0.9180 0.9180 0.9160 0.9160
1143.478309 0.9160 0.9180 0.9190 0.9220 0.9230
1147.826135 0.9230 0.9230 0.9250 0.9260 0.9290
1152.173961 0.9310 0.9310 0.9330 0.9330 0.9330
1156.521787 0.9340 0.9340 0.9340 0.9340 0.9340
1160.869612 0.9340 0.9330 0.9330 0.9330 0.9330
1165.217438 0.9310 0.9310 0.9300 0.9300 0.9300
1169.565264 0.9290 0.9300 0.9300 0.9290 0.9290
1173.913090 0.9290 0.9290 0.9290 0.9270 0.9270
1178.260916 0.9260 0.9250 0.9250 0.9230 0.9230
1182.608742 0.9230 0.9250 0.9250 0.9270 0.9300
1186.956567 0.9310 0.9340 0.9370 0.9370 0.9370
1191.304393 0.9370 0.9370 0.9370 0.9350 0.9340
1195.652219 0.9340 0.9340 0.9370 0.9380 0.9410
1200.000045 0.9410 0.9420 0.9420 0.9420 0.9420
1204.347871 0.9420 0.9420 0.9420 0.9420 0.9420
1208.695697 0.9420 0.9410 0.9400 0.9370 0.9340
1213.043522 0.9340 0.9330 0.9330 0.9330 0.9330
1217.391348 0.9330 0.9330 0.9310 0.9300 0.9290
1221.739174 0.9270 0.9270 0.9260 0.9230 0.9220
1226.087000 0.9190 0.9140 0.9110 0.9070 0.9070
1230.434826 0.8990 0.8970 0.8920 0.8910 0.8801
1234.782652 0.8700 0.8690 0.8630 0.8580 0.8510
1239.130478 0.8480 0.8430 0.8360 0.8221 0.8140
1243.478303 0.8100 0.8100 0.8090 0.8090 0.8100
1247.826129 0.8100 0.8100 0.8130 0.8140 0.8160
1252.173955 0.8220 0.8280 0.8290 0.8330 0.8370
1256.521781 0.8410 0.8440 0.8460 0.8480 0.8510
1260.869607 0.8590 0.8620 0.8620 0.8630 0.8690
1265.217433 0.8730 0.8740 0.8770 0.8780 0.8800
1269.565258 0.8810 0.8810 0.8820 0.8840 0.8860
1273.913084 0.8880 0.8880 0.8880 0.8910 0.8920
1278.260910 0.8970 0.8990 0.8990 0.8990 0.8990
1282.608736 0.8990 0.8970 0.8970 0.8970 0.8990
1286.956562 0.9010 0.9010 0.9010 0.9010 0.9010
1291.304388 0.9030 0.9030 0.9030 0.9010 0.9010
1295.652213 0.9010 0.9010 0.9030 0.9070 0.9080
1300.000039 0.9080 0.9110 0.9110 0.9100 0.9100
1304.347865 0.9100 0.9070 0.9050 0.9040 0.9030
1308.695691 0.9010 0.9010 0.9000 0.8970 0.8930
1313.043517 0.8910 0.8850 0.8780 0.8700 0.8610
1317.391343 0.8440 0.8111 0.7751 0.7750 0.7939
1321.739169 0.8260 0.8390 0.8540 0.8840 0.8990
1326.086994 0.9050 0.9070 0.9080 0.9100 0.9150
1330.434820 0.9180 0.9200 0.9290 0.9330 0.9370
1334.782646 0.9380 0.9410 0.9420 0.9450 0.9480
1339.130472 0.9500 0.9530 0.9520 0.9530 0.9550
1343.478298 0.9560 0.9560 0.9560 0.9550 0.9550
1347.826124 0.9530 0.9530 0.9520 0.9480 0.9450
1352.173949 0.9450 0.9460 0.9480 0.9530 0.9570
1356.521775 0.9590 0.9590 0.9570 0.9570 0.9600
1360.869601 0.9630 0.9680 0.9700 0.9700 0.9650
1365.217427 0.9640 0.9600 0.9570 0.9560 0.9530
1369.565253 0.9460 0.9330 0.9300 0.9250 0.9200
1373.913079 0.9160 0.9120 0.9010 0.8920 0.8780
1378.260904 0.8630 0.8480 0.8460 0.8470 0.8500
1382.608730 0.8560 0.8660 0.8800 0.9119 0.9230
1386.956556 0.9250 0.9250 0.9290 0.9300 0.9310
1391.304382 0.9300 0.9300 0.9290 0.9300 0.9340
1395.652208 0.9400 0.9410 0.9440 0.9460 0.9480
1400.000034 0.9490 0.9490 0.9480 0.9460 0.9440
1404.347860 0.9440 0.9420 0.9410 0.9380 0.9350
1408.695685 0.9310 0.9310 0.9300 0.9290 0.9220
1413.043511 0.9160 0.9110 0.9100 0.9100 0.9030
1417.391337 0.9000 0.8970 0.8930 0.8920 0.8890
1421.739163 0.8810 0.8730 0.8690 0.8630 0.8610
1426.086989 0.8520 0.8480 0.8350 0.8290 0.8260
1430.434815 0.8140 0.8030 0.7940 0.7910 0.7820
1434.782640 0.7680 0.7560 0.7460 0.7380 0.7240
1439.130466 0.7200 0.7130 0.7130 0.7239 0.7310
1443.478292 0.7370 0.7390 0.7410 0.7380 0.7350
1447.826118 0.7340 0.7310 0.7220 0.7091 0.7000
1452.173944 0.6890 0.6750 0.6590 0.6430 0.6370
1456.521770 0.6370 0.6410 0.6559 0.6630 0.6670
1460.869596 0.6670 0.6630 0.6320 0.6130 0.5831
1465.217421 0.5680 0.5680 0.6427 0.6818 0.6919
1469.565247 0.7070 0.7390 0.7570 0.7730 0.7830
1473.913073 0.8129 0.8319 0.8370 0.8410 0.8440
1478.260899 0.8520 0.8550 0.8580 0.8590 0.8610
1482.608725 0.8620 0.8620 0.8620 0.8610 0.8590
1486.956551 0.8590 0.8590 0.8590 0.8590 0.8580
1491.304376 0.8560 0.8550 0.8520 0.8480 0.8430
1495.652202 0.8430 0.8410 0.8390 0.8330 0.8320
1500.000028 0.8310 0.8240 0.8170 0.8100 0.8060
1504.347854 0.7980 0.7940 0.7920 0.7910 0.7830
1508.695680 0.7730 0.7670 0.7610 0.7560 0.7500
1513.043506 0.7450 0.7390 0.7310 0.7270 0.7220
1517.391331 0.7070 0.6980 0.6970 0.6900 0.6830
1521.739157 0.6730 0.6530 0.6440 0.6440 0.6490
1526.086983 0.6530 0.6620 0.6660 0.6660 0.6630
1530.434809 0.6600 0.6580 0.6510 0.6450 0.6320
1534.782635 0.6280 0.6150 0.6070 0.5980 0.5851
1539.130461 0.5830 0.5690 0.5580 0.5460 0.5380
1543.478287 0.5340 0.5270 0.5210 0.5100 0.5050
1547.826112 0.5040 0.5020 0.5010 0.5010 0.5000
1552.173938 0.4980 0.4980 0.4980 0.5000 0.5080
1556.521764 0.5100 0.5120 0.5240 0.5539 0.5700
1560.869590 0.5720 0.5720 0.5720 0.5730 0.5770
1565.217416 0.5870 0.6040 0.6150 0.6180 0.6280
1569.565242 0.6430 0.6580 0.6620 0.6630 0.6630
1573.913067 0.6670 0.6730 0.6770 0.6890 0.6920
1578.260893 0.6880 0.6880 0.6890 0.6900 0.6920
1582.608719 0.6920 0.6940 0.6960 0.6980 0.7010
1586.956545 0.7050 0.7090 0.7160 0.7240 0.7270
1591.304371 0.7370 0.7450 0.7470 0.7540 0.7600
1595.652197 0.7720 0.7840 0.7910 0.7950 0.8099
1600.000022 0.8160 0.8290 0.8400 0.8470 0.8520
1604.347848 0.8690 0.8710 0.8770 0.8889 0.8950
1608.695674 0.8990 0.9070 0.9110 0.9150 0.9230
1613.043500 0.9230 0.9250 0.9310 0.9380 0.9479
1617.391326 0.9490 0.9490 0.9490 0.9520 0.9560
1621.739152 0.9650 0.9670 0.9700 0.9710 0.9720
1626.086978 0.9720 0.9720 0.9740 0.9750 0.9760
1630.434803 0.9780 0.9780 0.9820 0.9860 0.9890
1634.782629 0.9910 0.9980 0.9980 0.9930 0.9930
1639.130455 0.9930 0.9940 0.9970 1.0000 1.0000
1643.478281 1.0000 1.0000 1.0140 1.0140 1.0060
1647.826107 1.0040 1.0010 1.0020 1.0050 1.0060
1652.173933 1.0080 1.0060 1.0040 1.0010 0.9980
1656.521758 0.9970 0.9900 0.9890 0.9870 0.9900
1660.869584 0.9910 0.9910 0.9900 0.9870 0.9860
1665.217410 0.9830 0.9830 0.9850 0.9860 0.9890
1669.565236 0.9890 0.9860 0.9850 0.9830 0.9830
1673.913062 0.9830 0.9800 0.9780 0.9760 0.9760
1678.260888 0.9780 0.9800 0.9830 0.9860 0.9860
1682.608713 0.9860 0.9830 0.9820 0.9780 0.9760
1686.956539 0.9800 0.9800 0.9800 0.9820 0.9820
1691.304365 0.9760 0.9740 0.9760 0.9780 0.9790
1695.652191 0.9790 0.9800 0.9790 0.9790 0.9780
1700.000017 0.9780 0.9760 0.9750 0.9760 0.9760
1704.347843 0.9750 0.9750 0.9710 0.9680 0.9680
1708.695669 0.9680 0.9720 0.9710 0.9680 0.9650
1713.043494 0.9640 0.9650 0.9700 0.9700 0.9680
1717.391320 0.9670 0.9650 0.9610 0.9560 0.9560
1721.739146 0.9560 0.9610 0.9610 0.9550 0.9490
1726.086972 0.9490 0.9550 0.9550 0.9560 0.9560
1730.434798 0.9570 0.9560 0.9560 0.9560 0.9550
1734.782624 0.9530 0.9490 0.9480 0.9550 0.9560
1739.130449 0.9570 0.9500 0.9500 0.9530 0.9560
1743.478275 0.9560 0.9560 0.9560 0.9560 0.9600
1747.826101 0.9650 0.9650 0.9670 0.9710 0.9700
1752.173927 0.9640 0.9610 0.9630 0.9670 0.9760
1756.521753 0.9780 0.9780 0.9780 0.9780 0.9780
1760.869579 0.9820 0.9820 0.9760 0.9760 0.9800
1765.217404 0.9820 0.9800 0.9780 0.9760 0.9740
1769.565230 0.9740 0.9890 0.9890 0.9870 0.9830
1773.913056 0.9820 0.9800 0.9790 0.9780 0.9760
1778.260882 0.9760 0.9760 0.9830 0.9820 0.9820
1782.608708 0.9820 0.9820 0.9830 0.9800 0.9800
1786.956534 0.9800 0.9800 0.9830 0.9830 0.9820
1791.304360 0.9820 0.9820 0.9820 0.9820 0.9820
1795.652185 0.9820 0.9820 0.9820 0.9800 0.9800
1800.000011 0.9820 0.9800 0.9790 0.9780 0.9780
1804.347837 0.9780 0.9780 0.9820 0.9800 0.9800
1808.695663 0.9800 0.9780 0.9760 0.9760 0.9760
1813.043489 0.9780 0.9790 0.9800 0.9800 0.9800
1817.391315 0.9790 0.9790 0.9790 0.9780 0.9760
1821.739140 0.9760 0.9750 0.9750 0.9760 0.9760
1826.086966 0.9740 0.9740 0.9780 0.9790 0.9800
1830.434792 0.9800 0.9780 0.9780 0.9760 0.9750
1834.782618 0.9750 0.9750 0.9780 0.9780 0.9740
1839.130444 0.9720 0.9720 0.9710 0.9720 0.9819
1843.478270 0.9850 0.9820 0.9750 0.9740 0.9740
1847.826096 0.9740 0.9780 0.9780 0.9760 0.9760
1852.173921 0.9760 0.9760 0.9750 0.9750 0.9680
1856.521747 0.9680 0.9720 0.9720 0.9720 0.9700
1860.869573 0.9680 0.9750 0.9750 0.9740 0.9710
1865.217399 0.9700 0.9700 0.9740 0.9750 0.9780
1869.565225 0.9780 0.9760 0.9760 0.9760 0.9750
1873.913051 0.9740 0.9740 0.9750 0.9800 0.9760
1878.260876 0.9760 0.9760 0.9760 0.9790 0.9800
1882.608702 0.9790 0.9790 0.9780 0.9760 0.9760
1886.956528 0.9780 0.9790 0.9790 0.9790 0.9780
1891.304354 0.9780 0.9780 0.9790 0.9790 0.9780
1895.652180 0.9780 0.9780 0.9780 0.9780 0.9790
1900.000006 0.9800 0.9820 0.9850 0.9850 0.9830
1904.347831 0.9800 0.9780 0.9800 0.9820 0.9820
1908.695657 0.9830 0.9850 0.9850 0.9800 0.9800
1913.043483 0.9830 0.9820 0.9820 0.9820 0.9820
1917.391309 0.9850 0.9850 0.9860 0.9820 0.9870
1921.739135 0.9910 0.9890 0.9850 0.9830 0.9830
1926.086961 0.9820 0.9820 0.9820 0.9820 0.9830
1930.434787 0.9850 0.9830 0.9830 0.9830 0.9830
1934.782612 0.9850 0.9860 0.9870 0.9870 0.9850
1939.130438 0.9850 0.9850 0.9830 0.9850 0.9850
1943.478264 0.9850 0.9850 0.9830 0.9820 0.9780
1947.826090 0.9780 0.9800 0.9910 0.9930 0.9870
1952.173916 0.9850 0.9830 0.9820 0.9820 0.9800
1956.521742 0.9800 0.9780 0.9820 0.9870 0.9970
1960.869567 1.0050 0.9930 0.9900 0.9860 0.9800
1965.217393 0.9800 0.9780 0.9800 0.9830 0.9830
1969.565219 0.9830 0.9820 0.9820 0.9820 0.9800
1973.913045 0.9790 0.9780 0.9780 0.9780 0.9820
1978.260871 0.9830 0.9830 0.9790 0.9760 0.9760
1982.608697 0.9790 0.9800 0.9820 0.9800 0.9790
1986.956522 0.9790 0.9790 0.9790 0.9830 0.9830
1991.304348 0.9800 0.9790 0.9790 0.9790 0.9790
1995.652174 0.9800 0.9800 0.9720 0.9720 0.9720
2000.000000 0.9710 0.9710 0.9710 0.9710 0.9710
2004.347826 0.9710 0.9710 0.9710 0.9710 0.9710
2008.695652 0.9710 0.9715 0.9720 0.9730 0.9740
2013.043478 0.9745 0.9750 0.9750 0.9750 0.9750
2017.391303 0.9750 0.9750 0.9750 0.9730 0.9710
2021.739129 0.9710 0.9710 0.9725 0.9740 0.9765
2026.086955 0.9790 0.9805 0.9820 0.9820 0.9820
2030.434781 0.9790 0.9760 0.9760 0.9760 0.9740
2034.782607 0.9720 0.9720 0.9720 0.9740 0.9760
2039.130433 0.9760 0.9760 0.9750 0.9740 0.9740
2043.478258 0.9740 0.9745 0.9750 0.9750 0.9750
2047.826084 0.9750 0.9750 0.9750 0.9750 0.9750
2052.173910 0.9750 0.9750 0.9750 0.9750 0.9750
2056.521736 0.9755 0.9760 0.9760 0.9760 0.9770
2060.869562 0.9780 0.9780 0.9780 0.9780 0.9780
2065.217388 0.9780 0.9780 0.9780 0.9780 0.9785
2069.565213 0.9790 0.9790 0.9790 0.9785 0.9780
2073.913039 0.9780 0.9780 0.9780 0.9780 0.9780
2078.260865 0.9780 0.9770 0.9760 0.9755 0.9750
2082.608691 0.9745 0.9740 0.9730 0.9720 0.9715
2086.956517 0.9710 0.9705 0.9700 0.9700 0.9700
2091.304343 0.9690 0.9680 0.9675 0.9670 0.9660
2095.652169 0.9650 0.9645 0.9640 0.9625 0.9610
2099.999994 0.9600 0.9590 0.9575 0.9560 0.9540
2104.347820 0.9520 0.9490 0.9460 0.9420 0.9380
2108.695646 0.9340 0.9300 0.9221 0.9141 0.9076
2113.043472 0.9011 0.8951 0.8891 0.8776 0.8662
2117.391298 0.8552 0.8442 0.8293 0.8143 0.7937
2121.739124 0.7730 0.7555 0.7380 0.7380 0.7380
2126.086949 0.7733 0.8088 0.8463 0.8837 0.9073
2130.434775 0.9308 0.9374 0.9439 0.9494 0.9549
2134.782601 0.9575 0.9600 0.9605 0.9610 0.9625
2139.130427 0.9640 0.9640 0.9640 0.9635 0.9630
2143.478253 0.9630 0.9630 0.9620 0.9610 0.9610
2147.826079 0.9610 0.9610 0.9610 0.9610 0.9610
2152.173904 0.9600 0.9590 0.9570 0.9550 0.9500
2156.521730 0.9450 0.9410 0.9370 0.9350 0.9330
2160.869556 0.9330 0.9330 0.9395 0.9459 0.9549
2165.217382 0.9639 0.9655 0.9670 0.9685 0.9700
2169.565208 0.9705 0.9710 0.9725 0.9740 0.9745
2173.913034 0.9750 0.9750 0.9750 0.9750 0.9750
2178.260860 0.9750 0.9750 0.9755 0.9760 0.9770
2182.608685 0.9780 0.9780 0.9780 0.9780 0.9780
2186.956511 0.9780 0.9780 0.9780 0.9780 0.9785
2191.304337 0.9790 0.9795 0.9800 0.9795 0.9790
2195.652163 0.9790 0.9790 0.9785 0.9780 0.9780
2199.999989 0.9780 0.9770 0.9760 0.9760 0.9760
2204.347815 0.9760 0.9760 0.9760 0.9760 0.9760
2208.695640 0.9760 0.9760 0.9760 0.9750 0.9740
