##TITLE=PROPENAL
##JCAMP-DX=4.24
##DATA TYPE=INFRARED SPECTRUM
##CLASS=COBLENTZ
##ORIGIN=DOW CHEMICAL COMPANY
##OWNER=COBLENTZ SOCIETY
Collection (C) 2018 copyright by the U.S. Secretary of Commerce
on behalf of the United States of America. All rights reserved.
##DATE=1964
##NAMES=ACROLEIN
##CAS REGISTRY NO=107-02-8
##MOLFORM=C3 H4 O
##SOURCE REFERENCE=COBLENTZ NO. 8769
##$NIST SOURCE=COBLENTZ
##$NIST IMAGE=cob-r8769
##SPECTROMETER/DATA SYSTEM=DOW KBr FOREPRISM-GRATING
##INSTRUMENT PARAMETERS=GRATING CHANGED AT 5.0, 7.5, 15.0 MICRON
##STATE=GAS (100 mmHg, N2 ADDED, TOTAL PRESSURE 600 mmHg)
##PATH LENGTH=5 CM
##SAMPLING PROCEDURE=TRANSMISSION
##RESOLUTION=2
##DATA PROCESSING=DIGITIZED BY NIST FROM HARD COPY (FROM TWO SEGMENTS)
##XUNITS=1/CM
##YUNITS=TRANSMITTANCE
##XFACTOR=1.000000
##YFACTOR=1
##DELTAX=1.319261
##FIRSTX=379.947
##LASTX=3763.85
##FIRSTY=1.006
##MAXX=3763.85
##MINX=379.947
##MAXY=1.055
##MINY=0.01
##NPOINTS=2566
##XYDATA=(X++(Y..Y))
379.947000 1.0060 1.0120 1.0140 1.0320 1.0060
386.543307 1.0120 1.0140 1.0140 1.0140 1.0140
393.139615 1.0140 1.0140 1.0160 1.0160 1.0160
399.735922 1.0140 1.0140 1.0140 1.0140 1.0120
406.332229 1.0120 1.0120 1.0100 1.0120 1.0120
412.928537 1.0120 1.0120 1.0120 1.0140 1.0120
419.524844 1.0120 1.0100 1.0080 1.0080 1.0080
426.121152 1.0080 1.0060 1.0060 1.0060 1.0060
432.717459 1.0060 1.0060 1.0060 1.0060 1.0060
439.313766 1.0060 1.0040 1.0040 1.0040 1.0040
445.910074 1.0040 1.0040 1.0040 1.0040 1.0040
452.506381 1.0020 1.0020 1.0020 1.0020 1.0020
459.102688 1.0020 1.0020 1.0040 1.0040 1.0040
465.698996 1.0040 1.0040 1.0040 1.0040 1.0040
472.295303 1.0040 1.0040 1.0040 1.0040 1.0040
478.891611 1.0020 1.0020 1.0020 1.0020 1.0020
485.487918 1.0020 1.0020 0.9950 0.9950 0.9950
492.084225 0.9950 0.9930 0.9930 0.9930 0.9890
498.680533 0.9890 0.9850 0.9850 0.9830 0.9790
505.276840 0.9770 0.9750 0.9690 0.9670 0.9650
511.873147 0.9600 0.9580 0.9540 0.9540 0.9520
518.469455 0.9480 0.9460 0.9440 0.9380 0.9340
525.065762 0.9320 0.9320 0.9300 0.9240 0.9210
531.662070 0.9150 0.9110 0.9070 0.9010 0.8990
538.258377 0.8850 0.8580 0.8430 0.8350 0.8310
544.854684 0.8170 0.7980 0.7960 0.7430 0.6960
551.450992 0.6940 0.6960 0.6960 0.6980 0.7000
558.047299 0.7020 0.7100 0.7350 0.7350 0.7120
564.643606 0.6870 0.7000 0.7120 0.6500 0.6380
571.239914 0.6340 0.6340 0.6380 0.6440 0.6480
577.836221 0.6550 0.6630 0.6750 0.6750 0.6810
584.432529 0.6810 0.6610 0.6420 0.6400 0.6630
591.028836 0.6630 0.5210 0.5990 0.6520 0.7060
597.625143 0.7470 0.7530 0.7550 0.7550 0.7570
604.221451 0.7590 0.7610 0.7630 0.7700 0.7760
610.817758 0.7800 0.7960 0.7980 0.8020 0.8170
617.414065 0.8230 0.8330 0.8390 0.8540 0.8620
624.010373 0.8700 0.8740 0.8760 0.8870 0.8950
630.606680 0.9030 0.9210 0.9260 0.9340 0.9380
637.202988 0.9420 0.9500 0.9580 0.9670 0.9790
643.799295 0.9810 0.9830 0.9930 0.9950 0.9970
650.395602 1.0000 1.0020 1.0060 1.0100 1.0120
656.991910 1.0140 1.0140 1.0140 1.0160 1.0240
663.588217 1.0260 1.0280 1.0280 1.0300 1.0340
670.184524 1.0340 1.0340 1.0360 1.0410 1.0410
676.780832 1.0430 1.0450 1.0450 1.0450 1.0430
683.377139 1.0430 1.0410 1.0410 1.0410 1.0410
689.973447 1.0430 1.0430 1.0450 1.0450 1.0450
696.569754 1.0450 1.0430 1.0410 1.0410 1.0430
703.166061 1.0430 1.0410 1.0390 1.0360 1.0360
709.762369 1.0300 1.0260 1.0240 1.0240 1.0220
716.358676 1.0200 1.0160 1.0160 1.0060 1.0040
722.954983 1.0040 1.0040 1.0040 1.0040 1.0040
729.551291 1.0040 0.9950 0.9950 0.9950 0.9970
736.147598 0.9970 0.9970 1.0000 1.0000 1.0020
742.743906 1.0020 1.0040 1.0040 1.0060 1.0060
749.340213 1.0100 1.0120 1.0160 1.0180 1.0220
755.936520 1.0260 1.0260 1.0280 1.0320 1.0340
762.532828 1.0410 1.0430 1.0430 1.0450 1.0450
769.129135 1.0470 1.0490 1.0490 1.0490 1.0510
775.725442 1.0530 1.0530 1.0550 1.0530 1.0530
782.321750 1.0530 1.0530 1.0530 1.0510 1.0510
788.918057 1.0490 1.0490 1.0470 1.0470 1.0450
795.514365 1.0450 1.0450 1.0450 1.0430 1.0430
802.110672 1.0430 1.0430 1.0430 1.0410 1.0410
808.706979 1.0390 1.0320 1.0300 1.0300 1.0300
815.303287 1.0300 1.0300 1.0280 1.0280 1.0260
821.899594 1.0240 1.0220 1.0220 1.0200 1.0200
828.495901 1.0180 1.0180 1.0180 1.0180 1.0160
835.092209 1.0160 1.0120 1.0080 1.0060 1.0040
841.688516 1.0040 1.0040 1.0020 0.9970 0.9950
848.284824 0.9950 0.9970 1.0000 1.0000 1.0000
854.881131 1.0000 0.9970 0.9970 0.9970 0.9930
861.477438 0.9930 0.9910 0.9910 0.9890 0.9890
868.073746 0.9870 0.9850 0.9810 0.9810 0.9790
874.670053 0.9750 0.9670 0.9630 0.9560 0.9420
881.266360 0.9280 0.9150 0.8950 0.8760 0.8560
887.862668 0.8310 0.7610 0.6690 0.6320 0.5790
894.458975 0.5250 0.4800 0.3900 0.3470 0.3010
901.055283 0.2810 0.2710 0.2680 0.2710 0.2770
907.651590 0.2870 0.3750 0.3080 0.2680 0.2270
914.247897 0.1900 0.1490 0.1120 0.1120 0.1250
920.844205 0.1310 0.1430 0.1470 0.1640 0.1740
927.440512 0.1970 0.2130 0.2680 0.2110 0.2110
934.036819 0.2360 0.2990 0.3320 0.2460 0.3340
940.633127 0.3100 0.2540 0.3140 0.2600 0.3030
947.229434 0.2990 0.2770 0.2500 0.2320 0.2090
953.825742 0.1860 0.1640 0.0530 0.1060 0.1580
960.422049 0.2360 0.2540 0.2660 0.2600 0.2480
967.018356 0.2440 0.2420 0.2420 0.2460 0.2500
973.614664 0.2500 0.2540 0.2560 0.2600 0.2660
980.210971 0.2660 0.2600 0.2540 0.2500 0.2480
986.807278 0.2420 0.2420 0.2500 0.2500 0.1390
993.403586 0.2110 0.3220 0.3770 0.3880 0.3980
999.999893 0.4040 0.4100 0.4180 0.4250 0.4250
1006.596201 0.4410 0.4430 0.4530 0.4660 0.4860
1013.192508 0.4880 0.5050 0.5210 0.5500 0.5620
1019.788815 0.5770 0.5930 0.6180 0.6200 0.6460
1026.385123 0.6520 0.6790 0.6960 0.7120 0.7260
1032.981430 0.7530 0.7610 0.7780 0.7980 0.8040
1039.577737 0.8170 0.8350 0.8540 0.8560 0.8620
1046.174045 0.8740 0.8780 0.8950 0.8950 0.8990
1052.770352 0.9150 0.9170 0.9170 0.9240 0.9320
1059.366660 0.9340 0.9340 0.9360 0.9360 0.9360
1065.962967 0.9340 0.9340 0.9320 0.9340 0.9340
1072.559274 0.9340 0.9340 0.9320 0.9300 0.9280
1079.155582 0.9280 0.9260 0.9240 0.9240 0.9240
1085.751889 0.9240 0.9210 0.9210 0.9210 0.9190
1092.348196 0.9190 0.9190 0.9190 0.9170 0.9170
1098.944504 0.9170 0.9130 0.9070 0.9030 0.8950
1105.540811 0.8930 0.8850 0.8780 0.8760 0.8600
1112.137119 0.8410 0.8210 0.8150 0.8040 0.7800
1118.733426 0.7610 0.7490 0.7350 0.6810 0.6650
1125.329733 0.6480 0.6200 0.5910 0.5620 0.5440
1131.926041 0.4880 0.4430 0.3730 0.3530 0.3160
1138.522348 0.3010 0.2680 0.2480 0.2270 0.2070
1145.118655 0.2010 0.1820 0.1740 0.1680 0.1660
1151.714963 0.1640 0.1680 0.1720 0.1820 0.1880
1158.311270 0.1880 0.1510 0.1000 0.1580 0.2400
1164.907578 0.2190 0.2030 0.1930 0.1880 0.1900
1171.503885 0.2070 0.2580 0.3120 0.3490 0.3900
1178.100192 0.4310 0.5270 0.5680 0.6650 0.7280
1184.696500 0.7900 0.8170 0.8210 0.8350 0.8370
1191.292807 0.8430 0.8540 0.8560 0.8580 0.8620
1197.889114 0.8680 0.8700 0.8700 0.8740 0.8780
1204.485422 0.8820 0.8850 0.8870 0.8890 0.8930
1211.081729 0.8930 0.8930 0.8950 0.8950 0.8930
1217.678037 0.8910 0.8890 0.8930 0.8950 0.8950
1224.274344 0.8930 0.8910 0.8870 0.8760 0.8740
1230.870651 0.8740 0.8680 0.8660 0.8660 0.8620
1237.466959 0.8620 0.8620 0.8620 0.8620 0.8620
1244.063266 0.8640 0.8660 0.8700 0.8720 0.8720
1250.659573 0.8720 0.8720 0.8740 0.8740 0.8740
1257.255881 0.8740 0.8720 0.8700 0.8640 0.8580
1263.852188 0.8520 0.8520 0.8520 0.8540 0.8540
1270.448496 0.8560 0.8620 0.8740 0.8890 0.8850
1277.044803 0.8850 0.8820 0.8820 0.8780 0.8680
1283.641110 0.8540 0.8540 0.8540 0.8560 0.8560
1290.237418 0.8640 0.8720 0.8780 0.8870 0.8930
1296.833725 0.8950 0.8970 0.9030 0.9050 0.9070
1303.430032 0.9090 0.9110 0.9130 0.9130 0.9130
1310.026340 0.9130 0.9130 0.9130 0.9130 0.9130
1316.622647 0.9130 0.9130 0.9130 0.9130 0.9130
1323.218955 0.9130 0.9130 0.9110 0.9110 0.9110
1329.815262 0.9090 0.9090 0.9030 0.8990 0.8950
1336.411569 0.8870 0.8780 0.8580 0.8520 0.8390
1343.007877 0.8170 0.7880 0.7650 0.7590 0.7280
1349.604184 0.6940 0.6910 0.6960 0.7100 0.7220
1356.200491 0.7350 0.7780 0.8390 0.8390 0.7960
1362.796799 0.7720 0.7530 0.7370 0.7100 0.6980
1369.393106 0.6960 0.7040 0.7100 0.7180 0.7430
1375.989414 0.7800 0.7980 0.8150 0.8230 0.8270
1382.585721 0.8370 0.8370 0.8330 0.8250 0.8190
1389.182028 0.8150 0.8170 0.8090 0.7960 0.7800
1395.778336 0.7530 0.7490 0.7470 0.7450 0.6940
1402.374643 0.6480 0.6320 0.5810 0.5270 0.4920
1408.970950 0.4700 0.4530 0.4100 0.4020 0.4020
1415.567258 0.4370 0.4700 0.6030 0.6030 0.3830
1422.163565 0.4640 0.5420 0.5270 0.5030 0.4800
1428.759873 0.4470 0.4310 0.4310 0.4490 0.4800
1435.356180 0.5070 0.5770 0.5790 0.6360 0.6940
1441.952487 0.7490 0.8430 0.8620 0.8740 0.8800
1448.548795 0.8820 0.8950 0.8950 0.8930 0.8930
1455.145102 0.8780 0.8660 0.8000 0.8620 0.8600
1461.741409 0.8580 0.8560 0.8520 0.8370 0.8370
1468.337717 0.8450 0.8450 0.8110 0.8110 0.8290
1474.934024 0.8370 0.8410 0.8450 0.8560 0.8560
1481.530332 0.8370 0.8350 0.8330 0.8310 0.8290
1488.126639 0.8310 0.8330 0.8350 0.8720 0.8720
1494.722946 0.8720 0.8500 0.8500 0.8800 0.8970
1501.319254 0.9030 0.9070 0.9070 0.8450 0.8450
1507.915561 0.8910 0.9150 0.9210 0.9260 0.9280
1514.511868 0.9240 0.9210 0.9130 0.9110 0.8970
1521.108176 0.8640 0.8970 0.9130 0.9150 0.9170
1527.704483 0.9190 0.9210 0.9150 0.8950 0.9150
1534.300791 0.9150 0.9150 0.9090 0.8520 0.8370
1540.897098 0.8520 0.8930 0.8950 0.8950 0.9070
1547.493405 0.9130 0.9110 0.9070 0.9050 0.9030
1554.089713 0.8970 0.8620 0.8950 0.8780 0.8020
1560.686020 0.8910 0.8890 0.8910 0.8930 0.8930
1567.282327 0.8930 0.8950 0.8700 0.8950 0.8950
1573.878635 0.8890 0.8330 0.8330 0.8870 0.8890
1580.474942 0.8890 0.8890 0.8870 0.8800 0.8780
1587.071250 0.8760 0.8740 0.8680 0.8600 0.8540
1593.667557 0.8500 0.8480 0.8410 0.8390 0.8330
1600.263864 0.8250 0.8210 0.8170 0.8150 0.8150
1606.860172 0.7880 0.7820 0.7780 0.7840 0.7720
1613.456479 0.7610 0.7590 0.7570 0.7100 0.7100
1620.052786 0.7820 0.8000 0.8040 0.7550 0.8040
1626.649094 0.8230 0.8230 0.8190 0.7960 0.7820
1633.245401 0.7780 0.7760 0.7160 0.7800 0.8000
1639.841709 0.8150 0.8210 0.8390 0.8410 0.8110
1646.438016 0.8110 0.8430 0.8720 0.8720 0.8150
1653.034323 0.7330 0.8560 0.8620 0.8620 0.8600
1659.630631 0.8540 0.8390 0.8060 0.8020 0.7960
1666.226938 0.7800 0.7610 0.7330 0.7100 0.6980
1672.823245 0.6770 0.6630 0.6570 0.6520 0.6500
1679.419553 0.6070 0.5990 0.5520 0.5250 0.5090
1686.015860 0.5030 0.4800 0.4450 0.3490 0.2560
1692.612168 0.2210 0.2070 0.1430 0.0920 0.0650
1699.208475 0.0320 0.0160 0.0100 0.0100 0.0100
1705.804782 0.0100 0.0100 0.0120 0.0120 0.0120
1712.401090 0.0120 0.0120 0.0120 0.0120 0.0100
1718.997397 0.0100 0.0100 0.0100 0.0100 0.0100
1725.593704 0.0100 0.0120 0.0120 0.0120 0.0120
1732.190012 0.0120 0.0120 0.0140 0.0180 0.0220
1738.786319 0.0410 0.0880 0.1330 0.2400 0.2810
1745.382627 0.3670 0.4530 0.4720 0.5270 0.5830
1751.978934 0.5950 0.6050 0.6050 0.6200 0.6320
1758.575241 0.6340 0.6360 0.6960 0.7000 0.7020
1765.171549 0.7120 0.7200 0.7490 0.7610 0.7630
1771.767856 0.8040 0.8390 0.8540 0.8540 0.8600
1778.364163 0.8640 0.8740 0.8760 0.8780 0.8820
1784.960471 0.8850 0.8870 0.8800 0.8700 0.8700
1791.556778 0.8800 0.8780 0.8740 0.8720 0.8620
1798.153086 0.8580 0.8500 0.8350 0.8190 0.8040
1804.749393 0.7980 0.7820 0.7670 0.7610 0.7470
1811.345700 0.7350 0.7310 0.7310 0.7310 0.7330
1817.942008 0.7450 0.7510 0.7610 0.7780 0.7610
1824.538315 0.7430 0.7280 0.6940 0.6650 0.6650
1831.134622 0.6960 0.7120 0.7260 0.7370 0.7650
1837.730930 0.8190 0.8410 0.8600 0.8660 0.8760
1844.327237 0.8820 0.8930 0.8950 0.8970 0.8970
1850.923545 0.8990 0.9070 0.9110 0.9130 0.9130
1857.519852 0.9130 0.9130 0.9150 0.9150 0.9150
1864.116159 0.9130 0.9110 0.9070 0.9050 0.9070
1870.712467 0.9090 0.9090 0.9090 0.9090 0.9090
1877.308774 0.9090 0.9090 0.9090 0.9110 0.9110
1883.905081 0.9090 0.9090 0.9070 0.9070 0.8990
1890.501389 0.8970 0.8970 0.8950 0.8870 0.8740
1897.097696 0.8740 0.8700 0.8350 0.8150 0.7960
1903.694004 0.7700 0.7490 0.7280 0.7240 0.7100
1910.290311 0.7100 0.7220 0.7280 0.7430 0.7610
1916.886618 0.7670 0.7720 0.7510 0.7330 0.6960
1923.482926 0.6910 0.6890 0.6910 0.6940 0.6980
1930.079233 0.7020 0.7240 0.7470 0.7800 0.8000
1936.675540 0.8350 0.8540 0.8800 0.8850 0.8950
1943.271848 0.8970 0.9070 0.9110 0.9130 0.9150
1949.868155 0.9190 0.9190 0.9190 0.9170 0.9170
1956.464463 0.9170 0.9170 0.9170 0.9170 0.9170
1963.060770 0.9170 0.9170 0.9170 0.9170 0.9170
1969.657077 0.9170 0.9170 0.9170 0.9150 0.9150
1976.253385 0.9150 0.9130 0.9130 0.9110 0.9090
1982.849692 0.9090 0.9070 0.9070 0.9070 0.9070
1989.445999 0.9070 0.9070 0.9070 0.9090 0.9110
1996.042307 0.9110 0.9130 0.9150 0.9150 0.9150
2002.638614 0.9150 0.9150 0.9150 0.9160 0.9169
2009.234922 0.9203 0.9238 0.9240 0.9240 0.9240
2015.831229 0.9240 0.9227 0.9212 0.9201 0.9191
2022.427536 0.9173 0.9153 0.9117 0.9077 0.9054
2029.023844 0.9034 0.9006 0.8976 0.8923 0.8864
2035.620151 0.8816 0.8771 0.8760 0.8760 0.8760
2042.216458 0.8760 0.8746 0.8726 0.8671 0.8602
2048.812766 0.8573 0.8563 0.8560 0.8560 0.8566
2055.409073 0.8576 0.8593 0.8612 0.8638 0.8668
2062.005381 0.8698 0.8728 0.8789 0.8873 0.8927
2068.601688 0.8956 0.8975 0.8985 0.9000 0.9020
2075.197995 0.9055 0.9105 0.9162 0.9226 0.9279
2081.794303 0.9319 0.9345 0.9354 0.9369 0.9389
2088.390610 0.9408 0.9428 0.9440 0.9440 0.9440
2094.986917 0.9440 0.9444 0.9454 0.9460 0.9460
2101.583225 0.9460 0.9460 0.9460 0.9460 0.9460
2108.179532 0.9460 0.9460 0.9460 0.9460 0.9460
2114.775840 0.9460 0.9460 0.9460 0.9460 0.9460
2121.372147 0.9460 0.9460 0.9460 0.9460 0.9460
2127.968454 0.9460 0.9460 0.9460 0.9460 0.9460
2134.564762 0.9460 0.9460 0.9460 0.9460 0.9460
2141.161069 0.9460 0.9460 0.9460 0.9460 0.9460
2147.757376 0.9460 0.9460 0.9460 0.9460 0.9460
2154.353684 0.9460 0.9470 0.9480 0.9480 0.9480
2160.949991 0.9480 0.9480 0.9489 0.9499 0.9500
2167.546299 0.9500 0.9500 0.9500 0.9509 0.9519
2174.142606 0.9520 0.9520 0.9528 0.9538 0.9540
2180.738913 0.9540 0.9540 0.9540 0.9540 0.9540
2187.335221 0.9540 0.9540 0.9540 0.9540 0.9547
2193.931528 0.9557 0.9560 0.9560 0.9560 0.9560
2200.527835 0.9560 0.9560 0.9560 0.9560 0.9560
2207.124143 0.9560 0.9560 0.9560 0.9560 0.9560
2213.720450 0.9560 0.9560 0.9560 0.9560 0.9560
2220.316758 0.9560 0.9560 0.9560 0.9560 0.9560
2226.913065 0.9560 0.9560 0.9560 0.9560 0.9555
2233.509372 0.9545 0.9535 0.9526 0.9520 0.9520
2240.105680 0.9516 0.9506 0.9496 0.9486 0.9480
2246.701987 0.9480 0.9480 0.9480 0.9476 0.9467
2253.298294 0.9460 0.9460 0.9460 0.9460 0.9460
2259.894602 0.9460 0.9452 0.9422 0.9397 0.9387
2266.490909 0.9380 0.9380 0.9382 0.9392 0.9400
2273.087217 0.9400 0.9400 0.9400 0.9400 0.9400
2279.683524 0.9400 0.9400 0.9400 0.9400 0.9399
2286.279831 0.9389 0.9380 0.9380 0.9381 0.9391
2292.876139 0.9401 0.9411 0.9420 0.9420 0.9420
2299.472446 0.9410 0.9400 0.9390 0.9380 0.9380
2306.068753 0.9380 0.9380 0.9380 0.9380 0.9380
2312.665061 0.9380 0.9380 0.9380 0.9380 0.9398
2319.261368 0.9418 0.9429 0.9439 0.9449 0.9459
2325.857676 0.9460 0.9460 0.9460 0.9460 0.9460
2332.453983 0.9460 0.9484 0.9514 0.9536 0.9556
2339.050290 0.9560 0.9560 0.9575 0.9595 0.9600
2345.646598 0.9600 0.9611 0.9626 0.9637 0.9647
2352.242905 0.9650 0.9650 0.9650 0.9650 0.9650
2358.839212 0.9650 0.9650 0.9650 0.9650 0.9650
2365.435520 0.9650 0.9650 0.9650 0.9650 0.9644
2372.031827 0.9634 0.9630 0.9630 0.9622 0.9607
2378.628135 0.9600 0.9600 0.9600 0.9600 0.9600
2385.224442 0.9600 0.9600 0.9600 0.9596 0.9586
2391.820749 0.9576 0.9566 0.9552 0.9532 0.9520
2398.417057 0.9520 0.9516 0.9506 0.9496 0.9487
2405.013364 0.9480 0.9480 0.9480 0.9480 0.9480
2411.609671 0.9480 0.9480 0.9480 0.9480 0.9480
2418.205979 0.9480 0.9480 0.9482 0.9492 0.9500
2424.802286 0.9500 0.9502 0.9512 0.9522 0.9532
2431.398594 0.9543 0.9563 0.9580 0.9580 0.9583
2437.994901 0.9608 0.9632 0.9652 0.9670 0.9670
2444.591208 0.9671 0.9681 0.9692 0.9722 0.9751
2451.187516 0.9771 0.9790 0.9790 0.9790 0.9800
2457.783823 0.9810 0.9820 0.9830 0.9830 0.9830
2464.380130 0.9830 0.9830 0.9830 0.9830 0.9830
2470.976438 0.9830 0.9830 0.9830 0.9830 0.9830
2477.572745 0.9830 0.9830 0.9830 0.9830 0.9830
2484.169053 0.9830 0.9830 0.9830 0.9830 0.9830
2490.765360 0.9830 0.9830 0.9830 0.9830 0.9830
2497.361667 0.9830 0.9830 0.9830 0.9830 0.9830
2503.957975 0.9823 0.9813 0.9810 0.9810 0.9810
2510.554282 0.9810 0.9810 0.9810 0.9810 0.9810
2517.150589 0.9810 0.9810 0.9810 0.9810 0.9810
2523.746897 0.9810 0.9810 0.9810 0.9810 0.9810
2530.343204 0.9810 0.9810 0.9810 0.9810 0.9810
2536.939511 0.9810 0.9805 0.9795 0.9790 0.9790
2543.535819 0.9786 0.9776 0.9770 0.9770 0.9770
2550.132126 0.9770 0.9770 0.9770 0.9766 0.9756
2556.728434 0.9750 0.9750 0.9750 0.9750 0.9750
2563.324741 0.9750 0.9750 0.9750 0.9750 0.9750
2569.921048 0.9750 0.9750 0.9750 0.9750 0.9750
2576.517356 0.9750 0.9750 0.9750 0.9750 0.9750
2583.113663 0.9748 0.9738 0.9730 0.9730 0.9730
2589.709970 0.9730 0.9730 0.9730 0.9728 0.9708
2596.306278 0.9688 0.9669 0.9650 0.9650 0.9650
2602.902585 0.9640 0.9630 0.9615 0.9600 0.9590
2609.498893 0.9580 0.9570 0.9560 0.9521 0.9482
2616.095200 0.9451 0.9422 0.9411 0.9401 0.9391
2622.691507 0.9381 0.9371 0.9361 0.9285 0.9201
2629.287815 0.9138 0.9079 0.9045 0.9015 0.8915
2635.884122 0.8801 0.8715 0.8636 0.8588 0.8549
2642.480429 0.8532 0.8522 0.8455 0.8371 0.8175
2649.076737 0.7942 0.7760 0.7597 0.7515 0.7465
2655.673044 0.7281 0.7038 0.6849 0.6685 0.6587
2662.269352 0.6523 0.6455 0.6386 0.6195 0.5932
2668.865659 0.5730 0.5567 0.5462 0.5397 0.5290
2675.461966 0.5151 0.5004 0.4851 0.4729 0.4635
2682.058274 0.4608 0.4643 0.4695 0.4764 0.5129
2688.654581 0.5803 0.6069 0.5876 0.5763 0.5748
2695.250888 0.5334 0.4403 0.3850 0.3825 0.3814
2701.847196 0.3824 0.3851 0.3905 0.3947 0.3967
2708.443503 0.3983 0.3993 0.4020 0.4079 0.4146
2715.039811 0.4231 0.4284 0.4264 0.4213 0.4079
2721.636118 0.3975 0.3955 0.3915 0.3811 0.3719
2728.232425 0.3669 0.3622 0.3582 0.3540 0.3485
2734.828733 0.3409 0.3231 0.3061 0.2937 0.2827
2741.425040 0.2807 0.2792 0.2812 0.2850 0.3043
2748.021347 0.3251 0.3618 0.3941 0.3664 0.3386
2754.617655 0.3114 0.2841 0.2553 0.2270 0.2260
2761.213962 0.2250 0.2250 0.2250 0.2260 0.2270
2767.810270 0.2280 0.2289 0.2313 0.2338 0.2340
2774.406577 0.2340 0.2245 0.2141 0.2086 0.2036
2781.002884 0.2004 0.1974 0.1889 0.1795 0.1892
2787.599192 0.2026 0.2160 0.2294 0.2424 0.2553
2794.195499 0.2701 0.2855 0.3180 0.3557 0.3396
2800.791806 0.3059 0.2828 0.2634 0.2420 0.2197
2807.388114 0.2050 0.1936 0.1873 0.1833 0.1846
2813.984421 0.1886 0.1993 0.2137 0.2299 0.2473
2820.580729 0.2646 0.2820 0.2937 0.3017 0.3076
2827.177036 0.3120 0.3254 0.3457 0.3660 0.3864
2833.773343 0.4067 0.4270 0.4433 0.4557 0.4644
2840.369651 0.4694 0.4758 0.4837 0.4880 0.4880
2846.965958 0.4913 0.4987 0.5084 0.5213 0.5386
2853.562265 0.5624 0.5839 0.6017 0.6221 0.6469
2860.158573 0.6672 0.6791 0.6908 0.7022 0.7145
2866.754880 0.7289 0.7425 0.7544 0.7656 0.7751
2873.351188 0.7884 0.8127 0.8312 0.8322 0.8351
2879.947495 0.8446 0.8533 0.8592 0.8653 0.8723
2886.543802 0.8783 0.8803 0.8829 0.8883 0.8931
2893.140110 0.8941 0.8951 0.8961 0.8971 0.8981
2899.736417 0.8992 0.9012 0.9031 0.9041 0.9049
2906.332724 0.9040 0.9030 0.9020 0.9010 0.9000
2912.929032 0.8990 0.8980 0.8970 0.8970 0.8970
2919.525339 0.8960 0.8951 0.8941 0.8931 0.8912
2926.121647 0.8892 0.8849 0.8805 0.8764 0.8725
2932.717954 0.8711 0.8701 0.8691 0.8682 0.8688
2939.314261 0.8698 0.8700 0.8700 0.8708 0.8718
2945.910569 0.8720 0.8720 0.8720 0.8720 0.8713
2952.506876 0.8703 0.8678 0.8648 0.8626 0.8606
2959.103183 0.8586 0.8566 0.8553 0.8543 0.8510
2965.699491 0.8466 0.8444 0.8434 0.8411 0.8381
2972.295798 0.8364 0.8354 0.8350 0.8350 0.8344
2978.892106 0.8334 0.8280 0.8190 0.8055 0.7882
2985.488413 0.7745 0.7641 0.7555 0.7485 0.7440
2992.084720 0.7420 0.7410 0.7410 0.7415 0.7424
2998.681028 0.7465 0.7544 0.7676 0.7879 0.7996
3005.277335 0.7986 0.7972 0.7952 0.7940 0.7940
3011.873642 0.7851 0.7598 0.7488 0.7662 0.7824
3018.469950 0.7963 0.8100 0.8234 0.8344 0.8394
3025.066257 0.8442 0.8486 0.8520 0.8520 0.8520
3031.662565 0.8520 0.8524 0.8544 0.8560 0.8560
3038.258872 0.8558 0.8548 0.8538 0.8528 0.8515
3044.855179 0.8480 0.8448 0.8428 0.8405 0.8355
3051.451487 0.8305 0.8256 0.8209 0.8199 0.8189
3058.047794 0.8180 0.8170 0.8160 0.8150 0.8140
