##TITLE=ETHANE, 1-BROMO-2-CHLORO-
##JCAMP-DX=4.24
$$ By DXEDIT 1.05 (RS McDonald)
##DATA TYPE=INFRARED SPECTRUM
##CLASS=COBLENTZ III
##ORIGIN=DOW CHEMICAL COMPANY
##OWNER=COBLENTZ SOC.
Collection (C) 2018 copyright by the U.S. Secretary of Commerce
on behalf of the United States of America. All rights reserved.
##DATE=1962/12/27
##NAMES=1-bromo-2-chloroethane
##CAS REGISTRY NO=107-04-0
##MOLFORM=C2 H4 Br Cl
##SOURCE REFERENCE=COBLENTZ NO. 05744
##$NIST SOURCE=COBLENTZ
##$NIST IMAGE=cob5744
##SPECTROMETER/DATA SYSTEM=DOW KBr FOREPRISM-GRATING
##INSTRUMENT PARAMETERS=BLAZED AT 3.5, 12.0, 20.0 MICRON AND CHANGED AT 5.0, 7.5, 14.9 MICRON
##STATE=SOLUTION (10% CCl4 FOR 2.6-7.5, 10% CS2 FOR 7.5-26 MICRON)
##PATH LENGTH=0.011 CM, 0.011 CM
$$SPECTRAL CONTAMINATION DUE TO CCl4 AROUND 1550 CM^-^1
##SAMPLING PROCEDURE=TRANSMISSION
##RESOLUTION=2
##DATA PROCESSING=DIGITIZED BY COBLENTZ SOCIETY (BATCH I) FROM HARD COPY
##XUNITS=1/CM
##YUNITS=TRANSMITTANCE
##XLABEL=Wavenumbers (cm-1)
##YLABEL=% Transmission
##XFACTOR=1
##YFACTOR=1
##DELTAX=1
##FIRSTX=3806
##LASTX=387
##FIRSTY=0.8698
##MAXX=3806
##MINX=387
##MAXY=1.0043
##MINY=0.0792
##NPOINTS=3420
##XYDATA=(X++(Y..Y))
3806.000000 0.8698 0.8697 0.8697 0.8696 0.8695
3801.000000 0.8693 0.8692 0.8691 0.8690 0.8689
3796.000000 0.8688 0.8686 0.8685 0.8684 0.8683
3791.000000 0.8681 0.8680 0.8678 0.8678 0.8677
3786.000000 0.8675 0.8674 0.8673 0.8671 0.8671
3781.000000 0.8670 0.8668 0.8668 0.8668 0.8667
3776.000000 0.8666 0.8665 0.8664 0.8663 0.8663
3771.000000 0.8662 0.8661 0.8660 0.8659 0.8658
3766.000000 0.8658 0.8657 0.8656 0.8655 0.8654
3761.000000 0.8653 0.8653 0.8652 0.8651 0.8650
3756.000000 0.8649 0.8648 0.8648 0.8648 0.8648
3751.000000 0.8647 0.8647 0.8647 0.8647 0.8647
3746.000000 0.8647 0.8646 0.8646 0.8646 0.8646
3741.000000 0.8646 0.8646 0.8645 0.8645 0.8645
3736.000000 0.8645 0.8644 0.8644 0.8644 0.8644
3731.000000 0.8644 0.8644 0.8643 0.8643 0.8643
3726.000000 0.8643 0.8643 0.8643 0.8642 0.8642
3721.000000 0.8642 0.8642 0.8642 0.8642 0.8642
3716.000000 0.8642 0.8641 0.8641 0.8641 0.8641
3711.000000 0.8641 0.8641 0.8641 0.8641 0.8640
3706.000000 0.8640 0.8640 0.8640 0.8640 0.8640
3701.000000 0.8639 0.8639 0.8639 0.8639 0.8639
3696.000000 0.8639 0.8639 0.8639 0.8638 0.8638
3691.000000 0.8638 0.8638 0.8638 0.8638 0.8638
3686.000000 0.8638 0.8637 0.8637 0.8637 0.8637
3681.000000 0.8637 0.8637 0.8637 0.8638 0.8638
3676.000000 0.8638 0.8638 0.8639 0.8639 0.8640
3671.000000 0.8640 0.8641 0.8641 0.8641 0.8641
3666.000000 0.8642 0.8642 0.8643 0.8643 0.8644
3661.000000 0.8644 0.8645 0.8645 0.8645 0.8645
3656.000000 0.8646 0.8646 0.8647 0.8647 0.8648
3651.000000 0.8648 0.8649 0.8649 0.8650 0.8650
3646.000000 0.8650 0.8650 0.8651 0.8651 0.8652
3641.000000 0.8652 0.8653 0.8653 0.8654 0.8654
3636.000000 0.8654 0.8654 0.8655 0.8655 0.8656
3631.000000 0.8656 0.8657 0.8657 0.8657 0.8657
3626.000000 0.8658 0.8658 0.8659 0.8659 0.8660
3621.000000 0.8660 0.8661 0.8661 0.8661 0.8661
3616.000000 0.8662 0.8662 0.8663 0.8663 0.8664
3611.000000 0.8664 0.8665 0.8665 0.8665 0.8665
3606.000000 0.8666 0.8666 0.8667 0.8667 0.8668
3601.000000 0.8668 0.8668 0.8668 0.8668 0.8668
3596.000000 0.8670 0.8670 0.8671 0.8671 0.8671
3591.000000 0.8671 0.8671 0.8671 0.8673 0.8673
3586.000000 0.8674 0.8674 0.8675 0.8675 0.8675
3581.000000 0.8675 0.8675 0.8675 0.8677 0.8677
3576.000000 0.8678 0.8678 0.8678 0.8678 0.8678
3571.000000 0.8678 0.8680 0.8680 0.8681 0.8681
3566.000000 0.8682 0.8682 0.8682 0.8682 0.8683
3561.000000 0.8683 0.8684 0.8684 0.8685 0.8685
3556.000000 0.8685 0.8685 0.8686 0.8686 0.8687
3551.000000 0.8687 0.8688 0.8688 0.8688 0.8688
3546.000000 0.8688 0.8688 0.8689 0.8689 0.8689
3541.000000 0.8689 0.8690 0.8690 0.8690 0.8690
3536.000000 0.8691 0.8691 0.8691 0.8691 0.8691
3531.000000 0.8691 0.8692 0.8692 0.8692 0.8692
3526.000000 0.8693 0.8693 0.8693 0.8693 0.8694
3521.000000 0.8694 0.8694 0.8694 0.8694 0.8694
3516.000000 0.8695 0.8695 0.8695 0.8695 0.8696
3511.000000 0.8696 0.8696 0.8696 0.8697 0.8697
3506.000000 0.8697 0.8697 0.8698 0.8698 0.8698
3501.000000 0.8698 0.8698 0.8698 0.8699 0.8699
3496.000000 0.8699 0.8699 0.8700 0.8700 0.8700
3491.000000 0.8700 0.8701 0.8701 0.8701 0.8701
3486.000000 0.8701 0.8701 0.8702 0.8702 0.8703
3481.000000 0.8703 0.8704 0.8704 0.8705 0.8705
3476.000000 0.8706 0.8706 0.8707 0.8707 0.8708
3471.000000 0.8708 0.8709 0.8709 0.8710 0.8710
3466.000000 0.8711 0.8711 0.8712 0.8712 0.8713
3461.000000 0.8713 0.8714 0.8714 0.8715 0.8715
3456.000000 0.8716 0.8716 0.8717 0.8717 0.8718
3451.000000 0.8718 0.8718 0.8718 0.8720 0.8720
3446.000000 0.8721 0.8721 0.8721 0.8721 0.8723
3441.000000 0.8723 0.8724 0.8724 0.8725 0.8725
3436.000000 0.8725 0.8725 0.8727 0.8727 0.8728
3431.000000 0.8728 0.8728 0.8728 0.8730 0.8730
3426.000000 0.8731 0.8731 0.8732 0.8732 0.8733
3421.000000 0.8733 0.8734 0.8734 0.8735 0.8735
3416.000000 0.8736 0.8736 0.8737 0.8737 0.8738
3411.000000 0.8738 0.8739 0.8739 0.8740 0.8740
3406.000000 0.8741 0.8741 0.8742 0.8742 0.8742
3401.000000 0.8742 0.8743 0.8743 0.8743 0.8743
3396.000000 0.8744 0.8744 0.8745 0.8745 0.8745
3391.000000 0.8745 0.8746 0.8746 0.8746 0.8746
3386.000000 0.8747 0.8747 0.8748 0.8748 0.8748
3381.000000 0.8748 0.8749 0.8749 0.8749 0.8749
3376.000000 0.8750 0.8750 0.8751 0.8751 0.8751
3371.000000 0.8751 0.8752 0.8752 0.8752 0.8752
3366.000000 0.8753 0.8753 0.8754 0.8754 0.8754
3361.000000 0.8754 0.8755 0.8755 0.8755 0.8755
3356.000000 0.8756 0.8756 0.8756 0.8756 0.8757
3351.000000 0.8757 0.8758 0.8758 0.8758 0.8758
3346.000000 0.8759 0.8759 0.8759 0.8759 0.8760
3341.000000 0.8760 0.8761 0.8761 0.8761 0.8761
3336.000000 0.8762 0.8762 0.8762 0.8762 0.8763
3331.000000 0.8763 0.8764 0.8764 0.8764 0.8764
3326.000000 0.8765 0.8765 0.8765 0.8765 0.8766
3321.000000 0.8766 0.8766 0.8766 0.8766 0.8766
3316.000000 0.8767 0.8767 0.8767 0.8767 0.8767
3311.000000 0.8767 0.8768 0.8768 0.8768 0.8768
3306.000000 0.8768 0.8768 0.8768 0.8768 0.8768
3301.000000 0.8768 0.8768 0.8768 0.8770 0.8770
3296.000000 0.8770 0.8770 0.8770 0.8770 0.8771
3291.000000 0.8771 0.8771 0.8771 0.8771 0.8771
3286.000000 0.8771 0.8771 0.8771 0.8771 0.8773
3281.000000 0.8773 0.8773 0.8773 0.8773 0.8773
3276.000000 0.8774 0.8774 0.8774 0.8774 0.8774
3271.000000 0.8774 0.8775 0.8775 0.8775 0.8775
3266.000000 0.8775 0.8775 0.8775 0.8775 0.8775
3261.000000 0.8774 0.8774 0.8773 0.8773 0.8771
3256.000000 0.8771 0.8770 0.8770 0.8768 0.8768
3251.000000 0.8768 0.8768 0.8767 0.8767 0.8766
3246.000000 0.8765 0.8764 0.8764 0.8763 0.8763
3241.000000 0.8762 0.8762 0.8761 0.8760 0.8759
3236.000000 0.8759 0.8758 0.8758 0.8757 0.8757
3231.000000 0.8756 0.8756 0.8755 0.8754 0.8753
3226.000000 0.8753 0.8752 0.8752 0.8751 0.8751
3221.000000 0.8750 0.8749 0.8748 0.8748 0.8747
3216.000000 0.8747 0.8746 0.8746 0.8745 0.8744
3211.000000 0.8743 0.8743 0.8742 0.8742 0.8741
3206.000000 0.8741 0.8740 0.8740 0.8739 0.8738
3201.000000 0.8737 0.8737 0.8736 0.8736 0.8735
3196.000000 0.8735 0.8734 0.8733 0.8732 0.8732
3191.000000 0.8731 0.8731 0.8730 0.8730 0.8728
3186.000000 0.8728 0.8728 0.8727 0.8725 0.8725
3181.000000 0.8725 0.8725 0.8724 0.8724 0.8723
3176.000000 0.8721 0.8721 0.8721 0.8720 0.8720
3171.000000 0.8720 0.8721 0.8721 0.8721 0.8721
3166.000000 0.8723 0.8723 0.8724 0.8724 0.8725
3161.000000 0.8725 0.8725 0.8725 0.8725 0.8725
3156.000000 0.8727 0.8727 0.8728 0.8728 0.8728
3151.000000 0.8728 0.8730 0.8730 0.8730 0.8730
3146.000000 0.8731 0.8731 0.8732 0.8732 0.8733
3141.000000 0.8733 0.8734 0.8734 0.8735 0.8735
3136.000000 0.8736 0.8736 0.8736 0.8736 0.8737
3131.000000 0.8737 0.8738 0.8738 0.8739 0.8739
3126.000000 0.8740 0.8740 0.8741 0.8741 0.8742
3121.000000 0.8742 0.8742 0.8741 0.8740 0.8739
3116.000000 0.8738 0.8736 0.8735 0.8734 0.8733
3111.000000 0.8732 0.8731 0.8728 0.8728 0.8727
3106.000000 0.8725 0.8724 0.8723 0.8721 0.8721
3101.000000 0.8720 0.8718 0.8717 0.8716 0.8715
3096.000000 0.8714 0.8713 0.8712 0.8710 0.8709
3091.000000 0.8708 0.8707 0.8705 0.8704 0.8703
3086.000000 0.8702 0.8701 0.8700 0.8698 0.8697
3081.000000 0.8696 0.8695 0.8693 0.8692 0.8691
3076.000000 0.8690 0.8689 0.8688 0.8686 0.8685
3071.000000 0.8684 0.8683 0.8681 0.8680 0.8678
3066.000000 0.8677 0.8675 0.8675 0.8675 0.8675
3061.000000 0.8674 0.8673 0.8671 0.8671 0.8671
3056.000000 0.8670 0.8668 0.8668 0.8668 0.8668
3051.000000 0.8667 0.8666 0.8665 0.8665 0.8664
3046.000000 0.8664 0.8663 0.8662 0.8661 0.8661
3041.000000 0.8660 0.8659 0.8658 0.8658 0.8656
3036.000000 0.8668 0.8652 0.8650 0.8647 0.8645
3031.000000 0.8643 0.8641 0.8638 0.8635 0.8630
3026.000000 0.8625 0.8621 0.8618 0.8614 0.8610
3021.000000 0.8605 0.8601 0.8595 0.8590 0.8584
3016.000000 0.8578 0.8573 0.8567 0.8561 0.8556
3011.000000 0.8550 0.8545 0.8539 0.8534 0.8528
3006.000000 0.8523 0.8513 0.8504 0.8492 0.8481
3001.000000 0.8456 0.8432 0.8396 0.8361 0.8317
2996.000000 0.8273 0.8196 0.8119 0.7968 0.7818
2991.000000 0.7667 0.7517 0.7465 0.7410 0.7412
2986.000000 0.7412 0.7432 0.7451 0.7512 0.7575
2981.000000 0.7637 0.7699 0.7761 0.7822 0.7831
2976.000000 0.7840 0.7843 0.7847 0.7840 0.7834
2971.000000 0.7825 0.7818 0.7790 0.7761 0.7760
2966.000000 0.7758 0.7758 0.7757 0.7758 0.7761
2961.000000 0.7783 0.7806 0.7822 0.7840 0.7851
2956.000000 0.7862 0.7874 0.7886 0.7897 0.7908
2951.000000 0.7925 0.7942 0.7971 0.8001 0.8037
2946.000000 0.8071 0.8141 0.8210 0.8251 0.8292
2941.000000 0.8333 0.8375 0.8410 0.8445 0.8474
2936.000000 0.8503 0.8531 0.8559 0.8573 0.8587
2931.000000 0.8600 0.8614 0.8627 0.8640 0.8650
2926.000000 0.8660 0.8670 0.8681 0.8691 0.8701
2921.000000 0.8703 0.8705 0.8707 0.8709 0.8710
2916.000000 0.8712 0.8712 0.8713 0.8713 0.8714
2911.000000 0.8714 0.8714 0.8714 0.8715 0.8715
2906.000000 0.8715 0.8715 0.8716 0.8716 0.8717
2901.000000 0.8717 0.8717 0.8717 0.8718 0.8718
2896.000000 0.8718 0.8718 0.8718 0.8718 0.8718
2891.000000 0.8718 0.8718 0.8720 0.8721 0.8707
2886.000000 0.8693 0.8660 0.8627 0.8593 0.8560
2881.000000 0.8527 0.8494 0.8460 0.8427 0.8425
2876.000000 0.8425 0.8425 0.8427 0.8463 0.8499
2871.000000 0.8543 0.8587 0.8591 0.8596 0.8595
2866.000000 0.8594 0.8606 0.8618 0.8635 0.8651
2861.000000 0.8664 0.8678 0.8688 0.8698 0.8708
2856.000000 0.8718 0.8728 0.8737 0.8742 0.8748
2851.000000 0.8746 0.8745 0.8743 0.8741 0.8739
2846.000000 0.8737 0.8733 0.8728 0.8725 0.8721
2841.000000 0.8717 0.8713 0.8712 0.8712 0.8716
2836.000000 0.8720 0.8724 0.8728 0.8733 0.8737
2831.000000 0.8741 0.8745 0.8749 0.8754 0.8760
2826.000000 0.8766 0.8771 0.8778 0.8785 0.8791
2821.000000 0.8797 0.8804 0.8807 0.8811 0.8812
2816.000000 0.8814 0.8816 0.8818 0.8818 0.8821
2811.000000 0.8823 0.8825 0.8825 0.8828 0.8830
2806.000000 0.8832 0.8833 0.8835 0.8837 0.8839
2801.000000 0.8840 0.8842 0.8844 0.8846 0.8846
2796.000000 0.8847 0.8847 0.8847 0.8847 0.8847
2791.000000 0.8847 0.8847 0.8847 0.8847 0.8847
2786.000000 0.8847 0.8846 0.8846 0.8846 0.8846
2781.000000 0.8846 0.8846 0.8846 0.8846 0.8846
2776.000000 0.8846 0.8846 0.8846 0.8846 0.8846
2771.000000 0.8846 0.8846 0.8845 0.8845 0.8845
2766.000000 0.8845 0.8845 0.8845 0.8845 0.8845
2761.000000 0.8845 0.8845 0.8845 0.8845 0.8845
2756.000000 0.8845 0.8845 0.8845 0.8845 0.8845
2751.000000 0.8843 0.8842 0.8840 0.8839 0.8837
2746.000000 0.8836 0.8834 0.8833 0.8831 0.8830
2741.000000 0.8825 0.8821 0.8817 0.8813 0.8806
2736.000000 0.8799 0.8787 0.8775 0.8771 0.8771
2731.000000 0.8770 0.8774 0.8777 0.8780 0.8783
2726.000000 0.8786 0.8789 0.8793 0.8796 0.8799
2721.000000 0.8802 0.8805 0.8808 0.8812 0.8813
2716.000000 0.8815 0.8815 0.8816 0.8816 0.8817
2711.000000 0.8817 0.8818 0.8818 0.8818 0.8820
2706.000000 0.8821 0.8821 0.8821 0.8821 0.8823
2701.000000 0.8823 0.8824 0.8825 0.8825 0.8825
2696.000000 0.8827 0.8827 0.8828 0.8828 0.8828
2691.000000 0.8828 0.8830 0.8831 0.8832 0.8832
2686.000000 0.8833 0.8833 0.8833 0.8831 0.8830
2681.000000 0.8828 0.8828 0.8827 0.8825 0.8825
2676.000000 0.8824 0.8823 0.8821 0.8821 0.8820
2671.000000 0.8818 0.8818 0.8817 0.8816 0.8815
2666.000000 0.8814 0.8813 0.8813 0.8812 0.8812
2661.000000 0.8811 0.8810 0.8809 0.8809 0.8808
2656.000000 0.8808 0.8807 0.8807 0.8808 0.8809
2651.000000 0.8810 0.8812 0.8813 0.8815 0.8816
2646.000000 0.8818 0.8818 0.8821 0.8821 0.8824
2641.000000 0.8828 0.8835 0.8836 0.8838 0.8840
2636.000000 0.8842 0.8843 0.8845 0.8847 0.8849
2631.000000 0.8851 0.8853 0.8854 0.8856 0.8857
2626.000000 0.8857 0.8858 0.8858 0.8857 0.8857
2621.000000 0.8856 0.8855 0.8854 0.8854 0.8853
2616.000000 0.8853 0.8852 0.8852 0.8851 0.8850
2611.000000 0.8849 0.8849 0.8848 0.8848 0.8847
2606.000000 0.8847 0.8846 0.8845 0.8844 0.8844
2601.000000 0.8843 0.8843 0.8843 0.8843 0.8843
2596.000000 0.8843 0.8843 0.8843 0.8843 0.8843
2591.000000 0.8843 0.8843 0.8843 0.8843 0.8842
2586.000000 0.8842 0.8842 0.8842 0.8842 0.8842
2581.000000 0.8842 0.8842 0.8842 0.8842 0.8842
2576.000000 0.8842 0.8842 0.8842 0.8842 0.8842
2571.000000 0.8842 0.8842 0.8841 0.8841 0.8841
2566.000000 0.8841 0.8841 0.8841 0.8841 0.8841
2561.000000 0.8841 0.8841 0.8841 0.8841 0.8841
2556.000000 0.8842 0.8842 0.8843 0.8844 0.8845
2551.000000 0.8845 0.8846 0.8847 0.8848 0.8848
2546.000000 0.8849 0.8850 0.8851 0.8852 0.8853
2541.000000 0.8853 0.8854 0.8855 0.8856 0.8856
2536.000000 0.8857 0.8858 0.8859 0.8859 0.8860
2531.000000 0.8861 0.8862 0.8862 0.8863 0.8864
2526.000000 0.8865 0.8865 0.8866 0.8867 0.8868
2521.000000 0.8868 0.8868 0.8870 0.8871 0.8871
2516.000000 0.8871 0.8871 0.8871 0.8871 0.8873
2511.000000 0.8873 0.8873 0.8873 0.8874 0.8874
2506.000000 0.8874 0.8874 0.8875 0.8875 0.8875
2501.000000 0.8875 0.8875 0.8875 0.8877 0.8877
2496.000000 0.8877 0.8875 0.8873 0.8871 0.8870
2491.000000 0.8868 0.8866 0.8864 0.8863 0.8861
2486.000000 0.8859 0.8857 0.8855 0.8853 0.8852
2481.000000 0.8852 0.8852 0.8853 0.8854 0.8855
2476.000000 0.8856 0.8856 0.8857 0.8858 0.8859
2471.000000 0.8860 0.8861 0.8861 0.8862 0.8863
2466.000000 0.8864 0.8865 0.8866 0.8867 0.8868
2461.000000 0.8868 0.8868 0.8870 0.8871 0.8871
2456.000000 0.8873 0.8873 0.8874 0.8875 0.8875
2451.000000 0.8875 0.8877 0.8877 0.8875 0.8875
2446.000000 0.8874 0.8871 0.8871 0.8870 0.8868
2441.000000 0.8868 0.8867 0.8865 0.8864 0.8863
2436.000000 0.8862 0.8860 0.8859 0.8858 0.8857
2431.000000 0.8856 0.8855 0.8853 0.8852 0.8851
2426.000000 0.8850 0.8848 0.8847 0.8846 0.8845
2421.000000 0.8844 0.8843 0.8841 0.8840 0.8839
2416.000000 0.8838 0.8837 0.8836 0.8834 0.8833
2411.000000 0.8832 0.8831 0.8830 0.8828 0.8828
2406.000000 0.8827 0.8825 0.8825 0.8824 0.8823
2401.000000 0.8821 0.8818 0.8815 0.8812 0.8809
2396.000000 0.8806 0.8802 0.8799 0.8795 0.8792
2391.000000 0.8788 0.8785 0.8781 0.8778 0.8774
2386.000000 0.8771 0.8768 0.8768 0.8766 0.8765
2381.000000 0.8764 0.8763 0.8761 0.8760 0.8759
2376.000000 0.8758 0.8757 0.8756 0.8754 0.8753
2371.000000 0.8752 0.8751 0.8750 0.8749 0.8748
2366.000000 0.8747 0.8746 0.8745 0.8744 0.8743
2361.000000 0.8742 0.8742 0.8741 0.8740 0.8739
2356.000000 0.8738 0.8737 0.8736 0.8735 0.8734
2351.000000 0.8733 0.8733 0.8731 0.8730 0.8728
2346.000000 0.8727 0.8725 0.8723 0.8721 0.8718
2341.000000 0.8717 0.8715 0.8713 0.8712 0.8710
2336.000000 0.8708 0.8706 0.8704 0.8702 0.8700
2331.000000 0.8698 0.8697 0.8695 0.8693 0.8691
2326.000000 0.8689 0.8687 0.8686 0.8684 0.8682
2321.000000 0.8680 0.8678 0.8675 0.8675 0.8673
2316.000000 0.8671 0.8668 0.8668 0.8666 0.8664
2311.000000 0.8662 0.8661 0.8658 0.8656 0.8653
2306.000000 0.8651 0.8648 0.8646 0.8643 0.8641
2301.000000 0.8638 0.8636 0.8633 0.8631 0.8628
2296.000000 0.8625 0.8625 0.8624 0.8624 0.8625
2291.000000 0.8625 0.8627 0.8627 0.8628 0.8628
2286.000000 0.8630 0.8630 0.8631 0.8632 0.8633
2281.000000 0.8636 0.8639 0.8642 0.8646 0.8649
2276.000000 0.8653 0.8656 0.8660 0.8663 0.8667
2271.000000 0.8670 0.8674 0.8677 0.8681 0.8684
2266.000000 0.8688 0.8691 0.8694 0.8697 0.8700
2261.000000 0.8703 0.8706 0.8709 0.8712 0.8715
2256.000000 0.8718 0.8721 0.8724 0.8727 0.8730
2251.000000 0.8733 0.8736 0.8739 0.8742 0.8745
2246.000000 0.8748 0.8749 0.8751 0.8752 0.8754
2241.000000 0.8755 0.8757 0.8758 0.8760 0.8761
2236.000000 0.8763 0.8764 0.8766 0.8767 0.8768
2231.000000 0.8770 0.8771 0.8773 0.8775 0.8775
2226.000000 0.8775 0.8777 0.8775 0.8775 0.8774
2221.000000 0.8771 0.8771 0.8770 0.8768 0.8767
2216.000000 0.8766 0.8765 0.8764 0.8762 0.8761
2211.000000 0.8759 0.8758 0.8757 0.8756 0.8754
2206.000000 0.8753 0.8752 0.8752 0.8752 0.8752
2201.000000 0.8752 0.8753 0.8753 0.8753 0.8753
2196.000000 0.8753 0.8753 0.8754 0.8754 0.8754
2191.000000 0.8754 0.8754 0.8754 0.8754 0.8754
2186.000000 0.8754 0.8754 0.8754 0.8754 0.8754
2181.000000 0.8754 0.8754 0.8754 0.8754 0.8754
2176.000000 0.8754 0.8754 0.8754 0.8754 0.8754
2171.000000 0.8754 0.8754 0.8753 0.8753 0.8754
2166.000000 0.8755 0.8756 0.8757 0.8758 0.8759
2161.000000 0.8760 0.8762 0.8763 0.8764 0.8765
2156.000000 0.8767 0.8768 0.8768 0.8770 0.8771
2151.000000 0.8771 0.8774 0.8775 0.8775 0.8777
2146.000000 0.8778 0.8780 0.8781 0.8782 0.8783
2141.000000 0.8783 0.8784 0.8785 0.8786 0.8787
2136.000000 0.8788 0.8789 0.8790 0.8790 0.8791
2131.000000 0.8792 0.8793 0.8794 0.8795 0.8796
2126.000000 0.8797 0.8797 0.8798 0.8799 0.8800
2121.000000 0.8801 0.8802 0.8803 0.8805 0.8806
2116.000000 0.8808 0.8809 0.8810 0.8811 0.8813
2111.000000 0.8814 0.8816 0.8817 0.8818 0.8820
2106.000000 0.8821 0.8823 0.8825 0.8825 0.8827
2101.000000 0.8827 0.8828 0.8828 0.8830 0.8831
2096.000000 0.8832 0.8832 0.8833 0.8834 0.8835
2091.000000 0.8835 0.8835 0.8834 0.8833 0.8832
2086.000000 0.8831 0.8830 0.8828 0.8828 0.8827
2081.000000 0.8825 0.8825 0.8816 0.8808 0.8793
2076.000000 0.8778 0.8765 0.8753 0.8757 0.8762
2071.000000 0.8767 0.8771 0.8774 0.8777 0.8780
2066.000000 0.8783 0.8786 0.8789 0.8791 0.8794
2061.000000 0.8795 0.8796 0.8793 0.8791 0.8788
2056.000000 0.8786 0.8783 0.8781 0.8781 0.8782
2051.000000 0.8784 0.8786 0.8788 0.8790 0.8792
2046.000000 0.8794 0.8801 0.8808 0.8809 0.8811
2041.000000 0.8811 0.8811 0.8810 0.8810 0.8810
2036.000000 0.8810 0.8809 0.8809 0.8809 0.8809
2031.000000 0.8808 0.8808 0.8807 0.8807 0.8807
2026.000000 0.8807 0.8806 0.8805 0.8804 0.8803
2021.000000 0.8801 0.8800 0.8799 0.8798 0.8797
2016.000000 0.8796 0.8795 0.8794 0.8794 0.8793
2011.000000 0.8794 0.8796 0.8799 0.8802 0.8805
2006.000000 0.8808 0.8814 0.8820 0.8839 0.8858
2001.000000 0.8883 0.8909 0.8909 0.8910 0.8908
1996.000000 0.8880 0.8791 0.8702 0.8652 0.8815
1991.000000 0.8886 0.8909 0.8921 0.8934 0.8941
1986.000000 0.8946 0.8952 0.8957 0.8962 0.8962
1981.000000 0.8962 0.8964 0.8966 0.8968 0.8971
1976.000000 0.8973 0.8975 0.8977 0.8980 0.8982
1971.000000 0.8984 0.8987 0.8990 0.8993 0.8999
1966.000000 0.9005 0.9013 0.9028 0.9044 0.9055
1961.000000 0.9884 1.0043 1.0033 0.9799 0.9521
1956.000000 0.9245 0.9132 0.9113 0.9128 0.9171
1951.000000 0.9214 0.9225 0.9180 0.9134 0.9071
1946.000000 0.9071 0.9071 0.9071 0.9073 0.9073
1941.000000 0.9073 0.9073 0.9071 0.9071 0.9070
1936.000000 0.9068 0.9068 0.9068 0.9067 0.9066
1931.000000 0.9065 0.9065 0.9065 0.9065 0.9065
1926.000000 0.9065 0.9065 0.9065 0.9065 0.9064
1921.000000 0.9064 0.9064 0.9064 0.9062 0.9060
1916.000000 0.9057 0.9054 0.9051 0.9048 0.9045
1911.000000 0.9043 0.9040 0.9037 0.9034 0.9031
1906.000000 0.9031 0.9033 0.9035 0.9038 0.9040
1901.000000 0.9042 0.9043 0.9043 0.9043 0.9042
1896.000000 0.9042 0.9041 0.9041 0.9040 0.9040
1891.000000 0.9039 0.9036 0.9032 0.9028 0.9025
1886.000000 0.9021 0.9018 0.9014 0.9010 0.9007
1881.000000 0.9003 0.9001 0.9000 0.8999 0.8998
1876.000000 0.8998 0.8997 0.8996 0.8995 0.8994
1871.000000 0.8993 0.8992 0.8991 0.8990 0.8989
1866.000000 0.8988 0.8988 0.8987 0.8986 0.8985
1861.000000 0.8984 0.8983 0.8982 0.8981 0.8980
1856.000000 0.8978 0.8978 0.8978 0.8978 0.8978
1851.000000 0.8978 0.8978 0.8978 0.8980 0.8980
1846.000000 0.8981 0.8982 0.8982 0.8983 0.8983
1841.000000 0.8984 0.8984 0.8985 0.8985 0.8986
1836.000000 0.8987 0.8987 0.8988 0.8988 0.8989
1831.000000 0.8989 0.8990 0.8990 0.8991 0.8991
1826.000000 0.8992 0.8993 0.8995 0.8996 0.8998
1821.000000 0.8999 0.9000 0.9002 0.9003 0.9004
1816.000000 0.9006 0.9007 0.9009 0.9010 0.9011
1811.000000 0.9013 0.9014 0.9015 0.9017 0.9018
