##TITLE=FORMIC ACID, METHYL ESTER
##JCAMP-DX=4.24
##DATA TYPE=INFRARED SPECTRUM
##CLASS=COBLENTZ
##ORIGIN=DOW CHEMICAL COMPANY
##OWNER=COBLENTZ SOCIETY
Collection (C) 2018 copyright by the U.S. Secretary of Commerce
on behalf of the United States of America. All rights reserved.
##DATE=1964
##NAMES=methyl formate
METHYL FORMATE
##CAS REGISTRY NO=107-31-3
##MOLFORM=C2 H4 O2
##SOURCE REFERENCE=COBLENTZ NO. 8780
##$NIST SOURCE=COBLENTZ
##$NIST IMAGE=cob-r8780
##SPECTROMETER/DATA SYSTEM=DOW KBr FOREPRISM-GRATING
##INSTRUMENT PARAMETERS=GRATING CHANGED AT 5.0, 7.5, 15.0 MICRON
$$ ABSORPTIONS DUE TO METHANOL BETWEEN 1084-981 CM^-^1.
##STATE=GAS (100 mmHg, N2 ADDED, TOTAL PRESSURE 600 mmHg)
##PATH LENGTH=5 CM
$$ SPECTRAL CONTAMINATION DUE TO METHANOL AROUND 980-1085 CM^-^1
##SAMPLING PROCEDURE=TRANSMISSION
##RESOLUTION=2
##DATA PROCESSING=DIGITIZED BY NIST FROM HARD COPY (FROM TWO SEGMENTS)
##XUNITS=1/CM
##YUNITS=TRANSMITTANCE
##XFACTOR=1.000000
##YFACTOR=1
##DELTAX=0.937502
##FIRSTX=382.813
##LASTX=3753.13
##FIRSTY=0.975
##MAXX=3753.13
##MINX=382.813
##MAXY=1.005
##MINY=0
##NPOINTS=3596
##XYDATA=(X++(Y..Y))
382.813000 0.9750 0.9730 0.9730 0.9750 0.9730
387.500508 0.9730 0.9730 0.9730 0.9730 0.9720
392.188016 0.9720 0.9720 0.9720 0.9700 0.9700
396.875524 0.9670 0.9670 0.9670 0.9670 0.9670
401.563032 0.9670 0.9660 0.9660 0.9660 0.9660
406.250539 0.9660 0.9650 0.9650 0.9650 0.9650
410.938047 0.9630 0.9650 0.9650 0.9650 0.9630
415.625555 0.9630 0.9630 0.9630 0.9630 0.9620
420.313063 0.9620 0.9620 0.9620 0.9600 0.9600
425.000571 0.9600 0.9590 0.9590 0.9590 0.9590
429.688079 0.9570 0.9570 0.9560 0.9560 0.9560
434.375587 0.9560 0.9560 0.9560 0.9560 0.9540
439.063095 0.9540 0.9540 0.9540 0.9540 0.9560
443.750602 0.9560 0.9560 0.9560 0.9560 0.9560
448.438110 0.9560 0.9560 0.9570 0.9570 0.9570
453.125618 0.9590 0.9590 0.9590 0.9590 0.9590
457.813126 0.9590 0.9590 0.9590 0.9590 0.9590
462.500634 0.9590 0.9590 0.9590 0.9590 0.9590
467.188142 0.9590 0.9590 0.9590 0.9590 0.9590
471.875650 0.9590 0.9590 0.9590 0.9590 0.9590
476.563158 0.9590 0.9590 0.9600 0.9600 0.9620
481.250666 0.9620 0.9620 0.9620 0.9620 0.9620
485.938173 0.9600 0.9600 0.9590 0.9590 0.9570
490.625681 0.9570 0.9570 0.9560 0.9560 0.9560
495.313189 0.9560 0.9540 0.9540 0.9530 0.9530
500.000697 0.9530 0.9530 0.9530 0.9530 0.9530
504.688205 0.9530 0.9530 0.9510 0.9510 0.9510
509.375713 0.9510 0.9510 0.9510 0.9500 0.9500
514.063221 0.9500 0.9500 0.9500 0.9500 0.9500
518.750729 0.9500 0.9480 0.9480 0.9480 0.9480
523.438236 0.9480 0.9480 0.9480 0.9470 0.9470
528.125744 0.9470 0.9470 0.9470 0.9470 0.9460
532.813252 0.9460 0.9460 0.9460 0.9460 0.9460
537.500760 0.9460 0.9460 0.9460 0.9460 0.9470
542.188268 0.9470 0.9470 0.9470 0.9480 0.9480
546.875776 0.9480 0.9480 0.9470 0.9470 0.9470
551.563284 0.9470 0.9470 0.9470 0.9480 0.9470
556.250792 0.9470 0.9470 0.9470 0.9470 0.9470
560.938299 0.9470 0.9470 0.9470 0.9460 0.9460
565.625807 0.9460 0.9460 0.9470 0.9460 0.9460
570.313315 0.9460 0.9460 0.9460 0.9460 0.9470
575.000823 0.9470 0.9480 0.9480 0.9480 0.9500
579.688331 0.9500 0.9510 0.9510 0.9510 0.9510
584.375839 0.9530 0.9530 0.9530 0.9530 0.9530
589.063347 0.9530 0.9530 0.9540 0.9540 0.9540
593.750855 0.9530 0.9530 0.9540 0.9540 0.9540
598.438363 0.9560 0.9560 0.9560 0.9570 0.9570
603.125870 0.9570 0.9560 0.9570 0.9570 0.9570
607.813378 0.9590 0.9590 0.9590 0.9600 0.9600
612.500886 0.9590 0.9590 0.9590 0.9570 0.9570
617.188394 0.9570 0.9570 0.9570 0.9570 0.9570
621.875902 0.9570 0.9570 0.9570 0.9570 0.9570
626.563410 0.9590 0.9590 0.9600 0.9620 0.9620
631.250918 0.9630 0.9620 0.9620 0.9630 0.9630
635.938426 0.9630 0.9650 0.9650 0.9650 0.9660
640.625933 0.9670 0.9670 0.9690 0.9700 0.9730
645.313441 0.9750 0.9750 0.9760 0.9790 0.9810
650.000949 0.9810 0.9820 0.9830 0.9830 0.9850
654.688457 0.9850 0.9850 0.9850 0.9850 0.9850
659.375965 0.9850 0.9830 0.9830 0.9820 0.9830
664.063473 0.9830 0.9830 0.9830 0.9850 0.9830
668.750981 0.9850 0.9860 0.9860 0.9880 0.9890
673.438489 0.9910 0.9920 0.9920 0.9940 0.9940
678.125997 0.9940 0.9950 0.9950 0.9950 0.9950
682.813504 0.9950 0.9950 0.9950 0.9970 0.9980
687.501012 0.9980 0.9980 1.0000 1.0000 1.0000
692.188520 1.0010 1.0010 1.0010 1.0010 1.0020
696.876028 1.0020 1.0040 1.0040 1.0050 1.0050
701.563536 1.0050 1.0050 1.0050 1.0050 1.0050
706.251044 1.0050 1.0040 1.0040 1.0040 1.0040
710.938552 1.0040 1.0040 1.0050 1.0050 1.0040
715.626060 1.0040 1.0020 1.0020 1.0010 0.9980
720.313567 0.9970 0.9950 0.9940 0.9920 0.9890
725.001075 0.9860 0.9850 0.9830 0.9830 0.9790
729.688583 0.9760 0.9730 0.9700 0.9660 0.9620
734.376091 0.9600 0.9540 0.9510 0.9470 0.9410
739.063599 0.9380 0.9380 0.9280 0.9220 0.9160
743.751107 0.9060 0.8960 0.8890 0.8840 0.8770
748.438615 0.8640 0.8490 0.8360 0.8300 0.8220
753.126123 0.8030 0.7821 0.7651 0.7471 0.7331
757.813630 0.7210 0.7080 0.6960 0.6850 0.6800
762.501138 0.6760 0.6730 0.6740 0.6800 0.6860
767.188646 0.6990 0.7110 0.7740 0.7850 0.7930
771.876154 0.7940 0.8060 0.8289 0.7981 0.7721
776.563662 0.7590 0.6930 0.6740 0.6570 0.6470
781.251170 0.6380 0.6350 0.6340 0.6350 0.6420
785.938678 0.6500 0.6570 0.6610 0.6770 0.6920
790.626186 0.7010 0.7090 0.7210 0.7469 0.7908
795.313694 0.8100 0.8250 0.8380 0.8480 0.8580
800.001201 0.8680 0.8770 0.8840 0.8950 0.9000
804.688709 0.9090 0.9150 0.9180 0.9210 0.9300
809.376217 0.9370 0.9400 0.9430 0.9480 0.9510
814.063725 0.9560 0.9600 0.9620 0.9630 0.9660
818.751233 0.9670 0.9700 0.9730 0.9750 0.9760
823.438741 0.9780 0.9790 0.9810 0.9810 0.9810
828.126249 0.9810 0.9820 0.9820 0.9820 0.9820
832.813757 0.9820 0.9820 0.9820 0.9820 0.9820
837.501264 0.9820 0.9820 0.9820 0.9820 0.9820
842.188772 0.9810 0.9810 0.9810 0.9810 0.9810
846.876280 0.9790 0.9790 0.9790 0.9780 0.9780
851.563788 0.9760 0.9760 0.9750 0.9750 0.9700
856.251296 0.9700 0.9690 0.9670 0.9660 0.9650
860.938804 0.9630 0.9630 0.9600 0.9590 0.9560
865.626312 0.9540 0.9530 0.9500 0.9480 0.9440
870.313820 0.9430 0.9410 0.9400 0.9370 0.9280
875.001328 0.9210 0.9160 0.9090 0.9000 0.8970
879.688835 0.8950 0.8840 0.8790 0.8700 0.8580
884.376343 0.8480 0.8390 0.8290 0.8190 0.8061
889.063851 0.7950 0.7810 0.7630 0.7530 0.7410
893.751359 0.6891 0.6790 0.6640 0.6501 0.6311
898.438867 0.6060 0.5860 0.5650 0.5420 0.5160
903.126375 0.4920 0.4671 0.4461 0.3902 0.3542
907.813883 0.3350 0.3140 0.2900 0.2880 0.2900
912.501391 0.2940 0.3040 0.3130 0.3170 0.3170
917.188898 0.3230 0.3260 0.3300 0.3320 0.3460
921.876406 0.3480 0.3859 0.4239 0.4250 0.4369
926.563914 0.4370 0.3920 0.3810 0.3730 0.3171
931.251422 0.2601 0.2401 0.2390 0.2400 0.2430
935.938930 0.2470 0.2500 0.2550 0.2690 0.2940
940.626438 0.3070 0.3409 0.3609 0.3889 0.4029
945.313946 0.4160 0.4440 0.4720 0.5000 0.5270
950.001454 0.5549 0.5829 0.6099 0.6439 0.6659
954.688961 0.6820 0.6930 0.7010 0.7080 0.7250
959.376469 0.7440 0.7620 0.7760 0.7870 0.8129
964.063977 0.8290 0.8360 0.8410 0.8520 0.8570
968.751485 0.8650 0.8730 0.8770 0.8800 0.8830
973.438993 0.8950 0.9030 0.9050 0.9050 0.9060
978.126501 0.9060 0.9060 0.9060 0.9050 0.9050
982.814009 0.9020 0.9000 0.8990 0.8970 0.8960
987.501517 0.8950 0.8900 0.8870 0.8860 0.8840
992.189025 0.8800 0.8790 0.8680 0.8620 0.8610
996.876532 0.8580 0.8570 0.8490 0.8420 0.8410
1001.564040 0.8380 0.8300 0.8200 0.8190 0.8140
1006.251548 0.8100 0.8060 0.8040 0.8030 0.8010
1010.939056 0.8000 0.8000 0.7980 0.7980 0.7980
1015.626564 0.7980 0.8000 0.8000 0.8010 0.8030
1020.314072 0.8070 0.8130 0.8170 0.8230 0.8290
1025.001580 0.8300 0.8390 0.8450 0.8460 0.8480
1029.689088 0.8480 0.8460 0.8450 0.8300 0.7870
1034.376595 0.6862 0.5114 0.6895 0.7518 0.8108
1039.064103 0.8420 0.8440 0.8440 0.8420 0.8350
1043.751611 0.8230 0.8130 0.8000 0.7870 0.7591
1048.439119 0.7530 0.7460 0.7390 0.7310 0.7240
1053.126627 0.7170 0.7090 0.7010 0.6990 0.7010
1057.814135 0.7020 0.7060 0.7090 0.7140 0.7180
1062.501643 0.7200 0.7250 0.7310 0.7370 0.7430
1067.189151 0.7460 0.7620 0.7710 0.7790 0.7850
1071.876659 0.7880 0.7930 0.7940 0.7980 0.8040
1076.564166 0.8090 0.8140 0.8200 0.8250 0.8270
1081.251674 0.8270 0.8290 0.8290 0.8290 0.8290
1085.939182 0.8270 0.8260 0.8230 0.8220 0.8190
1090.626690 0.8140 0.8110 0.8090 0.8060 0.8000
1095.314198 0.7950 0.7880 0.7840 0.7810 0.7750
1100.001706 0.7680 0.7650 0.7600 0.7520 0.7440
1104.689214 0.7360 0.7300 0.7250 0.7200 0.7120
1109.376722 0.6950 0.6920 0.6830 0.6730 0.6610
1114.064229 0.6500 0.6390 0.6280 0.6160 0.6060
1118.751737 0.5940 0.5810 0.5690 0.5580 0.5341
1123.439245 0.5180 0.5100 0.4980 0.4780 0.4540
1128.126753 0.4221 0.3971 0.3771 0.3351 0.2553
1132.814261 0.2440 0.2250 0.2010 0.1760 0.1510
1137.501769 0.1310 0.1150 0.0801 0.0481 0.0271
1142.189277 0.0040 0.0010 0.0010 0.0010 0.0000
1146.876785 0.0000 0.0000 0.0000 0.0000 0.0000
1151.564292 0.0000 0.0000 0.0000 0.0000 0.0000
1156.251800 0.0000 0.0000 0.0000 0.0000 0.0000
1160.939308 0.0000 0.0000 0.0000 0.0000 0.0000
1165.626816 0.0000 0.0000 0.0000 0.0000 0.0000
1170.314324 0.0000 0.0000 0.0000 0.0000 0.0000
1175.001832 0.0000 0.0000 0.0000 0.0000 0.0000
1179.689340 0.0000 0.0000 0.0000 0.0000 0.0000
1184.376848 0.0000 0.0010 0.0010 0.0010 0.0010
1189.064356 0.0010 0.0010 0.0010 0.0010 0.0010
1193.751863 0.0010 0.0010 0.0010 0.0010 0.0010
1198.439371 0.0010 0.0010 0.0010 0.0010 0.0010
1203.126879 0.0010 0.0010 0.0010 0.0010 0.0000
1207.814387 0.0000 0.0000 0.0010 0.0020 0.0020
1212.501895 0.0020 0.0020 0.0020 0.0010 0.0000
1217.189403 0.0000 0.0010 0.0010 0.0010 0.0010
1221.876911 0.0010 0.0020 0.0040 0.0040 0.0070
1226.564419 0.0080 0.0080 0.0100 0.0130 0.0170
1231.251926 0.0210 0.0290 0.0390 0.0490 0.0580
1235.939434 0.0640 0.0710 0.0780 0.0810 0.0930
1240.626942 0.1040 0.1120 0.1349 0.1410 0.1470
1245.314450 0.1540 0.1570 0.1610 0.1660 0.1690
1250.001958 0.1730 0.1790 0.2049 0.2229 0.2310
1254.689466 0.2370 0.2630 0.3000 0.3360 0.3700
1259.376974 0.3960 0.4110 0.4240 0.4479 0.4749
1264.064482 0.5010 0.5270 0.5520 0.5750 0.5990
1268.751990 0.6200 0.6350 0.6470 0.6659 0.6799
1273.439497 0.6950 0.7020 0.7080 0.7200 0.7310
1278.127005 0.7400 0.7490 0.7580 0.7660 0.7740
1282.814513 0.7810 0.7900 0.7970 0.8060 0.8140
1287.502021 0.8230 0.8330 0.8360 0.8440 0.8619
1292.189529 0.8650 0.8700 0.8700 0.8700 0.8680
1296.877037 0.8680 0.8670 0.8670 0.8650 0.8640
1301.564545 0.8620 0.8610 0.8600 0.8600 0.8600
1306.252053 0.8600 0.8600 0.8610 0.8610 0.8620
1310.939560 0.8640 0.8650 0.8670 0.8680 0.8680
1315.627068 0.8680 0.8680 0.8670 0.8670 0.8670
1320.314576 0.8650 0.8650 0.8640 0.8610 0.8570
1325.002084 0.8540 0.8520 0.8490 0.8460 0.8460
1329.689592 0.8450 0.8390 0.8360 0.8350 0.8260
1334.377100 0.8230 0.8220 0.8190 0.8110 0.8090
1339.064608 0.8090 0.8070 0.8060 0.8040 0.8030
1343.752116 0.8000 0.8000 0.7950 0.7950 0.7940
1348.439623 0.7940 0.7940 0.7940 0.7940 0.7720
1353.127131 0.7690 0.7680 0.7660 0.7660 0.7630
1357.814639 0.7620 0.7600 0.7600 0.7600 0.7600
1362.502147 0.7620 0.7630 0.7650 0.7690 0.7750
1367.189655 0.7790 0.7870 0.7970 0.7980 0.8010
1371.877163 0.8030 0.8030 0.8010 0.8010 0.7980
1376.564671 0.7970 0.7950 0.7950 0.7950 0.7950
1381.252179 0.7970 0.7980 0.8000 0.8000 0.8010
1385.939687 0.8030 0.8030 0.8040 0.8060 0.8060
1390.627194 0.8070 0.8090 0.8090 0.8100 0.8100
1395.314702 0.8110 0.8110 0.8110 0.8130 0.8130
1400.002210 0.8130 0.8130 0.8130 0.8130 0.8130
1404.689718 0.8130 0.8110 0.8110 0.8090 0.8070
1409.377226 0.8060 0.8030 0.8000 0.7930 0.7820
1414.064734 0.7750 0.7650 0.7600 0.7490 0.7430
1418.752242 0.7310 0.7170 0.6851 0.6690 0.6550
1423.439750 0.6440 0.6350 0.6180 0.6020 0.5900
1428.127257 0.5780 0.5640 0.5450 0.5330 0.5260
1432.814765 0.5160 0.5080 0.5050 0.5040 0.5020
1437.502273 0.4910 0.4820 0.4810 0.4850 0.4820
1442.189781 0.4308 0.3390 0.3200 0.3000 0.3040
1446.877289 0.3060 0.3090 0.3100 0.3110 0.3140
1451.564797 0.3190 0.3219 0.2660 0.2370 0.2650
1456.252305 0.2910 0.3140 0.3549 0.3640 0.3760
1460.939813 0.3890 0.3990 0.4080 0.4500 0.4510
1465.627321 0.4510 0.3931 0.4080 0.4220 0.4270
1470.314828 0.4851 0.5301 0.5800 0.5770 0.5400
1475.002336 0.5390 0.5400 0.5490 0.5510 0.5510
1479.689844 0.5610 0.5650 0.5750 0.5880 0.6060
1484.377352 0.6230 0.6290 0.6340 0.6470 0.6540
1489.064860 0.6700 0.6820 0.6920 0.7010 0.7120
1493.752368 0.7280 0.7460 0.7500 0.7550 0.7600
1498.439876 0.7620 0.7660 0.7720 0.7750 0.7810
1503.127384 0.7870 0.7870 0.7900 0.7900 0.7880
1507.814891 0.7810 0.7810 0.7850 0.7910 0.8040
1512.502399 0.8140 0.8160 0.8170 0.8170 0.8190
1517.189907 0.8200 0.8200 0.8200 0.8200 0.8190
1521.877415 0.8160 0.8130 0.8110 0.8130 0.8220
1526.564923 0.8220 0.8230 0.8230 0.8250 0.8260
1531.252431 0.8260 0.8250 0.8230 0.8200 0.8190
1535.939939 0.8140 0.8160 0.8170 0.8200 0.8170
1540.627447 0.7970 0.7940 0.7950 0.8000 0.8110
1545.314955 0.8160 0.8190 0.8200 0.8220 0.8270
1550.002462 0.8300 0.8330 0.8330 0.8290 0.8260
1554.689970 0.8290 0.8350 0.8350 0.8320 0.8250
1559.377478 0.8190 0.8110 0.8060 0.8110 0.8200
1564.064986 0.8290 0.8360 0.8380 0.8380 0.8380
1568.752494 0.8360 0.8350 0.8300 0.8300 0.8330
1573.440002 0.8460 0.8480 0.8440 0.8420 0.8410
1578.127510 0.8440 0.8510 0.8610 0.8650 0.8670
1582.815018 0.8680 0.8730 0.8760 0.8760 0.8760
1587.502525 0.8760 0.8770 0.8770 0.8770 0.8770
1592.190033 0.8770 0.8790 0.8790 0.8810 0.8810
1596.877541 0.8830 0.8830 0.8840 0.8840 0.8860
1601.565049 0.8870 0.8930 0.8950 0.8960 0.8960
1606.252557 0.8960 0.8970 0.8970 0.8990 0.9020
1610.940065 0.9020 0.9030 0.9050 0.9080 0.9090
1615.627573 0.9090 0.9080 0.9090 0.8890 0.8890
1620.315081 0.9110 0.9120 0.9120 0.9080 0.9050
1625.002588 0.9060 0.9130 0.9150 0.9150 0.9160
1629.690096 0.9160 0.9180 0.9180 0.9180 0.9180
1634.377604 0.9180 0.9000 0.8970 0.8990 0.9050
1639.065112 0.9160 0.9160 0.9180 0.9180 0.9180
1643.752620 0.9160 0.9160 0.9150 0.9110 0.9080
1648.440128 0.9000 0.9110 0.9120 0.9120 0.9060
1653.127636 0.8870 0.8650 0.8840 0.8900 0.9000
1657.815144 0.9120 0.9150 0.9150 0.9150 0.9130
1662.502652 0.9110 0.9060 0.9030 0.9000 0.8960
1667.190159 0.9020 0.8990 0.8960 0.8810 0.8790
1671.877667 0.8800 0.8890 0.8840 0.8830 0.8641
1676.565175 0.8580 0.8610 0.8670 0.8710 0.8700
1681.252683 0.8680 0.8670 0.8580 0.8380 0.8171
1685.940191 0.8140 0.8170 0.8380 0.8390 0.8350
1690.627699 0.8160 0.8140 0.8100 0.7661 0.7590
1695.315207 0.7660 0.7629 0.7250 0.6980 0.6950
1700.002715 0.6890 0.6570 0.6350 0.6160 0.6030
1704.690222 0.5860 0.5710 0.5580 0.5390 0.5300
1709.377730 0.5240 0.5130 0.5070 0.4851 0.4531
1714.065238 0.3829 0.3330 0.3270 0.3250 0.3220
1718.752746 0.2880 0.2411 0.2300 0.1542 0.1161
1723.440254 0.0929 0.0679 0.0320 0.0070 0.0040
1728.127762 0.0040 0.0020 0.0010 0.0010 0.0010
1732.815270 0.0010 0.0010 0.0010 0.0010 0.0010
1737.502778 0.0010 0.0010 0.0010 0.0010 0.0010
1742.190286 0.0010 0.0010 0.0010 0.0010 0.0010
1746.877793 0.0010 0.0010 0.0010 0.0010 0.0010
1751.565301 0.0010 0.0010 0.0010 0.0010 0.0010
1756.252809 0.0010 0.0020 0.0020 0.0020 0.0020
1760.940317 0.0020 0.0020 0.0020 0.0020 0.0020
1765.627825 0.0040 0.0040 0.0040 0.0040 0.0040
1770.315333 0.0040 0.0040 0.0040 0.0050 0.0070
1775.002841 0.0080 0.0080 0.0100 0.0130 0.0270
1779.690349 0.0331 0.0880 0.1040 0.1190 0.1320
1784.377856 0.1540 0.1880 0.2209 0.2549 0.2899
1789.065364 0.3251 0.3581 0.3930 0.4110 0.4270
1793.752872 0.4590 0.4910 0.5230 0.5529 0.5809
1798.440380 0.6091 0.6340 0.6550 0.6740 0.6980
1803.127888 0.7090 0.7200 0.7440 0.7650 0.7790
1807.815396 0.7930 0.8010 0.8090 0.8160 0.8220
1812.502904 0.8260 0.8320 0.8360 0.8380 0.8390
1817.190412 0.8390 0.8410 0.8410 0.8420 0.8420
1821.877919 0.8420 0.8420 0.8380 0.8380 0.8360
1826.565427 0.8360 0.8360 0.8360 0.8380 0.8380
1831.252935 0.8410 0.8440 0.8450 0.8450 0.8480
1835.940443 0.8480 0.8480 0.8480 0.8480 0.8460
1840.627951 0.8460 0.8460 0.8450 0.8420 0.8380
1845.315459 0.8420 0.8440 0.8450 0.8450 0.8450
1850.002967 0.8460 0.8460 0.8480 0.8520 0.8550
1854.690475 0.8570 0.8600 0.8620 0.8670 0.8730
1859.377983 0.8740 0.8790 0.8810 0.8840 0.8930
1864.065490 0.8960 0.8970 0.9000 0.9000 0.9020
1868.752998 0.9030 0.9050 0.9080 0.9110 0.9110
1873.440506 0.9120 0.9150 0.9160 0.9180 0.9190
1878.128014 0.9220 0.9240 0.9240 0.9240 0.9250
1882.815522 0.9250 0.9250 0.9270 0.9270 0.9270
1887.503030 0.9270 0.9250 0.9250 0.9250 0.9250
1892.190538 0.9250 0.9240 0.9220 0.9220 0.9220
1896.878046 0.9220 0.9210 0.9190 0.9190 0.9180
1901.565553 0.9180 0.9160 0.9150 0.9150 0.9130
1906.253061 0.9120 0.9110 0.9110 0.9090 0.9080
1910.940569 0.9060 0.9050 0.9030 0.9020 0.9020
1915.628077 0.9000 0.8990 0.8970 0.8960 0.8950
1920.315585 0.8930 0.8930 0.8920 0.8920 0.8900
1925.003093 0.8900 0.8900 0.8900 0.8920 0.8920
1929.690601 0.8930 0.8930 0.8930 0.8950 0.8960
1934.378109 0.8960 0.8950 0.8950 0.8860 0.8830
1939.065617 0.8800 0.8790 0.8790 0.8790 0.8790
1943.753124 0.8800 0.8800 0.8810 0.8810 0.8810
1948.440632 0.8830 0.8830 0.8830 0.8830 0.8810
1953.128140 0.8810 0.8800 0.8800 0.8770 0.8770
1957.815648 0.8760 0.8740 0.8730 0.8730 0.8730
1962.503156 0.8710 0.8710 0.8710 0.8710 0.8730
1967.190664 0.8730 0.8730 0.8740 0.8740 0.8760
1971.878172 0.8790 0.8810 0.8800 0.8800 0.8790
1976.565680 0.8550 0.8410 0.8330 0.8410 0.8840
1981.253187 0.8840 0.8770 0.8710 0.8670 0.8640
1985.940695 0.8640 0.8640 0.8650 0.8650 0.8670
1990.628203 0.8710 0.8740 0.8770 0.8810 0.8840
1995.315711 0.8860 0.8890 0.8900 0.8920 0.8930
2000.003219 0.8960 0.8960 0.8960 0.8960 0.8960
2004.690727 0.8965 0.8970 0.8970 0.8970 0.8980
2009.378235 0.8990 0.8990 0.8990 0.8990 0.8990
2014.065743 0.8990 0.8990 0.8990 0.8990 0.8990
2018.753250 0.8990 0.8990 0.8990 0.8990 0.8990
2023.440758 0.8990 0.8990 0.8990 0.8990 0.8990
2028.128266 0.8990 0.8990 0.8990 0.8981 0.8971
2032.815774 0.8970 0.8970 0.8965 0.8961 0.8960
2037.503282 0.8960 0.8955 0.8950 0.8941 0.8931
2042.190790 0.8926 0.8921 0.8911 0.8901 0.8882
2046.878298 0.8862 0.8851 0.8841 0.8823 0.8803
2051.565806 0.8783 0.8763 0.8734 0.8704 0.8666
2056.253314 0.8625 0.8590 0.8555 0.8533 0.8513
2060.940821 0.8497 0.8482 0.8429 0.8369 0.8280
2065.628329 0.8186 0.8099 0.8014 0.7988 0.7973
2070.315837 0.7962 0.7952 0.7881 0.7796 0.7739
2075.003345 0.7689 0.7639 0.7589 0.7568 0.7553
2079.690853 0.7542 0.7532 0.7530 0.7530 0.7538
2084.378361 0.7548 0.7562 0.7577 0.7596 0.7616
2089.065869 0.7585 0.7540 0.7495 0.7451 0.7421
2093.753377 0.7396 0.7316 0.7221 0.7273 0.7368
2098.440884 0.7463 0.7557 0.7622 0.7676 0.7698
2103.128392 0.7707 0.7729 0.7754 0.7793 0.7838
2107.815900 0.7887 0.7936 0.7968 0.7993 0.8015
2112.503408 0.8035 0.8047 0.8057 0.8038 0.8008
2117.190916 0.7993 0.7983 0.7976 0.7971 0.7974
2121.878424 0.7979 0.7990 0.8005 0.8020 0.8035
2126.565932 0.8037 0.8032 0.8013 0.7988 0.7953
2131.253440 0.7912 0.7859 0.7799 0.7739 0.7679
2135.940948 0.7660 0.7660 0.7890 0.8234 0.8350
2140.628455 0.8350 0.8216 0.8011 0.7930 0.7915
2145.315963 0.7916 0.7926 0.8013 0.8142 0.8200
2150.003471 0.8215 0.8243 0.8277 0.8373 0.8502
2154.690979 0.8600 0.8680 0.8719 0.8734 0.8762
2159.378487 0.8797 0.8819 0.8834 0.8855 0.8880
2164.065995 0.8893 0.8898 0.8900 0.8900 0.8897
2168.753503 0.8892 0.8890 0.8890 0.8899 0.8914
2173.441011 0.8932 0.8952 0.8995 0.9055 0.9080
2178.128518 0.9080 0.9083 0.9088 0.9096 0.9106
2182.816026 0.9116 0.9125 0.9135 0.9145 0.9150
2187.503534 0.9150 0.9153 0.9158 0.9160 0.9160
2192.191042 0.9165 0.9175 0.9180 0.9180 0.9183
2196.878550 0.9188 0.9190 0.9190 0.9195 0.9205
2201.566058 0.9210 0.9210 0.9213 0.9217 0.9220
2206.253566 0.9220 0.9220 0.9220 0.9220 0.9220
2210.941074 0.9220 0.9220 0.9225 0.9235 0.9240
2215.628581 0.9240 0.9240 0.9240 0.9240 0.9240
2220.316089 0.9240 0.9240 0.9240 0.9240 0.9240
2225.003597 0.9240 0.9240 0.9240 0.9240 0.9240
2229.691105 0.9240 0.9240 0.9240 0.9240 0.9240
2234.378613 0.9240 0.9240 0.9240 0.9240 0.9240
2239.066121 0.9240 0.9240 0.9240 0.9240 0.9240
2243.753629 0.9240 0.9240 0.9240 0.9236 0.9226
2248.441137 0.9220 0.9220 0.9220 0.9220 0.9218
2253.128645 0.9213 0.9210 0.9210 0.9210 0.9210
2257.816152 0.9206 0.9196 0.9190 0.9190 0.9190
2262.503660 0.9190 0.9188 0.9183 0.9176 0.9166
2267.191168 0.9160 0.9160 0.9160 0.9160 0.9158
2271.878676 0.9153 0.9150 0.9150 0.9147 0.9137
