##TITLE=BUTANOIC ACID
##JCAMP-DX=4.24
##DATA TYPE=INFRARED SPECTRUM
##CLASS=COBLENTZ III
##ORIGIN=DOW CORNING CORP.
##OWNER=COBLENTZ SOCIETY
Collection (C) 2018 copyright by the U.S. Secretary of Commerce
on behalf of the United States of America. All rights reserved.
##DATE=1966
##NAMES=butyric acid
##CAS REGISTRY NO=107-92-6
##MOLFORM=C4 H8 O2
##SOURCE REFERENCE=COBLENTZ NO. 4820
##$NIST SOURCE=COBLENTZ
##$NIST IMAGE=cob4820
##SPECTROMETER/DATA SYSTEM=PERKIN-ELMER 521 (GRATING)
##INSTRUMENT PARAMETERS=FILTERS AT 3150, 2500, 2000, 1150, 700, 410; GRATING CHANGES AT 2000, 630 CM^-^1
##STATE=SOLUTION (10% IN CCl4 FOR 3800-1300, 10% IN CS2 FOR 1300-650, 10% IN CCl4 FOR 650-250 CM^-^1) VERSUS SOLVENT
##PATH LENGTH=0.011, 0.010, AND 0.011 CM (CsBr CELL)
$$ PURITY 97% BY GLC
##SAMPLING PROCEDURE=TRANSMISSION
##RESOLUTION=4
##DATA PROCESSING=DIGITIZED BY NIST FROM HARD COPY (FROM TWO SEGMENTS)
##XUNITS=1/CM
##YUNITS=TRANSMITTANCE
##XFACTOR=1.000000
##YFACTOR=1
##DELTAX=0.983071
##FIRSTX=254.069
##LASTX=3798.04
##FIRSTY=0.745
##MAXX=3798.04
##MINX=254.069
##MAXY=0.895
##MINY=0
##NPOINTS=3606
##XYDATA=(X++(Y..Y))
254.069000 0.7450 0.7450 0.7450 0.7450 0.7450
258.984357 0.7440 0.7440 0.7430 0.7430 0.7430
263.899714 0.7430 0.7440 0.7430 0.7430 0.7410
268.815070 0.7410 0.7400 0.7400 0.7400 0.7400
273.730427 0.7400 0.7400 0.7410 0.7410 0.7410
278.645784 0.7410 0.7410 0.7410 0.7400 0.7390
283.561141 0.7370 0.7370 0.7370 0.7370 0.7370
288.476498 0.7390 0.7400 0.7400 0.7400 0.7430
293.391854 0.7440 0.7520 0.7600 0.7630 0.7660
298.307211 0.7710 0.7760 0.7820 0.7860 0.7900
303.222568 0.7900 0.7910 0.7970 0.7980 0.8010
308.137925 0.8020 0.8060 0.8090 0.8110 0.8130
313.053282 0.8130 0.8130 0.8130 0.8130 0.8130
317.968639 0.8110 0.8110 0.8110 0.8100 0.8100
322.883995 0.8100 0.8090 0.8090 0.8090 0.8070
327.799352 0.8070 0.8070 0.8060 0.8050 0.8030
332.714709 0.8010 0.7990 0.7980 0.7970 0.7970
337.630066 0.7950 0.7940 0.7910 0.7900 0.7870
342.545423 0.7820 0.7780 0.7750 0.7720 0.7680
347.460779 0.7660 0.7640 0.7600 0.7560 0.7540
352.376136 0.7520 0.7470 0.7410 0.7390 0.7360
357.291493 0.7310 0.7290 0.7270 0.7250 0.7250
362.206850 0.7250 0.7270 0.7270 0.7280 0.7290
367.122207 0.7290 0.7310 0.7320 0.7320 0.7330
372.037563 0.7350 0.7360 0.7370 0.7400 0.7440
376.952920 0.7500 0.7510 0.7560 0.7620 0.7680
381.868277 0.7700 0.7710 0.7740 0.7820 0.7870
386.783634 0.7930 0.7950 0.7980 0.7980 0.7990
391.698991 0.8010 0.8010 0.8020 0.8030 0.8050
396.614348 0.8050 0.8060 0.8060 0.8060 0.8060
401.529704 0.8060 0.8060 0.8060 0.8050 0.8050
406.445061 0.8050 0.8050 0.8050 0.8050 0.8050
411.360418 0.8060 0.8070 0.8070 0.8070 0.8070
416.275775 0.8070 0.8070 0.8060 0.8060 0.8050
421.191132 0.8050 0.8030 0.8020 0.8010 0.7990
426.106488 0.7990 0.7980 0.7970 0.7950 0.7940
431.021845 0.7910 0.7900 0.7900 0.7880 0.7870
435.937202 0.7860 0.7860 0.7860 0.7860 0.7840
440.852559 0.7820 0.7800 0.7790 0.7780 0.7750
445.767916 0.7720 0.7720 0.7710 0.7670 0.7620
450.683272 0.7600 0.7580 0.7550 0.7480 0.7440
455.598629 0.7360 0.7280 0.7200 0.7120 0.7090
460.513986 0.7000 0.6980 0.6920 0.6840 0.6810
465.429343 0.6780 0.6770 0.6730 0.6720 0.6650
470.344700 0.6550 0.6530 0.6490 0.6410 0.6380
475.260056 0.6340 0.6190 0.6080 0.5960 0.5841
480.175413 0.5760 0.5730 0.5530 0.5480 0.5430
485.090770 0.5400 0.5380 0.5380 0.5380 0.5400
490.006127 0.5470 0.5520 0.5570 0.5630 0.5690
494.921484 0.5770 0.5910 0.5940 0.6000 0.6070
499.836841 0.6150 0.6230 0.6330 0.6350 0.6370
504.752197 0.6420 0.6500 0.6570 0.6630 0.6700
509.667554 0.6780 0.6900 0.6940 0.6960 0.7020
514.582911 0.7060 0.7130 0.7210 0.7270 0.7330
519.498268 0.7360 0.7400 0.7450 0.7480 0.7520
524.413625 0.7550 0.7600 0.7620 0.7630 0.7670
529.328981 0.7680 0.7700 0.7710 0.7720 0.7740
534.244338 0.7750 0.7760 0.7780 0.7780 0.7790
539.159695 0.7800 0.7800 0.7800 0.7820 0.7820
544.075052 0.7820 0.7820 0.7820 0.7820 0.7800
548.990409 0.7800 0.7800 0.7790 0.7790 0.7790
553.905765 0.7790 0.7790 0.7790 0.7780 0.7780
558.821122 0.7780 0.7780 0.7780 0.7760 0.7750
563.736479 0.7740 0.7720 0.7710 0.7700 0.7680
568.651836 0.7670 0.7640 0.7620 0.7590 0.7580
573.567193 0.7560 0.7550 0.7480 0.7450 0.7450
578.482550 0.7400 0.7320 0.7290 0.7280 0.7200
583.397906 0.7150 0.7130 0.7040 0.6970 0.6970
588.313263 0.6940 0.6800 0.6740 0.6690 0.6630
593.228620 0.6610 0.6610 0.6580 0.6570 0.6550
598.143977 0.6540 0.6540 0.6540 0.6540 0.6550
603.059334 0.6570 0.6580 0.6590 0.6590 0.6620
607.974690 0.6630 0.6650 0.6680 0.6690 0.6700
612.890047 0.6720 0.6730 0.6740 0.6760 0.6770
617.805404 0.6780 0.6810 0.6820 0.6840 0.6850
622.720761 0.6860 0.6880 0.6890 0.6900 0.6920
627.636118 0.6920 0.6930 0.6960 0.6970 0.6980
632.551474 0.6980 0.7000 0.7020 0.7060 0.7110
637.466831 0.7130 0.7150 0.7160 0.7190 0.7190
642.382188 0.7230 0.7240 0.7240 0.7240 0.7240
647.297545 0.7250 0.7250 0.7250 0.7250 0.7250
652.212902 0.7250 0.7250 0.7240 0.7240 0.7230
657.128258 0.7230 0.7210 0.7210 0.7200 0.7170
662.043615 0.7170 0.7160 0.7160 0.7150 0.7150
666.958972 0.7130 0.7130 0.7130 0.7120 0.7110
671.874329 0.7080 0.7060 0.7050 0.7040 0.7020
676.789686 0.7010 0.7010 0.7010 0.7020 0.7020
681.705043 0.7040 0.7040 0.7060 0.7120 0.7130
686.620399 0.7160 0.7190 0.7200 0.7210 0.7310
691.535756 0.7320 0.7350 0.7410 0.7450 0.7520
696.451113 0.7580 0.7620 0.7670 0.7700 0.7740
701.366470 0.7780 0.7800 0.7820 0.7860 0.7880
706.281827 0.7910 0.7910 0.7930 0.7950 0.7970
711.197183 0.7980 0.7980 0.7980 0.7990 0.7990
716.112540 0.7990 0.7990 0.8010 0.8010 0.8010
721.027897 0.7990 0.7990 0.7990 0.7990 0.7990
725.943254 0.7990 0.8010 0.7990 0.7990 0.7990
730.858611 0.7980 0.7980 0.7980 0.7970 0.7970
735.773967 0.7970 0.7950 0.7950 0.7950 0.7930
740.689324 0.7900 0.7880 0.7870 0.7830 0.7800
745.604681 0.7790 0.7670 0.7630 0.7450 0.7330
750.520038 0.7200 0.7110 0.6901 0.6880 0.6880
755.435395 0.6890 0.6920 0.6940 0.6970 0.7000
760.350752 0.7020 0.7040 0.7060 0.7090 0.7120
765.266108 0.7120 0.7090 0.7050 0.6980 0.6900
770.181465 0.6850 0.6780 0.6660 0.6570 0.6371
775.096822 0.6230 0.5940 0.5790 0.5590 0.5181
780.012179 0.4970 0.4830 0.4750 0.4730 0.4710
784.927536 0.4730 0.4820 0.4900 0.5040 0.5290
789.842892 0.5670 0.6149 0.6290 0.6380 0.6549
794.758249 0.6730 0.6800 0.6820 0.6920 0.6960
799.673606 0.7020 0.7080 0.7120 0.7160 0.7170
804.588963 0.7190 0.7190 0.7200 0.7200 0.7210
809.504320 0.7210 0.7210 0.7200 0.7200 0.7170
814.419676 0.7170 0.7160 0.7130 0.7120 0.7110
819.335033 0.7090 0.7080 0.7060 0.7050 0.7040
824.250390 0.7020 0.7020 0.7000 0.6970 0.6970
829.165747 0.6960 0.6940 0.6920 0.6890 0.6880
834.081104 0.6860 0.6860 0.6850 0.6840 0.6820
838.996460 0.6760 0.6700 0.6680 0.6650 0.6630
843.911817 0.6610 0.6590 0.6580 0.6570 0.6570
848.827174 0.6510 0.6450 0.6390 0.6340 0.6270
853.742531 0.6230 0.6200 0.6190 0.6110 0.6040
858.657888 0.5990 0.5810 0.5730 0.5650 0.5600
863.573245 0.5470 0.5300 0.5260 0.5200 0.5180
868.488601 0.5160 0.5120 0.5080 0.5020 0.4980
873.403958 0.4940 0.4910 0.4850 0.4790 0.4730
878.319315 0.4700 0.4580 0.4500 0.4420 0.4360
883.234672 0.4260 0.4160 0.4030 0.3970 0.3910
888.150029 0.3880 0.3870 0.3850 0.3840 0.3840
893.065385 0.3830 0.3830 0.3810 0.3810 0.3770
897.980742 0.3750 0.3660 0.3580 0.3540 0.3480
902.896099 0.3420 0.3400 0.3330 0.3290 0.3170
907.811456 0.3140 0.3100 0.2940 0.2761 0.2720
912.726813 0.2670 0.2580 0.2510 0.2390 0.2310
917.642169 0.2280 0.2230 0.2080 0.1881 0.1780
922.557526 0.1740 0.1730 0.1680 0.1650 0.1610
927.472883 0.1580 0.1530 0.1420 0.1370 0.1310
932.388240 0.1290 0.1260 0.1250 0.1230 0.1230
937.303597 0.1230 0.1230 0.1250 0.1260 0.1290
942.218954 0.1330 0.1370 0.1420 0.1430 0.1530
947.134310 0.1530 0.1570 0.1610 0.1630 0.1680
952.049667 0.1780 0.1810 0.1960 0.2130 0.2200
956.965024 0.2290 0.2410 0.2540 0.2739 0.2880
961.880381 0.2990 0.3140 0.3290 0.3380 0.3480
966.795738 0.3560 0.3800 0.3999 0.4179 0.4389
971.711094 0.4440 0.4580 0.4710 0.4850 0.4950
976.626451 0.5020 0.5130 0.5210 0.5429 0.5649
981.541808 0.5720 0.5790 0.5910 0.5990 0.6080
986.457165 0.6150 0.6200 0.6270 0.6350 0.6430
991.372522 0.6590 0.6630 0.6700 0.6780 0.6810
996.287878 0.6880 0.6940 0.7000 0.7040 0.7090
1001.203235 0.7130 0.7170 0.7210 0.7280 0.7310
1006.118592 0.7330 0.7350 0.7370 0.7440 0.7470
1011.033949 0.7590 0.7620 0.7630 0.7700 0.7710
1015.949306 0.7710 0.7720 0.7720 0.7720 0.7720
1020.864662 0.7720 0.7720 0.7720 0.7720 0.7710
1025.780019 0.7710 0.7700 0.7670 0.7670 0.7660
1030.695376 0.7660 0.7620 0.7580 0.7550 0.7520
1035.610733 0.7470 0.7350 0.7310 0.7290 0.7200
1040.526090 0.7130 0.7080 0.6980 0.6960 0.6940
1045.441447 0.6960 0.6960 0.6970 0.6970 0.7000
1050.356803 0.7020 0.7050 0.7060 0.7080 0.7120
1055.272160 0.7150 0.7170 0.7200 0.7210 0.7210
1060.187517 0.7210 0.7210 0.7210 0.7200 0.7190
1065.102874 0.7170 0.7130 0.7080 0.7020 0.7000
1070.018231 0.6880 0.6770 0.6720 0.6630 0.6580
1074.933587 0.6490 0.6410 0.6260 0.6180 0.6100
1079.848944 0.5920 0.5720 0.5590 0.5490 0.5440
1084.764301 0.5430 0.5410 0.5400 0.5380 0.5370
1089.679658 0.5250 0.5180 0.5120 0.4950 0.4910
1094.595015 0.4820 0.4770 0.4750 0.4740 0.4750
1099.510371 0.4770 0.4810 0.4850 0.4870 0.4910
1104.425728 0.4950 0.5060 0.5130 0.5200 0.5370
1109.341085 0.5451 0.5751 0.6270 0.6410 0.6510
1114.256442 0.6730 0.6940 0.7130 0.7290 0.7390
1119.171799 0.7510 0.7580 0.7620 0.7700 0.7710
1124.087156 0.7740 0.7750 0.7750 0.7750 0.7740
1129.002512 0.7740 0.7710 0.7680 0.7660 0.7630
1133.917869 0.7620 0.7620 0.7590 0.7560 0.7540
1138.833226 0.7500 0.7470 0.7440 0.7390 0.7350
1143.748583 0.7320 0.7320 0.7310 0.7290 0.7290
1148.663940 0.7280 0.7270 0.7250 0.7230 0.7210
1153.579296 0.7200 0.7160 0.7130 0.7110 0.7110
1158.494653 0.7090 0.6980 0.6880 0.6780 0.6740
1163.410010 0.6690 0.6650 0.6630 0.6540 0.6490
1168.325367 0.6430 0.6340 0.6200 0.6150 0.6100
1173.240724 0.6040 0.5950 0.5910 0.5860 0.5810
1178.156080 0.5790 0.5760 0.5630 0.5530 0.5410
1183.071437 0.5380 0.5380 0.5290 0.5260 0.5170
1187.986794 0.5090 0.5050 0.4930 0.4790 0.4650
1192.902151 0.4580 0.4500 0.4400 0.4300 0.4160
1197.817508 0.4000 0.3990 0.3810 0.3600 0.3380
1202.732864 0.3210 0.3100 0.2830 0.2660 0.2540
1207.648221 0.2320 0.2189 0.1890 0.1730 0.1410
1212.563578 0.1290 0.1160 0.1030 0.0950 0.0810
1217.478935 0.0760 0.0630 0.0560 0.0470 0.0450
1222.394292 0.0450 0.0490 0.0530 0.0590 0.0670
1227.309649 0.0760 0.0830 0.0940 0.1110 0.1140
1232.225005 0.1150 0.1150 0.1150 0.1160 0.1180
1237.140362 0.1180 0.1190 0.1220 0.1290 0.1420
1242.055719 0.1470 0.1550 0.1680 0.1820 0.2009
1246.971076 0.2201 0.2520 0.2660 0.2880 0.2900
1251.886433 0.3020 0.3110 0.3140 0.3140 0.3130
1256.801789 0.3010 0.2970 0.2940 0.2750 0.2630
1261.717146 0.2550 0.2540 0.2480 0.2390 0.2270
1266.632503 0.2130 0.1970 0.1840 0.1680 0.1590
1271.547860 0.1290 0.1200 0.1040 0.1000 0.0880
1276.463217 0.0750 0.0640 0.0610 0.0570 0.0530
1281.378573 0.0520 0.0520 0.0520 0.0520 0.0530
1286.293930 0.0550 0.0560 0.0590 0.0600 0.0670
1291.209287 0.0690 0.0720 0.0760 0.0810 0.0870
1296.124644 0.0910 0.1000 0.1030 0.1080 0.1120
1301.040001 0.1190 0.1260 0.1300 0.1300 0.1310
1305.955358 0.1310 0.1330 0.1330 0.1340 0.1340
1310.870714 0.1340 0.1340 0.1350 0.1380 0.1460
1315.786071 0.1570 0.1720 0.1940 0.2060 0.2370
1320.701428 0.2740 0.3419 0.3680 0.3690 0.3889
1325.616785 0.4091 0.4320 0.4360 0.4380 0.4400
1330.532142 0.4420 0.4420 0.4400 0.4390 0.4270
1335.447498 0.4180 0.4080 0.4030 0.3970 0.3910
1340.362855 0.3890 0.3910 0.3920 0.3950 0.4000
1345.278212 0.4070 0.4200 0.4350 0.4500 0.4660
1350.193569 0.4790 0.4910 0.4970 0.4980 0.5040
1355.108926 0.5090 0.5180 0.5260 0.5340 0.5400
1360.024282 0.5440 0.5590 0.5650 0.5710 0.5760
1364.939639 0.5790 0.5800 0.5800 0.5800 0.5770
1369.854996 0.5760 0.5760 0.5730 0.5710 0.5650
1374.770353 0.5600 0.5550 0.5400 0.5260 0.5240
1379.685710 0.5160 0.4930 0.4541 0.4301 0.4071
1384.601066 0.4040 0.4040 0.4050 0.4190 0.4310
1389.516423 0.4540 0.4610 0.4630 0.4610 0.4590
1394.431780 0.4550 0.4500 0.4460 0.4420 0.4320
1399.347137 0.4070 0.3750 0.3620 0.3460 0.3260
1404.262494 0.3049 0.2799 0.2540 0.2280 0.2020
1409.177851 0.1770 0.1290 0.0990 0.0711 0.0640
1414.093207 0.0550 0.0520 0.0510 0.0520 0.0630
1419.008564 0.0650 0.0710 0.0860 0.0870 0.0950
1423.923921 0.0980 0.1020 0.1110 0.1150 0.1160
1428.839278 0.1220 0.1250 0.1260 0.1290 0.1310
1433.754635 0.1330 0.1370 0.1390 0.1430 0.1490
1438.669991 0.1550 0.1660 0.1760 0.1860 0.1960
1443.585348 0.2010 0.2170 0.2280 0.2370 0.2470
1448.500705 0.2480 0.2520 0.2580 0.2620 0.2600
1453.416062 0.2580 0.2540 0.2510 0.2470 0.2370
1458.331419 0.2310 0.2200 0.1900 0.1880 0.1900
1463.246775 0.2000 0.2110 0.2150 0.2200 0.2210
1468.162132 0.2210 0.2230 0.2230 0.2240 0.2280
1473.077489 0.2822 0.3721 0.4081 0.4500 0.4750
1477.992846 0.5000 0.5080 0.5360 0.5550 0.5829
1482.908203 0.5920 0.6020 0.6080 0.6190 0.6250
1487.823560 0.6330 0.6370 0.6490 0.6550 0.6650
1492.738916 0.6660 0.6690 0.6770 0.6800 0.6850
1497.654273 0.6880 0.6890 0.6920 0.6960 0.6970
1502.569630 0.6980 0.6970 0.7000 0.7010 0.7060
1507.484987 0.7080 0.7090 0.7110 0.7130 0.7170
1512.400344 0.7190 0.7190 0.7200 0.7210 0.7210
1517.315700 0.7240 0.7250 0.7280 0.7280 0.7290
1522.231057 0.7310 0.7350 0.7370 0.7400 0.7440
1527.146414 0.7470 0.7480 0.7500 0.7500 0.7510
1532.061771 0.7510 0.7520 0.7520 0.7540 0.7540
1536.977128 0.7540 0.7540 0.7540 0.7540 0.7540
1541.892484 0.7540 0.7540 0.7540 0.7540 0.7540
1546.807841 0.7520 0.7510 0.7500 0.7500 0.7470
1551.723198 0.7450 0.7450 0.7440 0.7430 0.7410
1556.638555 0.7410 0.7390 0.7370 0.7360 0.7350
1561.553912 0.7330 0.7320 0.7310 0.7310 0.7280
1566.469268 0.7290 0.7280 0.7270 0.7270 0.7250
1571.384625 0.7230 0.7240 0.7210 0.7210 0.7200
1576.299982 0.7190 0.7190 0.7190 0.7190 0.7170
1581.215339 0.7170 0.7160 0.7160 0.7150 0.7150
1586.130696 0.7130 0.7130 0.7120 0.7120 0.7120
1591.046053 0.7110 0.7090 0.7080 0.7020 0.7010
1595.961409 0.7000 0.6980 0.6980 0.6970 0.6960
1600.876766 0.6940 0.6930 0.6920 0.6890 0.6880
1605.792123 0.6860 0.6860 0.6800 0.6770 0.6760
1610.707480 0.6730 0.6720 0.6700 0.6690 0.6680
1615.622837 0.6630 0.6610 0.6580 0.6570 0.6550
1620.538193 0.6540 0.6530 0.6490 0.6470 0.6460
1625.453550 0.6450 0.6340 0.6330 0.6330 0.6300
1630.368907 0.6220 0.6180 0.6150 0.6120 0.6070
1635.284264 0.6020 0.5950 0.5920 0.5900 0.5840
1640.199621 0.5790 0.5730 0.5650 0.5640 0.5610
1645.114977 0.5560 0.5520 0.5490 0.5440 0.5360
1650.030334 0.5260 0.5170 0.5120 0.5080 0.5050
1654.945691 0.5010 0.4930 0.4890 0.4810 0.4750
1659.861048 0.4700 0.4630 0.4440 0.4420 0.4380
1664.776405 0.4320 0.4270 0.4180 0.4120 0.4040
1669.691762 0.3890 0.3810 0.3650 0.3580 0.3540
1674.607118 0.3520 0.3460 0.3360 0.3190 0.3130
1679.522475 0.3069 0.2819 0.2560 0.2470 0.2390
1684.437832 0.2270 0.2110 0.1970 0.1780 0.1650
1689.353189 0.1529 0.1369 0.1070 0.0920 0.0770
1694.268546 0.0640 0.0290 0.0280 0.0240 0.0200
1699.183902 0.0140 0.0120 0.0100 0.0090 0.0090
1704.099259 0.0090 0.0080 0.0080 0.0060 0.0060
1709.014616 0.0050 0.0050 0.0050 0.0050 0.0050
1713.929973 0.0050 0.0050 0.0050 0.0050 0.0060
1718.845330 0.0060 0.0060 0.0060 0.0080 0.0080
1723.760686 0.0080 0.0080 0.0080 0.0090 0.0120
1728.676043 0.0160 0.0180 0.0260 0.0330 0.0360
1733.591400 0.0510 0.0600 0.0750 0.0960 0.1060
1738.506757 0.1200 0.1290 0.1490 0.1650 0.1810
1743.422114 0.1940 0.2000 0.2080 0.2160 0.2240
1748.337470 0.2290 0.2370 0.2500 0.2640 0.2740
1753.252827 0.2800 0.2880 0.2940 0.3030 0.3110
1758.168184 0.3180 0.3190 0.3340 0.3440 0.3500
1763.083541 0.3520 0.3580 0.3690 0.3750 0.3790
1767.998898 0.3840 0.3930 0.4130 0.4240 0.4380
1772.914255 0.4420 0.4480 0.4580 0.4700 0.4780
1777.829611 0.4810 0.4860 0.5000 0.5120 0.5170
1782.744968 0.5260 0.5290 0.5370 0.5430 0.5480
1787.660325 0.5520 0.5610 0.5630 0.5680 0.5710
1792.575682 0.5710 0.5720 0.5730 0.5750 0.5750
1797.491039 0.5760 0.5760 0.5770 0.5790 0.5790
1802.406395 0.5800 0.5810 0.5830 0.5840 0.5880
1807.321752 0.5900 0.5900 0.5910 0.5910 0.5920
1812.237109 0.5940 0.5940 0.5950 0.5960 0.5960
1817.152466 0.5960 0.5980 0.6000 0.6100 0.6160
1822.067823 0.6200 0.6200 0.6230 0.6290 0.6300
1826.983179 0.6310 0.6310 0.6310 0.6330 0.6350
1831.898536 0.6370 0.6390 0.6390 0.6430 0.6460
1836.813893 0.6470 0.6470 0.6490 0.6500 0.6510
1841.729250 0.6510 0.6540 0.6550 0.6590 0.6610
1846.644607 0.6610 0.6610 0.6620 0.6630 0.6630
1851.559964 0.6650 0.6680 0.6680 0.6680 0.6690
1856.475320 0.6690 0.6700 0.6700 0.6720 0.6720
1861.390677 0.6760 0.6760 0.6770 0.6770 0.6780
1866.306034 0.6800 0.6800 0.6810 0.6820 0.6840
1871.221391 0.6850 0.6850 0.6850 0.6860 0.6920
1876.136748 0.6920 0.6920 0.6930 0.6930 0.6940
1881.052104 0.6940 0.6960 0.6960 0.6960 0.6970
1885.967461 0.6980 0.6980 0.7000 0.7000 0.7010
1890.882818 0.7020 0.7020 0.7040 0.7050 0.7050
1895.798175 0.7060 0.7080 0.7080 0.7090 0.7090
1900.713532 0.7090 0.7080 0.7080 0.7080 0.7080
1905.628888 0.7080 0.7080 0.7080 0.7090 0.7110
1910.544245 0.7120 0.7120 0.7130 0.7130 0.7150
1915.459602 0.7160 0.7160 0.7170 0.7190 0.7190
1920.374959 0.7190 0.7190 0.7190 0.7190 0.7170
1925.290316 0.7170 0.7170 0.7170 0.7190 0.7190
1930.205672 0.7200 0.7210 0.7230 0.7240 0.7240
1935.121029 0.7240 0.7240 0.7240 0.7240 0.7240
1940.036386 0.7240 0.7240 0.7240 0.7250 0.7250
1944.951743 0.7250 0.7270 0.7270 0.7270 0.7280
1949.867100 0.7280 0.7280 0.7290 0.7290 0.7290
1954.782457 0.7310 0.7310 0.7310 0.7310 0.7290
1959.697813 0.7280 0.7280 0.7280 0.7310 0.7320
1964.613170 0.7320 0.7330 0.7330 0.7350 0.7330
1969.528527 0.7360 0.7360 0.7370 0.7390 0.7390
1974.443884 0.7390 0.7390 0.7400 0.7400 0.7400
1979.359241 0.7400 0.7400 0.7400 0.7400 0.7400
1984.274597 0.7400 0.7400 0.7410 0.7410 0.7410
1989.189954 0.7430 0.7430 0.7440 0.7440 0.7440
1994.105311 0.7450 0.7450 0.7470 0.7470 0.7480
1999.020668 0.7510 0.7540 0.7560 0.7580 0.7590
2003.936025 0.7600 0.7620 0.7640 0.7655 0.7670
2008.851381 0.7690 0.7710 0.7725 0.7740 0.7745
2013.766738 0.7750 0.7755 0.7760 0.7770 0.7780
2018.682095 0.7780 0.7780 0.7780 0.7780 0.7785
2023.597452 0.7790 0.7790 0.7790 0.7790 0.7790
2028.512809 0.7790 0.7790 0.7790 0.7790 0.7790
2033.428166 0.7790 0.7790 0.7790 0.7790 0.7790
2038.343522 0.7795 0.7800 0.7800 0.7800 0.7800
2043.258879 0.7800 0.7810 0.7820 0.7820 0.7820
2048.174236 0.7825 0.7830 0.7830 0.7830 0.7835
2053.089593 0.7840 0.7835 0.7830 0.7830 0.7830
2058.004950 0.7830 0.7830 0.7830 0.7830 0.7835
2062.920306 0.7840 0.7840 0.7840 0.7840 0.7840
2067.835663 0.7840 0.7840 0.7840 0.7840 0.7840
2072.751020 0.7840 0.7840 0.7840 0.7835 0.7830
2077.666377 0.7830 0.7830 0.7825 0.7820 0.7820
2082.581734 0.7820 0.7810 0.7800 0.7800 0.7800
2087.497090 0.7795 0.7790 0.7790 0.7790 0.7790
2092.412447 0.7790 0.7790 0.7790 0.7785 0.7780
2097.327804 0.7780 0.7780 0.7780 0.7780 0.7780
2102.243161 0.7780 0.7771 0.7761 0.7760 0.7760
2107.158518 0.7755 0.7750 0.7750 0.7750 0.7745
2112.073874 0.7740 0.7740 0.7740 0.7731 0.7721
2116.989231 0.7720 0.7720 0.7715 0.7710 0.7705
2121.904588 0.7700 0.7700 0.7700 0.7691 0.7681
2126.819945 0.7680 0.7680 0.7680 0.7680 0.7680
2131.735302 0.7680 0.7675 0.7670 0.7670 0.7670
2136.650659 0.7670 0.7670 0.7670 0.7670 0.7665
2141.566015 0.7660 0.7660 0.7660 0.7651 0.7641
2146.481372 0.7640 0.7640 0.7640 0.7640 0.7640
2151.396729 0.7640 0.7640 0.7640 0.7640 0.7640
2156.312086 0.7649 0.7659 0.7660 0.7660 0.7665
2161.227443 0.7670 0.7670 0.7670 0.7670 0.7670
2166.142799 0.7670 0.7670 0.7670 0.7670 0.7670
2171.058156 0.7670 0.7670 0.7670 0.7674 0.7679
2175.973513 0.7680 0.7680 0.7680 0.7680 0.7680
2180.888870 0.7680 0.7680 0.7680 0.7676 0.7671
2185.804227 0.7666 0.7661 0.7660 0.7660 0.7651
2190.719583 0.7641 0.7636 0.7631 0.7630 0.7630
2195.634940 0.7630 0.7630 0.7626 0.7621 0.7624
2200.550297 0.7629 0.7626 0.7621 0.7620 0.7620
2205.465654 0.7620 0.7620 0.7620 0.7620 0.7611
2210.381011 0.7601 0.7600 0.7600 0.7596 0.7591
2215.296368 0.7590 0.7590 0.7590 0.7590 0.7577
2220.211724 0.7562 0.7556 0.7551 0.7546 0.7541
2225.127081 0.7531 0.7521 0.7520 0.7520 0.7516
2230.042438 0.7511 0.7506 0.7501 0.7500 0.7500
2234.957795 0.7500 0.7500 0.7491 0.7481 0.7480
