##TITLE=2-PENTANONE
##JCAMP-DX=4.24
##DATA TYPE=INFRARED SPECTRUM
##CLASS=COBLENTZ
##ORIGIN=DOW CHEMICAL COMPANY
##OWNER=COBLENTZ SOCIETY
Collection (C) 2018 copyright by the U.S. Secretary of Commerce
on behalf of the United States of America. All rights reserved.
##DATE=1964
##NAMES=METHYL-n-PROPYL KETONE
##CAS REGISTRY NO=107-87-9
##MOLFORM=C5 H10 O
##SOURCE REFERENCE=COBLENTZ NO. 8783
##$NIST SOURCE=COBLENTZ
##$NIST IMAGE=cob-r8783
##SPECTROMETER/DATA SYSTEM=DOW KBr FOREPRISM-GRATING
##INSTRUMENT PARAMETERS=GRATING CHANGED AT 5.0, 7.5, 15.0 MICRON
##STATE=GAS (20 mmHg, N2 ADDED, TOTAL PRESSURE 600 mmHg)
##PATH LENGTH=5 CM
##SAMPLING PROCEDURE=TRANSMISSION
##RESOLUTION=2
##DATA PROCESSING=DIGITIZED BY NIST FROM HARD COPY (FROM TWO SEGMENTS)
##XUNITS=1/CM
##YUNITS=TRANSMITTANCE
##XFACTOR=1.000000
##YFACTOR=1
##DELTAX=0.937502
##FIRSTX=382.813
##LASTX=3778.44
##FIRSTY=0.973
##MAXX=3778.44
##MINX=382.813
##MAXY=1.001
##MINY=0.160008
##NPOINTS=3623
##XYDATA=(X++(Y..Y))
382.813000 0.9730 0.9720 0.9720 0.9710 0.9710
387.500508 0.9690 0.9690 0.9690 0.9680 0.9680
392.188016 0.9660 0.9660 0.9650 0.9630 0.9630
396.875524 0.9620 0.9620 0.9600 0.9600 0.9590
401.563032 0.9590 0.9570 0.9570 0.9570 0.9560
406.250539 0.9560 0.9550 0.9550 0.9530 0.9530
410.938047 0.9530 0.9530 0.9500 0.9500 0.9490
415.625555 0.9490 0.9470 0.9470 0.9470 0.9490
420.313063 0.9470 0.9470 0.9490 0.9490 0.9490
425.000571 0.9490 0.9490 0.9490 0.9490 0.9490
429.688079 0.9490 0.9490 0.9490 0.9490 0.9490
434.375587 0.9490 0.9490 0.9490 0.9490 0.9490
439.063095 0.9490 0.9490 0.9500 0.9500 0.9500
443.750602 0.9500 0.9500 0.9500 0.9500 0.9500
448.438110 0.9500 0.9500 0.9500 0.9500 0.9520
453.125618 0.9520 0.9520 0.9520 0.9530 0.9530
457.813126 0.9530 0.9530 0.9550 0.9550 0.9550
462.500634 0.9550 0.9550 0.9550 0.9550 0.9550
467.188142 0.9550 0.9550 0.9550 0.9550 0.9550
471.875650 0.9550 0.9550 0.9550 0.9550 0.9550
476.563158 0.9550 0.9550 0.9530 0.9530 0.9530
481.250666 0.9530 0.9520 0.9500 0.9500 0.9500
485.938173 0.9490 0.9490 0.9470 0.9470 0.9460
490.625681 0.9460 0.9440 0.9430 0.9430 0.9420
495.313189 0.9400 0.9400 0.9390 0.9370 0.9370
500.000697 0.9360 0.9330 0.9310 0.9280 0.9260
504.688205 0.9240 0.9230 0.9210 0.9200 0.9180
509.375713 0.9170 0.9150 0.9130 0.9130 0.9110
514.063221 0.9100 0.9080 0.9080 0.9070 0.9070
518.750729 0.9050 0.9050 0.9040 0.9040 0.9040
523.438236 0.9050 0.9050 0.9050 0.9070 0.9070
528.125744 0.9070 0.9080 0.9080 0.9100 0.9110
532.813252 0.9130 0.9140 0.9140 0.9150 0.9170
537.500760 0.9180 0.9200 0.9210 0.9210 0.9240
542.188268 0.9260 0.9270 0.9270 0.9280 0.9280
546.875776 0.9300 0.9300 0.9310 0.9310 0.9310
551.563284 0.9310 0.9310 0.9310 0.9310 0.9300
556.250792 0.9300 0.9300 0.9280 0.9270 0.9270
560.938299 0.9260 0.9260 0.9260 0.9240 0.9230
565.625807 0.9230 0.9210 0.9200 0.9180 0.9180
570.313315 0.9170 0.9170 0.9150 0.9130 0.9110
575.000823 0.9080 0.9050 0.9020 0.8970 0.8920
579.688331 0.8780 0.8710 0.8680 0.8630 0.8590
584.375839 0.8560 0.8560 0.8560 0.8550 0.8550
589.063347 0.8550 0.8550 0.8550 0.8550 0.8560
593.750855 0.8570 0.8570 0.8590 0.8600 0.8620
598.438363 0.8660 0.8680 0.8780 0.8890 0.9050
603.125870 0.9150 0.9260 0.9310 0.9370 0.9420
607.813378 0.9460 0.9500 0.9500 0.9520 0.9530
612.500886 0.9550 0.9560 0.9570 0.9590 0.9600
617.188394 0.9620 0.9620 0.9630 0.9650 0.9650
621.875902 0.9660 0.9660 0.9680 0.9690 0.9690
626.563410 0.9710 0.9710 0.9720 0.9720 0.9720
631.250918 0.9730 0.9730 0.9730 0.9750 0.9750
635.938426 0.9760 0.9760 0.9780 0.9780 0.9780
640.625933 0.9790 0.9810 0.9820 0.9840 0.9850
645.313441 0.9850 0.9860 0.9860 0.9860 0.9880
650.000949 0.9880 0.9880 0.9890 0.9890 0.9890
654.688457 0.9890 0.9890 0.9890 0.9890 0.9890
659.375965 0.9890 0.9890 0.9890 0.9890 0.9880
664.063473 0.9880 0.9880 0.9880 0.9880 0.9880
668.750981 0.9880 0.9880 0.9860 0.9850 0.9850
673.438489 0.9850 0.9840 0.9840 0.9840 0.9840
678.125997 0.9820 0.9820 0.9820 0.9810 0.9810
682.813504 0.9810 0.9810 0.9810 0.9810 0.9810
687.501012 0.9790 0.9790 0.9790 0.9790 0.9790
692.188520 0.9780 0.9760 0.9750 0.9730 0.9680
696.876028 0.9441 0.9440 0.9530 0.9679 0.9780
701.563536 0.9790 0.9790 0.9790 0.9780 0.9780
706.251044 0.9760 0.9750 0.9750 0.9730 0.9720
710.938552 0.9710 0.9690 0.9660 0.9650 0.9630
715.626060 0.9590 0.9560 0.9530 0.9520 0.9500
720.313567 0.9490 0.9490 0.9470 0.9460 0.9460
725.001075 0.9460 0.9440 0.9440 0.9430 0.9430
729.688583 0.9430 0.9440 0.9440 0.9460 0.9490
734.376091 0.9500 0.9520 0.9550 0.9560 0.9590
739.063599 0.9650 0.9680 0.9710 0.9750 0.9790
743.751107 0.9820 0.9840 0.9860 0.9880 0.9910
748.438615 0.9920 0.9940 0.9950 0.9970 0.9970
753.126123 0.9980 1.0000 1.0000 1.0000 1.0010
757.813630 1.0010 1.0010 1.0010 1.0010 1.0010
762.501138 1.0010 1.0010 1.0010 1.0010 1.0010
767.188646 1.0010 1.0010 1.0010 1.0010 1.0010
771.876154 1.0010 1.0000 1.0000 1.0000 1.0000
776.563662 0.9980 0.9980 0.9980 0.9980 0.9970
781.251170 0.9970 0.9940 0.9920 0.9910 0.9890
785.938678 0.9890 0.9880 0.9880 0.9880 0.9880
790.626186 0.9880 0.9880 0.9860 0.9820 0.9810
795.313694 0.9810 0.9810 0.9810 0.9810 0.9810
800.001201 0.9820 0.9820 0.9840 0.9840 0.9840
804.688709 0.9840 0.9840 0.9840 0.9840 0.9840
809.376217 0.9840 0.9820 0.9820 0.9820 0.9820
814.063725 0.9820 0.9820 0.9810 0.9810 0.9810
818.751233 0.9790 0.9790 0.9790 0.9780 0.9780
823.438741 0.9780 0.9760 0.9760 0.9760 0.9750
828.126249 0.9750 0.9730 0.9730 0.9730 0.9750
832.813757 0.9760 0.9780 0.9780 0.9780 0.9760
837.501264 0.9760 0.9750 0.9730 0.9720 0.9720
842.188772 0.9710 0.9690 0.9660 0.9630 0.9620
846.876280 0.9590 0.9560 0.9550 0.9500 0.9470
851.563788 0.9420 0.9390 0.9390 0.9400 0.9420
856.251296 0.9430 0.9430 0.9430 0.9420 0.9420
860.938804 0.9430 0.9430 0.9460 0.9430 0.9340
865.626312 0.9330 0.9330 0.9330 0.9360 0.9420
870.313820 0.9430 0.9490 0.9550 0.9560 0.9560
875.001328 0.9560 0.9550 0.9550 0.9530 0.9520
879.688835 0.9470 0.9460 0.9440 0.9430 0.9420
884.376343 0.9420 0.9400 0.9390 0.9370 0.9360
889.063851 0.9340 0.9330 0.9280 0.9230 0.9200
893.751359 0.9180 0.9150 0.9150 0.9170 0.9170
898.438867 0.9180 0.9200 0.9210 0.9230 0.9230
903.126375 0.9240 0.9260 0.9260 0.9260 0.9270
907.813883 0.9270 0.9280 0.9300 0.9340 0.9360
912.501391 0.9370 0.9430 0.9490 0.9530 0.9550
917.188898 0.9560 0.9560 0.9560 0.9560 0.9550
921.876406 0.9550 0.9550 0.9530 0.9530 0.9530
926.563914 0.9520 0.9520 0.9500 0.9490 0.9470
931.251422 0.9470 0.9460 0.9440 0.9430 0.9420
935.938930 0.9400 0.9390 0.9370 0.9360 0.9340
940.626438 0.9330 0.9310 0.9260 0.9180 0.9150
945.313946 0.9130 0.9050 0.8970 0.8910 0.8880
950.001454 0.8840 0.8790 0.8750 0.8710 0.8660
954.688961 0.8630 0.8620 0.8600 0.8590 0.8570
959.376469 0.8560 0.8560 0.8550 0.8550 0.8550
964.063977 0.8560 0.8590 0.8620 0.8630 0.8660
968.751485 0.8690 0.8720 0.8730 0.8790 0.8850
973.438993 0.8890 0.8920 0.8940 0.8950 0.8970
978.126501 0.9010 0.9020 0.9040 0.9070 0.9080
982.814009 0.9100 0.9110 0.9130 0.9140 0.9150
987.501517 0.9170 0.9170 0.9180 0.9180 0.9200
992.189025 0.9200 0.9210 0.9210 0.9230 0.9230
996.876532 0.9240 0.9240 0.9260 0.9260 0.9260
1001.564040 0.9270 0.9270 0.9280 0.9280 0.9280
1006.251548 0.9300 0.9300 0.9300 0.9310 0.9310
1010.939056 0.9310 0.9310 0.9330 0.9330 0.9340
1015.626564 0.9340 0.9340 0.9360 0.9360 0.9360
1020.314072 0.9370 0.9370 0.9370 0.9370 0.9360
1025.001580 0.9340 0.9340 0.9340 0.9330 0.9310
1029.689088 0.9300 0.9280 0.9270 0.9260 0.9260
1034.376595 0.9260 0.9270 0.9310 0.9310 0.9330
1039.064103 0.9330 0.9330 0.9310 0.9300 0.9270
1043.751611 0.9260 0.9240 0.9230 0.9230 0.9230
1048.439119 0.9230 0.9230 0.9240 0.9240 0.9240
1053.126627 0.9240 0.9230 0.9230 0.9210 0.9210
1057.814135 0.9210 0.9210 0.9210 0.9230 0.9230
1062.501643 0.9230 0.9230 0.9240 0.9260 0.9260
1067.189151 0.9260 0.9260 0.9260 0.9270 0.9270
1071.876659 0.9270 0.9260 0.9260 0.9240 0.9240
1076.564166 0.9230 0.9230 0.9210 0.9210 0.9200
1081.251674 0.9180 0.9180 0.9170 0.9150 0.9150
1085.939182 0.9140 0.9130 0.9130 0.9100 0.9100
1090.626690 0.9080 0.9080 0.9070 0.9070 0.9050
1095.314198 0.9040 0.9020 0.9020 0.9010 0.9010
1100.001706 0.9000 0.9000 0.8980 0.8970 0.8970
1104.689214 0.8970 0.8970 0.8980 0.8980 0.8980
1109.376722 0.9000 0.9010 0.9010 0.9010 0.9020
1114.064229 0.9020 0.9020 0.9040 0.9040 0.9040
1118.751737 0.9050 0.9050 0.9050 0.9050 0.9050
1123.439245 0.9050 0.9050 0.9050 0.9050 0.9050
1128.126753 0.9040 0.9040 0.9040 0.9020 0.9020
1132.814261 0.9000 0.9000 0.8980 0.8970 0.8940
1137.501769 0.8940 0.8940 0.8910 0.8880 0.8810
1142.189277 0.8730 0.8680 0.8620 0.8570 0.8500
1146.876785 0.8390 0.8280 0.8170 0.8040 0.7910
1151.564292 0.7720 0.7500 0.7270 0.7050 0.6820
1156.251800 0.6600 0.6390 0.6151 0.5921 0.5691
1160.939308 0.5500 0.5310 0.5080 0.4980 0.4850
1165.626816 0.4730 0.4690 0.4630 0.4620 0.4550
1170.314324 0.4520 0.4500 0.4500 0.4520 0.4560
1175.001832 0.4620 0.4650 0.4680 0.4760 0.4850
1179.689340 0.4950 0.5080 0.5550 0.5760 0.5950
1184.376848 0.6130 0.6270 0.6400 0.6550 0.6709
1189.064356 0.6860 0.6940 0.7070 0.7230 0.7360
1193.751863 0.7470 0.7560 0.7650 0.7730 0.7790
1198.439371 0.7860 0.7940 0.7950 0.8000 0.8050
1203.126879 0.8110 0.8170 0.8230 0.8270 0.8330
1207.814387 0.8360 0.8400 0.8430 0.8490 0.8520
1212.501895 0.8560 0.8590 0.8620 0.8650 0.8660
1217.189403 0.8680 0.8690 0.8690 0.8690 0.8690
1221.876911 0.8680 0.8660 0.8660 0.8650 0.8630
1226.564419 0.8620 0.8600 0.8570 0.8570 0.8560
1231.251926 0.8550 0.8530 0.8460 0.8430 0.8430
1235.939434 0.8430 0.8420 0.8420 0.8420 0.8420
1240.626942 0.8400 0.8400 0.8400 0.8400 0.8420
1245.314450 0.8420 0.8420 0.8430 0.8440 0.8460
1250.001958 0.8460 0.8470 0.8500 0.8520 0.8520
1254.689466 0.8520 0.8520 0.8520 0.8530 0.8530
1259.376974 0.8530 0.8520 0.8520 0.8500 0.8470
1264.064482 0.8430 0.8400 0.8360 0.8340 0.8330
1268.751990 0.8310 0.8310 0.8280 0.8280 0.8270
1273.439497 0.8260 0.8240 0.8240 0.8240 0.8240
1278.127005 0.8230 0.8230 0.8230 0.8230 0.8210
1282.814513 0.8210 0.8210 0.8210 0.8210 0.8200
1287.502021 0.8200 0.8200 0.8200 0.8200 0.8180
1292.189529 0.8170 0.8170 0.8150 0.8140 0.8140
1296.877037 0.8140 0.8150 0.8170 0.8180 0.8200
1301.564545 0.8210 0.8230 0.8240 0.8260 0.8270
1306.252053 0.8300 0.8310 0.8360 0.8370 0.8400
1310.939560 0.8430 0.8470 0.8500 0.8530 0.8550
1315.627068 0.8570 0.8620 0.8620 0.8630 0.8660
1320.314576 0.8680 0.8690 0.8710 0.8720 0.8720
1325.002084 0.8730 0.8730 0.8730 0.8730 0.8720
1329.689592 0.8710 0.8680 0.8630 0.8570 0.8520
1334.377100 0.8460 0.8430 0.8340 0.8280 0.8170
1339.064608 0.8110 0.7980 0.7920 0.7780 0.7680
1343.752116 0.7550 0.7390 0.7230 0.7051 0.6881
1348.439623 0.6720 0.6550 0.6390 0.6230 0.5940
1353.127131 0.5710 0.5550 0.5440 0.5330 0.5141
1357.814639 0.5020 0.4890 0.4600 0.4530 0.4430
1362.502147 0.4330 0.4230 0.4140 0.4130 0.4130
1367.189655 0.4140 0.4150 0.4180 0.4240 0.4260
1371.877163 0.4340 0.4430 0.4490 0.4560 0.4630
1376.564671 0.4720 0.4810 0.4950 0.5080 0.5210
1381.252179 0.5679 0.5970 0.6130 0.6260 0.6439
1385.939687 0.6710 0.6950 0.7180 0.7340 0.7420
1390.627194 0.7530 0.7620 0.7680 0.7720 0.7730
1395.314702 0.7750 0.7790 0.7850 0.7890 0.7920
1400.002210 0.7940 0.7970 0.7980 0.7970 0.7950
1404.689718 0.7860 0.7840 0.7820 0.7780 0.7750
1409.377226 0.7720 0.7710 0.7620 0.7570 0.7550
1414.064734 0.7550 0.7520 0.7490 0.7430 0.7300
1418.752242 0.7270 0.7240 0.7210 0.7180 0.7200
1423.439750 0.7210 0.7210 0.7210 0.7210 0.7230
1428.127257 0.7230 0.7230 0.7230 0.7230 0.7230
1432.814765 0.7230 0.7230 0.7240 0.7240 0.7240
1437.502273 0.7240 0.7240 0.7260 0.7260 0.7310
1442.189781 0.7310 0.7310 0.7300 0.7300 0.7280
1446.877289 0.7270 0.7270 0.7240 0.7230 0.7210
1451.564797 0.7200 0.7180 0.7170 0.7140 0.7130
1456.252305 0.7130 0.7110 0.7110 0.7130 0.7140
1460.939813 0.7150 0.7270 0.7310 0.7330 0.7330
1465.627321 0.7330 0.7330 0.7390 0.7440 0.7520
1470.314828 0.7570 0.7600 0.7680 0.7750 0.7790
1475.002336 0.7840 0.7920 0.7970 0.8040 0.8100
1479.689844 0.8140 0.8200 0.8230 0.8300 0.8370
1484.377352 0.8430 0.8470 0.8500 0.8530 0.8550
1489.064860 0.8590 0.8620 0.8630 0.8690 0.8730
1493.752368 0.8780 0.8820 0.8810 0.8790 0.8790
1498.439876 0.8810 0.8860 0.8880 0.8890 0.8950
1503.127384 0.8970 0.8970 0.8950 0.8940 0.8890
1507.814891 0.8790 0.8790 0.8840 0.8940 0.9000
1512.502399 0.9000 0.9010 0.9010 0.9010 0.9000
1517.189907 0.9000 0.8950 0.8920 0.8920 0.8910
1521.877415 0.8910 0.8890 0.8910 0.8970 0.9010
1526.564923 0.9010 0.9020 0.9020 0.9040 0.9050
1531.252431 0.9050 0.9050 0.9040 0.9000 0.8970
1535.939939 0.8940 0.8910 0.8920 0.9040 0.9040
1540.627447 0.8790 0.8780 0.8810 0.8860 0.8910
1545.314955 0.8950 0.9000 0.9010 0.9010 0.9040
1550.002462 0.9050 0.9050 0.9050 0.9050 0.9050
1554.689970 0.9040 0.9040 0.9020 0.9000 0.9000
1559.377478 0.9000 0.8840 0.8690 0.8840 0.8970
1564.064986 0.8980 0.9010 0.9020 0.9050 0.9070
1568.752494 0.9070 0.9070 0.9050 0.9000 0.8970
1573.440002 0.8970 0.9010 0.9050 0.9040 0.9000
1578.127510 0.8970 0.8980 0.9070 0.9110 0.9150
1582.815018 0.9170 0.9180 0.9180 0.9180 0.9180
1587.502525 0.9200 0.9200 0.9200 0.9200 0.9210
1592.190033 0.9210 0.9210 0.9210 0.9210 0.9230
1596.877541 0.9230 0.9230 0.9230 0.9240 0.9240
1601.565049 0.9240 0.9240 0.9260 0.9260 0.9260
1606.252557 0.9270 0.9270 0.9270 0.9270 0.9270
1610.940065 0.9280 0.9280 0.9280 0.9280 0.9280
1615.627573 0.9270 0.9260 0.9150 0.9070 0.9040
1620.315081 0.9100 0.9150 0.9180 0.9200 0.9210
1625.002588 0.9230 0.9240 0.9240 0.9260 0.9260
1629.690096 0.9270 0.9270 0.9270 0.9260 0.9260
1634.377604 0.9210 0.9170 0.9140 0.9100 0.9150
1639.065112 0.9150 0.9260 0.9300 0.9310 0.9310
1643.752620 0.9310 0.9280 0.9270 0.9180 0.9140
1648.440128 0.9110 0.9130 0.9150 0.9200 0.9210
1653.127636 0.9210 0.8820 0.8720 0.8820 0.8920
1657.815144 0.9070 0.9150 0.9230 0.9230 0.9210
1662.502652 0.9200 0.9200 0.9180 0.9180 0.9170
1667.190159 0.9170 0.9170 0.9140 0.9110 0.9070
1671.877667 0.9040 0.9010 0.9020 0.9080 0.9080
1676.565175 0.8970 0.8940 0.8950 0.9000 0.9000
1681.252683 0.8970 0.8890 0.8820 0.8720 0.8600
1685.940191 0.8560 0.8600 0.8600 0.8710 0.8760
1690.627699 0.8730 0.8730 0.8660 0.8660 0.8650
1695.315207 0.8630 0.8569 0.8170 0.8140 0.8170
1700.002715 0.8340 0.8240 0.7980 0.7940 0.7970
1704.690222 0.8040 0.7950 0.7690 0.7500 0.7400
1709.377730 0.7270 0.7140 0.6940 0.6681 0.6371
1714.065238 0.6109 0.5790 0.5620 0.5430 0.5070
1718.752746 0.4690 0.4330 0.4011 0.3751 0.3551
1723.440254 0.3149 0.2630 0.2440 0.2280 0.2200
1728.127762 0.1950 0.1850 0.1810 0.1660 0.1630
1732.815270 0.1650 0.1720 0.1780 0.1860 0.1840
1737.502778 0.1780 0.1730 0.1690 0.1630 0.1600
1742.190286 0.1630 0.1790 0.1950 0.2040 0.2170
1746.877793 0.2500 0.2820 0.2860 0.2950 0.3229
1751.565301 0.3502 0.4271 0.4790 0.4890 0.5100
1756.252809 0.5660 0.5890 0.6110 0.6399 0.6619
1760.940317 0.6851 0.7071 0.7340 0.7620 0.7890
1765.627825 0.8140 0.8200 0.8310 0.8370 0.8430
1770.315333 0.8500 0.8550 0.8460 0.8490 0.8690
1775.002841 0.8730 0.8750 0.8810 0.8820 0.8840
1779.690349 0.8850 0.8890 0.8910 0.8920 0.8940
1784.377856 0.8950 0.8950 0.8970 0.8980 0.8980
1789.065364 0.8980 0.8980 0.8980 0.9000 0.9020
1793.752872 0.9070 0.9100 0.9100 0.9110 0.9130
1798.440380 0.9130 0.9130 0.9140 0.9150 0.9150
1803.127888 0.9170 0.9180 0.9200 0.9200 0.9210
1807.815396 0.9230 0.9230 0.9240 0.9240 0.9240
1812.502904 0.9240 0.9240 0.9260 0.9260 0.9260
1817.190412 0.9270 0.9270 0.9270 0.9270 0.9270
1821.877919 0.9270 0.9270 0.9270 0.9270 0.9270
1826.565427 0.9270 0.9270 0.9270 0.9270 0.9280
1831.252935 0.9300 0.9310 0.9310 0.9310 0.9330
1835.940443 0.9330 0.9330 0.9330 0.9330 0.9330
1840.627951 0.9330 0.9310 0.9310 0.9280 0.9260
1845.315459 0.9270 0.9280 0.9300 0.9310 0.9330
1850.002967 0.9330 0.9330 0.9330 0.9330 0.9330
1854.690475 0.9330 0.9330 0.9330 0.9330 0.9330
1859.377983 0.9330 0.9330 0.9330 0.9330 0.9330
1864.065490 0.9330 0.9330 0.9330 0.9330 0.9310
1868.752998 0.9310 0.9300 0.9280 0.9300 0.9330
1873.440506 0.9330 0.9340 0.9340 0.9340 0.9340
1878.128014 0.9340 0.9340 0.9340 0.9340 0.9340
1882.815522 0.9340 0.9360 0.9360 0.9360 0.9360
1887.503030 0.9360 0.9360 0.9360 0.9360 0.9360
1892.190538 0.9360 0.9360 0.9360 0.9360 0.9360
1896.878046 0.9360 0.9360 0.9360 0.9340 0.9340
1901.565553 0.9340 0.9340 0.9340 0.9340 0.9340
1906.253061 0.9340 0.9340 0.9340 0.9340 0.9340
1910.940569 0.9340 0.9340 0.9340 0.9340 0.9330
1915.628077 0.9330 0.9330 0.9330 0.9310 0.9310
1920.315585 0.9310 0.9310 0.9310 0.9330 0.9330
1925.003093 0.9330 0.9340 0.9340 0.9340 0.9360
1929.690601 0.9360 0.9360 0.9360 0.9360 0.9340
1934.378109 0.9340 0.9340 0.9340 0.9340 0.9340
1939.065617 0.9340 0.9360 0.9360 0.9360 0.9360
1943.753124 0.9360 0.9360 0.9360 0.9360 0.9360
1948.440632 0.9340 0.9340 0.9340 0.9360 0.9360
1953.128140 0.9360 0.9360 0.9360 0.9360 0.9360
1957.815648 0.9360 0.9360 0.9360 0.9360 0.9360
1962.503156 0.9370 0.9370 0.9370 0.9370 0.9370
1967.190664 0.9370 0.9370 0.9370 0.9370 0.9370
1971.878172 0.9370 0.9370 0.9370 0.9370 0.9370
1976.565680 0.9370 0.9370 0.9370 0.9370 0.9370
1981.253187 0.9370 0.9370 0.9370 0.9370 0.9370
1985.940695 0.9370 0.9370 0.9370 0.9370 0.9370
1990.628203 0.9370 0.9360 0.9360 0.9360 0.9360
1995.315711 0.9360 0.9360 0.9360 0.9360 0.9340
2000.003219 0.9340 0.9340 0.9340 0.9340 0.9340
2004.690727 0.9340 0.9340 0.9340 0.9340 0.9340
2009.378235 0.9340 0.9340 0.9340 0.9340 0.9340
2014.065743 0.9340 0.9340 0.9335 0.9330 0.9330
2018.753250 0.9330 0.9330 0.9330 0.9320 0.9310
2023.440758 0.9310 0.9310 0.9310 0.9310 0.9310
2028.128266 0.9310 0.9310 0.9310 0.9305 0.9300
2032.815774 0.9300 0.9300 0.9300 0.9300 0.9300
2037.503282 0.9300 0.9300 0.9300 0.9300 0.9300
2042.190790 0.9300 0.9300 0.9300 0.9300 0.9300
2046.878298 0.9300 0.9300 0.9300 0.9300 0.9300
2051.565806 0.9300 0.9300 0.9300 0.9300 0.9300
2056.253314 0.9300 0.9300 0.9300 0.9300 0.9300
2060.940821 0.9305 0.9310 0.9310 0.9310 0.9310
2065.628329 0.9310 0.9310 0.9310 0.9310 0.9310
2070.315837 0.9310 0.9310 0.9310 0.9310 0.9310
2075.003345 0.9310 0.9310 0.9310 0.9310 0.9310
2079.690853 0.9310 0.9310 0.9310 0.9310 0.9310
2084.378361 0.9310 0.9310 0.9310 0.9310 0.9310
2089.065869 0.9310 0.9310 0.9310 0.9310 0.9320
2093.753377 0.9330 0.9330 0.9330 0.9330 0.9330
2098.440884 0.9330 0.9330 0.9330 0.9330 0.9330
2103.128392 0.9330 0.9330 0.9330 0.9330 0.9330
2107.815900 0.9330 0.9330 0.9330 0.9330 0.9320
2112.503408 0.9310 0.9310 0.9310 0.9310 0.9310
2117.190916 0.9305 0.9300 0.9300 0.9300 0.9300
2121.878424 0.9300 0.9300 0.9300 0.9290 0.9280
2126.565932 0.9280 0.9280 0.9275 0.9270 0.9270
2131.253440 0.9270 0.9270 0.9270 0.9270 0.9270
2135.940948 0.9270 0.9270 0.9270 0.9270 0.9270
2140.628455 0.9270 0.9270 0.9270 0.9270 0.9270
2145.315963 0.9270 0.9270 0.9275 0.9280 0.9280
2150.003471 0.9280 0.9280 0.9280 0.9280 0.9280
2154.690979 0.9280 0.9280 0.9280 0.9280 0.9280
2159.378487 0.9281 0.9291 0.9300 0.9300 0.9300
2164.065995 0.9300 0.9300 0.9300 0.9300 0.9300
2168.753503 0.9300 0.9300 0.9300 0.9305 0.9310
2173.441011 0.9310 0.9310 0.9310 0.9310 0.9310
2178.128518 0.9310 0.9310 0.9310 0.9310 0.9310
2182.816026 0.9310 0.9311 0.9321 0.9330 0.9330
2187.503534 0.9329 0.9319 0.9310 0.9310 0.9310
2192.191042 0.9310 0.9310 0.9310 0.9310 0.9310
2196.878550 0.9310 0.9310 0.9310 0.9310 0.9311
2201.566058 0.9321 0.9330 0.9330 0.9330 0.9330
2206.253566 0.9330 0.9330 0.9330 0.9330 0.9330
2210.941074 0.9335 0.9340 0.9340 0.9340 0.9340
2215.628581 0.9340 0.9340 0.9340 0.9340 0.9340
2220.316089 0.9340 0.9340 0.9340 0.9340 0.9340
2225.003597 0.9340 0.9340 0.9340 0.9340 0.9339
2229.691105 0.9334 0.9330 0.9330 0.9330 0.9330
2234.378613 0.9330 0.9330 0.9330 0.9330 0.9330
2239.066121 0.9330 0.9330 0.9330 0.9330 0.9330
2243.753629 0.9329 0.9319 0.9310 0.9310 0.9310
2248.441137 0.9310 0.9310 0.9310 0.9310 0.9310
2253.128645 0.9310 0.9310 0.9310 0.9310 0.9310
2257.816152 0.9310 0.9310 0.9310 0.9310 0.9310
2262.503660 0.9310 0.9310 0.9310 0.9310 0.9311
2267.191168 0.9321 0.9330 0.9330 0.9330 0.9330
2271.878676 0.9331 0.9336 0.9340 0.9340 0.9340
2276.566184 0.9340 0.9341 0.9351 0.9360 0.9360
2281.253692 0.9360 0.9360 0.9360 0.9360 0.9359
2285.941200 0.9349 0.9340 0.9340 0.9340 0.9340
