##TITLE=1-Bromo-3-methylbutane
##JCAMP-DX=4.24
$$ By DXEDIT 1.05 (RS McDonald)
##DATA TYPE=INFRARED SPECTRUM
##CLASS=COBLENTZ III
##ORIGIN=DOW CHEMICAL COMPANY
##OWNER=COPYRIGHT (C) 1988 by COBLENTZ SOCIETY INC.
Collection (C) 2018 copyright by the U.S. Secretary of Commerce
on behalf of the United States of America. All rights reserved.
##DATE=1960/01/30
##CAS REGISTRY NO=107-82-4
##MOLFORM=C5 H11 Br
##SOURCE REFERENCE=COBLENTZ NO. 5712
##$NIST SOURCE=COBLENTZ
##$NIST IMAGE=cob5712
##SPECTROMETER/DATA SYSTEM=DOW KBr FOREPRISM-GRATING
##INSTRUMENT PARAMETERS=BLAZED AT 3.5, 12.0, 20.0 MICRON AND CHANGED AT 5.0, 7.5, 14.9 MICRON
##STATE=SOLUTION (10% CCl4 FOR 3800-1340, 10% CS2 FOR 1340-430)
##PATH LENGTH=0.0117 CM, 0.0110 CM
$$SPECTRAL CONTAMINATION DUE TO CCl4 AROUND 1550 CM^-^1 HAS BEEN SUBTRACTED
##SAMPLING PROCEDURE=TRANSMISSION
##RESOLUTION=2
##DATA PROCESSING=DIGITIZED BY COBLENTZ SOCIETY (BATCH I) FROM HARD COPY
##XUNITS=1/CM
##YUNITS=TRANSMITTANCE
##XFACTOR=1
##YFACTOR=1
##DELTAX=1
##FIRSTX=3802
##LASTX=450
##FIRSTY=0.9238
##MAXX=3802
##MINX=450
##MAXY=0.9639
##MINY=0.0238
##NPOINTS=3353
##XYDATA=(X++(Y..Y))
3802.000000 0.9238 0.9237 0.9237 0.9237 0.9238
3797.000000 0.9240 0.9251 0.9242 0.9253 0.9253
3792.000000 0.9254 0.9254 0.9254 0.9254 0.9255
3787.000000 0.9255 0.9256 0.9256 0.9247 0.9242
3782.000000 0.9243 0.9254 0.9257 0.9246 0.9256
3777.000000 0.9258 0.9259 0.9246 0.9259 0.9259
3772.000000 0.9260 0.9260 0.9260 0.9260 0.9260
3767.000000 0.9260 0.9260 0.9260 0.9261 0.9261
3762.000000 0.9261 0.9261 0.9269 0.9268 0.9261
3757.000000 0.9261 0.9261 0.9261 0.9261 0.9261
3752.000000 0.9261 0.9261 0.9261 0.9261 0.9261
3747.000000 0.9261 0.9261 0.9261 0.9261 0.9261
3742.000000 0.9261 0.9261 0.9261 0.9265 0.9275
3737.000000 0.9275 0.9275 0.9275 0.9270 0.9262
3732.000000 0.9270 0.9276 0.9276 0.9276 0.9276
3727.000000 0.9276 0.9276 0.9276 0.9277 0.9277
3722.000000 0.9277 0.9277 0.9277 0.9263 0.9264
3717.000000 0.9277 0.9278 0.9278 0.9278 0.9278
3712.000000 0.9282 0.9288 0.9283 0.9292 0.9293
3707.000000 0.9293 0.9293 0.9293 0.9293 0.9293
3702.000000 0.9294 0.9294 0.9294 0.9294 0.9294
3697.000000 0.9294 0.9282 0.9280 0.9281 0.9281
3692.000000 0.9282 0.9282 0.9283 0.9283 0.9284
3687.000000 0.9281 0.9272 0.9272 0.9273 0.9273
3682.000000 0.9273 0.9273 0.9275 0.9276 0.9277
3677.000000 0.9277 0.9277 0.9277 0.9279 0.9279
3672.000000 0.9280 0.9280 0.9294 0.9284 0.9283
3667.000000 0.9283 0.9284 0.9284 0.9285 0.9285
3662.000000 0.9286 0.9287 0.9288 0.9288 0.9289
3657.000000 0.9289 0.9289 0.9289 0.9289 0.9288
3652.000000 0.9288 0.9287 0.9287 0.9287 0.9287
3647.000000 0.9286 0.9286 0.9285 0.9285 0.9284
3642.000000 0.9284 0.9284 0.9284 0.9283 0.9283
3637.000000 0.9282 0.9282 0.9282 0.9282 0.9282
3632.000000 0.9294 0.9294 0.9289 0.9279 0.9285
3627.000000 0.9293 0.9293 0.9291 0.9290 0.9290
3622.000000 0.9290 0.9290 0.9290 0.9289 0.9289
3617.000000 0.9288 0.9288 0.9288 0.9288 0.9286
3612.000000 0.9286 0.9286 0.9286 0.9285 0.9273
3607.000000 0.9285 0.9285 0.9285 0.9285 0.9281
3602.000000 0.9275 0.9285 0.9279 0.9271 0.9278
3597.000000 0.9285 0.9285 0.9285 0.9286 0.9286
3592.000000 0.9286 0.9286 0.9286 0.9286 0.9286
3587.000000 0.9286 0.9286 0.9286 0.9286 0.9286
3582.000000 0.9286 0.9286 0.9286 0.9286 0.9286
3577.000000 0.9286 0.9281 0.9276 0.9286 0.9286
3572.000000 0.9278 0.9268 0.9268 0.9267 0.9266
3567.000000 0.9265 0.9264 0.9263 0.9262 0.9260
3562.000000 0.9259 0.9258 0.9257 0.9255 0.9254
3557.000000 0.9253 0.9253 0.9264 0.9249 0.9249
3552.000000 0.9260 0.9258 0.9252 0.9244 0.9252
3547.000000 0.9250 0.9248 0.9239 0.9236 0.9240
3542.000000 0.9240 0.9237 0.9227 0.9228 0.9222
3537.000000 0.9226 0.9203 0.9225 0.9223 0.9221
3532.000000 0.9220 0.9218 0.9216 0.9200 0.9198
3527.000000 0.9194 0.9191 0.9188 0.9185 0.9182
3522.000000 0.9179 0.9176 0.9172 0.9169 0.9166
3517.000000 0.9162 0.9159 0.9156 0.9152 0.9149
3512.000000 0.9146 0.9143 0.9140 0.9137 0.9134
3507.000000 0.9129 0.9126 0.9123 0.9120 0.9117
3502.000000 0.9114 0.9110 0.9107 0.9104 0.9101
3497.000000 0.9098 0.9096 0.9093 0.9091 0.9087
3492.000000 0.9085 0.9082 0.9080 0.9077 0.9075
3487.000000 0.9072 0.9068 0.9065 0.9064 0.9061
3482.000000 0.9058 0.9056 0.9054 0.9051 0.9049
3477.000000 0.9046 0.9044 0.9041 0.9039 0.9036
3472.000000 0.9034 0.9029 0.9023 0.9018 0.9013
3467.000000 0.9008 0.9002 0.8997 0.8992 0.8987
3462.000000 0.8981 0.8976 0.8971 0.8964 0.8959
3457.000000 0.8953 0.8949 0.8944 0.8940 0.8935
3452.000000 0.8931 0.8926 0.8922 0.8918 0.8913
3447.000000 0.8908 0.8904 0.8900 0.8896 0.8891
3442.000000 0.8887 0.8883 0.8879 0.8873 0.8869
3437.000000 0.8864 0.8859 0.8855 0.8848 0.8844
3432.000000 0.8840 0.8835 0.8831 0.8825 0.8821
3427.000000 0.8816 0.8812 0.8795 0.8802 0.8799
3422.000000 0.8795 0.8791 0.8787 0.8782 0.8778
3417.000000 0.8774 0.8771 0.8767 0.8762 0.8758
3412.000000 0.8754 0.8751 0.8747 0.8742 0.8739
3407.000000 0.8742 0.8737 0.8727 0.8724 0.8720
3402.000000 0.8718 0.8716 0.8715 0.8714 0.8701
3397.000000 0.8711 0.8710 0.8709 0.8708 0.8711
3392.000000 0.8714 0.8716 0.8719 0.8722 0.8726
3387.000000 0.8728 0.8731 0.8734 0.8737 0.8739
3382.000000 0.8742 0.8745 0.8748 0.8750 0.8754
3377.000000 0.8757 0.8761 0.8765 0.8769 0.8772
3372.000000 0.8777 0.8781 0.8797 0.8789 0.8792
3367.000000 0.8795 0.8800 0.8803 0.8808 0.8812
3362.000000 0.8816 0.8820 0.8824 0.8828 0.8832
3357.000000 0.8836 0.8840 0.8843 0.8847 0.8850
3352.000000 0.8855 0.8860 0.8864 0.8867 0.8871
3347.000000 0.8875 0.8880 0.8895 0.8902 0.8893
3342.000000 0.8908 0.8900 0.8903 0.8907 0.8926
3337.000000 0.8929 0.8931 0.8923 0.8928 0.8931
3332.000000 0.8935 0.8938 0.8942 0.8945 0.8949
3327.000000 0.8951 0.8957 0.8959 0.8962 0.8966
3322.000000 0.8970 0.8973 0.8977 0.8981 0.8985
3317.000000 0.8988 0.8992 0.8995 0.8998 0.9001
3312.000000 0.9019 0.9023 0.9027 0.9028 0.9030
3307.000000 0.9023 0.9036 0.9038 0.9037 0.9029
3302.000000 0.9033 0.9035 0.9038 0.9040 0.9042
3297.000000 0.9044 0.9047 0.9049 0.9052 0.9054
3292.000000 0.9055 0.9058 0.9059 0.9059 0.9062
3287.000000 0.9063 0.9063 0.9065 0.9066 0.9080
3282.000000 0.9081 0.9070 0.9074 0.9086 0.9083
3277.000000 0.9073 0.9079 0.9088 0.9088 0.9088
3272.000000 0.9088 0.9088 0.9088 0.9088 0.9088
3267.000000 0.9087 0.9087 0.9087 0.9087 0.9087
3262.000000 0.9088 0.9088 0.9089 0.9089 0.9090
3257.000000 0.9089 0.9077 0.9089 0.9088 0.9087
3252.000000 0.9087 0.9086 0.9085 0.9084 0.9083
3247.000000 0.9082 0.9081 0.9073 0.9073 0.9078
3242.000000 0.9076 0.9076 0.9075 0.9074 0.9072
3237.000000 0.9072 0.9071 0.9069 0.9069 0.9068
3232.000000 0.9067 0.9064 0.9063 0.9062 0.9061
3227.000000 0.9058 0.9045 0.9047 0.9057 0.9056
3222.000000 0.9055 0.9054 0.9053 0.9052 0.9051
3217.000000 0.9050 0.9049 0.9046 0.9045 0.9044
3212.000000 0.9043 0.9042 0.9041 0.9039 0.9026
3207.000000 0.9023 0.9022 0.9021 0.9020 0.9018
3202.000000 0.9017 0.9016 0.9017 0.9024 0.9012
3197.000000 0.9018 0.9009 0.9016 0.9015 0.9013
3192.000000 0.9011 0.9008 0.8999 0.8999 0.9005
3187.000000 0.9005 0.8996 0.8991 0.8991 0.8991
3182.000000 0.8991 0.8990 0.8990 0.8990 0.8990
3177.000000 0.8990 0.8990 0.8990 0.8990 0.8990
3172.000000 0.8990 0.8990 0.8991 0.8993 0.8996
3167.000000 0.8998 0.9002 0.9004 0.9011 0.9022
3162.000000 0.9017 0.9020 0.9030 0.9032 0.9025
3157.000000 0.9032 0.9029 0.9028 0.9041 0.9046
3152.000000 0.9048 0.9049 0.9051 0.9052 0.9040
3147.000000 0.9041 0.9043 0.9044 0.9046 0.9047
3142.000000 0.9049 0.9055 0.9066 0.9067 0.9071
3137.000000 0.9071 0.9074 0.9074 0.9074 0.9073
3132.000000 0.9073 0.9073 0.9073 0.9073 0.9072
3127.000000 0.9072 0.9072 0.9072 0.9072 0.9072
3122.000000 0.9072 0.9072 0.9072 0.9072 0.9072
3117.000000 0.9070 0.9070 0.9070 0.9070 0.9069
3112.000000 0.9067 0.9067 0.9066 0.9065 0.9064
3107.000000 0.9071 0.9077 0.9076 0.9075 0.9074
3102.000000 0.9073 0.9071 0.9082 0.9083 0.9082
3097.000000 0.9094 0.9108 0.9121 0.9121 0.9119
3092.000000 0.9116 0.9103 0.9099 0.9083 0.9072
3087.000000 0.9074 0.9078 0.9062 0.9052 0.9051
3082.000000 0.9050 0.9048 0.9047 0.9046 0.9054
3077.000000 0.9067 0.9071 0.9069 0.9077 0.9079
3072.000000 0.9065 0.9059 0.9058 0.9042 0.9054
3067.000000 0.9038 0.9036 0.9034 0.9029 0.9015
3062.000000 0.9013 0.9010 0.9012 0.9020 0.9018
3057.000000 0.9009 0.8998 0.8999 0.8988 0.8983
3052.000000 0.8978 0.8981 0.8982 0.8977 0.8971
3047.000000 0.8963 0.8967 0.8960 0.8963 0.8968
3042.000000 0.8974 0.8978 0.8983 0.8973 0.8964
3037.000000 0.8952 0.8929 0.8906 0.8890 0.8864
3032.000000 0.8842 0.8828 0.8810 0.8790 0.8777
3027.000000 0.8756 0.8737 0.8713 0.8690 0.8658
3022.000000 0.8627 0.8588 0.8550 0.8464 0.8372
3017.000000 0.8285 0.8187 0.8063 0.7941 0.7670
3012.000000 0.7397 0.7373 0.7278 0.7327 0.7304
3007.000000 0.7286 0.7282 0.7285 0.7281 0.7302
3002.000000 0.7324 0.7362 0.7405 0.7441 0.7474
2997.000000 0.7502 0.7532 0.7522 0.7511 0.7520
2992.000000 0.7523 0.7460 0.7422 0.7382 0.7342
2987.000000 0.7310 0.7277 0.7245 0.7212 0.7093
2982.000000 0.6975 0.6835 0.6699 0.6155 0.5602
2977.000000 0.5223 0.4852 0.4476 0.4100 0.3724
2972.000000 0.3346 0.2971 0.2595 0.2221 0.1846
2967.000000 0.1469 0.1093 0.0717 0.0340 0.0311
2962.000000 0.0284 0.0274 0.0238 0.0258 0.0253
2957.000000 0.0247 0.0245 0.0245 0.0245 0.0383
2952.000000 0.0521 0.0783 0.1045 0.1308 0.1570
2947.000000 0.1831 0.2091 0.2284 0.2479 0.2480
2942.000000 0.2482 0.2481 0.2483 0.2447 0.2411
2937.000000 0.2176 0.1941 0.1775 0.1605 0.1854
2932.000000 0.2094 0.2093 0.2093 0.2093 0.2093
2927.000000 0.2016 0.1580 0.1817 0.1694 0.1647
2922.000000 0.1599 0.1605 0.1613 0.1679 0.1745
2917.000000 0.2022 0.2301 0.2578 0.2855 0.3030
2912.000000 0.3204 0.3286 0.3368 0.3422 0.3480
2907.000000 0.3521 0.3555 0.3612 0.3669 0.3670
2902.000000 0.3672 0.3694 0.3716 0.3777 0.3838
2897.000000 0.3916 0.3996 0.4076 0.4156 0.4236
2892.000000 0.4316 0.4395 0.4475 0.4556 0.4635
2887.000000 0.4716 0.4796 0.4810 0.4825 0.4815
2882.000000 0.4833 0.4546 0.4286 0.4028 0.3771
2877.000000 0.3508 0.3256 0.2997 0.2739 0.2480
2872.000000 0.2029 0.2139 0.2057 0.2056 0.2056
2867.000000 0.2184 0.2312 0.2689 0.3067 0.3445
2862.000000 0.3823 0.4200 0.4577 0.4954 0.5332
2857.000000 0.6055 0.6777 0.6940 0.7093 0.7185
2852.000000 0.7279 0.7322 0.7364 0.7405 0.7445
2847.000000 0.7487 0.7537 0.7572 0.7606 0.7628
2842.000000 0.7666 0.7690 0.7710 0.7730 0.7762
2837.000000 0.7767 0.7765 0.7759 0.7759 0.7759
2832.000000 0.7759 0.7637 0.7515 0.7355 0.7006
2827.000000 0.7121 0.7057 0.7060 0.7074 0.7252
2822.000000 0.7410 0.7649 0.7878 0.8000 0.8115
2817.000000 0.8140 0.8165 0.8186 0.8207 0.8227
2812.000000 0.8248 0.8268 0.8289 0.8308 0.8337
2807.000000 0.8362 0.8383 0.8411 0.8439 0.8467
2802.000000 0.8498 0.8526 0.8554 0.8573 0.8594
2797.000000 0.8609 0.8624 0.8635 0.8650 0.8664
2792.000000 0.8675 0.8677 0.8698 0.8698 0.8710
2787.000000 0.8720 0.8731 0.8747 0.8766 0.8770
2782.000000 0.8775 0.8796 0.8816 0.8829 0.8842
2777.000000 0.8857 0.8870 0.8885 0.8900 0.8915
2772.000000 0.8932 0.8949 0.8966 0.8977 0.8989
2767.000000 0.8992 0.8995 0.8997 0.8997 0.8997
2762.000000 0.8995 0.8988 0.8981 0.8975 0.8970
2757.000000 0.8966 0.9013 0.8961 0.8961 0.8968
2752.000000 0.8975 0.8982 0.8990 0.9002 0.9015
2747.000000 0.9026 0.9039 0.9043 0.9044 0.9044
2742.000000 0.9040 0.9034 0.9027 0.9021 0.9016
2737.000000 0.9001 0.8986 0.8972 0.8957 0.8949
2732.000000 0.8940 0.8931 0.8922 0.8913 0.8903
2727.000000 0.8899 0.8894 0.8891 0.8888 0.8884
2722.000000 0.8881 0.8876 0.8869 0.8865 0.8860
2717.000000 0.8858 0.8857 0.8861 0.8866 0.8871
2712.000000 0.8876 0.8890 0.8906 0.8921 0.8937
2707.000000 0.8946 0.8957 0.8967 0.8978 0.8987
2702.000000 0.8998 0.9006 0.9016 0.9026 0.9036
2697.000000 0.9045 0.9054 0.9058 0.9066 0.9071
2692.000000 0.9077 0.9083 0.9090 0.9095 0.9101
2687.000000 0.9105 0.9111 0.9114 0.9120 0.9124
2682.000000 0.9130 0.9134 0.9138 0.9141 0.9145
2677.000000 0.9146 0.9148 0.9149 0.9150 0.9151
2672.000000 0.9154 0.9155 0.9156 0.9156 0.9156
2667.000000 0.9156 0.9156 0.9153 0.9152 0.9150
2662.000000 0.9149 0.9147 0.9145 0.9140 0.9137
2657.000000 0.9145 0.9141 0.9137 0.9133 0.9127
2652.000000 0.9123 0.9109 0.9050 0.9079 0.9074
2647.000000 0.9072 0.9064 0.9056 0.9052 0.9057
2642.000000 0.9070 0.9070 0.9071 0.9075 0.9081
2637.000000 0.9085 0.9090 0.9094 0.9112 0.9116
2632.000000 0.9119 0.9109 0.9115 0.9130 0.9134
2627.000000 0.9138 0.9142 0.9145 0.9149 0.9152
2622.000000 0.9157 0.9160 0.9164 0.9167 0.9171
2617.000000 0.9172 0.9172 0.9172 0.9174 0.9174
2612.000000 0.9175 0.9175 0.9175 0.9175 0.9176
2607.000000 0.9176 0.9176 0.9176 0.9178 0.9178
2602.000000 0.9176 0.9176 0.9176 0.9174 0.9172
2597.000000 0.9171 0.9169 0.9168 0.9167 0.9165
2592.000000 0.9163 0.9162 0.9161 0.9159 0.9158
2587.000000 0.9157 0.9156 0.9155 0.9154 0.9153
2582.000000 0.9153 0.9152 0.9152 0.9151 0.9151
2577.000000 0.9150 0.9149 0.9147 0.9147 0.9146
2572.000000 0.9146 0.9148 0.9152 0.9155 0.9159
2567.000000 0.9162 0.9165 0.9168 0.9171 0.9176
2562.000000 0.9179 0.9182 0.9186 0.9189 0.9192
2557.000000 0.9200 0.9207 0.9214 0.9223 0.9231
2552.000000 0.9240 0.9245 0.9251 0.9254 0.9258
2547.000000 0.9261 0.9264 0.9267 0.9270 0.9273
2542.000000 0.9276 0.9276 0.9276 0.9276 0.9276
2537.000000 0.9275 0.9275 0.9273 0.9273 0.9273
2532.000000 0.9273 0.9273 0.9273 0.9272 0.9271
2527.000000 0.9270 0.9269 0.9267 0.9266 0.9265
2522.000000 0.9263 0.9262 0.9261 0.9260 0.9259
2517.000000 0.9258 0.9257 0.9256 0.9255 0.9254
2512.000000 0.9253 0.9251 0.9250 0.9249 0.9248
2507.000000 0.9246 0.9246 0.9245 0.9245 0.9244
2502.000000 0.9244 0.9243 0.9243 0.9242 0.9241
2497.000000 0.9240 0.9240 0.9239 0.9239 0.9238
2492.000000 0.9238 0.9237 0.9237 0.9236 0.9236
2487.000000 0.9235 0.9235 0.9234 0.9234 0.9232
2482.000000 0.9232 0.9239 0.9245 0.9245 0.9243
2477.000000 0.9241 0.9241 0.9241 0.9241 0.9240
2472.000000 0.9240 0.9240 0.9240 0.9240 0.9240
2467.000000 0.9240 0.9240 0.9240 0.9241 0.9241
2462.000000 0.9241 0.9241 0.9241 0.9241 0.9234
2457.000000 0.9234 0.9233 0.9227 0.9227 0.9236
2452.000000 0.9241 0.9241 0.9230 0.9238 0.9241
2447.000000 0.9241 0.9243 0.9244 0.9244 0.9246
2442.000000 0.9247 0.9247 0.9248 0.9249 0.9250
2437.000000 0.9251 0.9252 0.9253 0.9254 0.9254
2432.000000 0.9255 0.9257 0.9258 0.9259 0.9260
2427.000000 0.9260 0.9261 0.9262 0.9263 0.9263
2422.000000 0.9264 0.9264 0.9265 0.9265 0.9266
2417.000000 0.9267 0.9268 0.9268 0.9269 0.9269
2412.000000 0.9270 0.9271 0.9272 0.9276 0.9282
2407.000000 0.9277 0.9286 0.9285 0.9284 0.9283
2402.000000 0.9283 0.9282 0.9281 0.9279 0.9278
2397.000000 0.9276 0.9273 0.9271 0.9269 0.9262
2392.000000 0.9254 0.9245 0.9260 0.9240 0.9232
2387.000000 0.9232 0.9232 0.9234 0.9247 0.9250
2382.000000 0.9258 0.9272 0.9276 0.9285 0.9297
2377.000000 0.9306 0.9318 0.9322 0.9334 0.9343
2372.000000 0.9348 0.9352 0.9356 0.9349 0.9349
2367.000000 0.9353 0.9358 0.9361 0.9365 0.9368
2362.000000 0.9371 0.9365 0.9371 0.9359 0.9358
2357.000000 0.9350 0.9357 0.9360 0.9351 0.9343
2352.000000 0.9333 0.9320 0.9303 0.9297 0.9299
2347.000000 0.9311 0.9314 0.9310 0.9297 0.9290
2342.000000 0.9288 0.9288 0.9289 0.9277 0.9287
2337.000000 0.9289 0.9276 0.9276 0.9290 0.9290
2332.000000 0.9289 0.9291 0.9301 0.9294 0.9288
2327.000000 0.9286 0.9290 0.9289 0.9292 0.9288
2322.000000 0.9284 0.9279 0.9275 0.9271 0.9265
2317.000000 0.9261 0.9257 0.9245 0.9233 0.9223
2312.000000 0.9214 0.9211 0.9207 0.9204 0.9201
2307.000000 0.9198 0.9194 0.9190 0.9187 0.9184
2302.000000 0.9180 0.9177 0.9174 0.9175 0.9182
2297.000000 0.9177 0.9174 0.9172 0.9170 0.9170
2292.000000 0.9170 0.9170 0.9170 0.9170 0.9159
2287.000000 0.9155 0.9155 0.9158 0.9163 0.9153
2282.000000 0.9156 0.9160 0.9165 0.9170 0.9163
2277.000000 0.9172 0.9178 0.9175 0.9184 0.9193
2272.000000 0.9197 0.9196 0.9203 0.9207 0.9207
2267.000000 0.9213 0.9218 0.9214 0.9213 0.9218
2262.000000 0.9224 0.9218 0.9220 0.9221 0.9214
2257.000000 0.9212 0.9214 0.9215 0.9204 0.9204
2252.000000 0.9205 0.9205 0.9194 0.9195 0.9197
2247.000000 0.9199 0.9200 0.9196 0.9189 0.9192
2242.000000 0.9196 0.9200 0.9205 0.9210 0.9214
2237.000000 0.9219 0.9224 0.9219 0.9220 0.9222
2232.000000 0.9225 0.9226 0.9228 0.9230 0.9232
2227.000000 0.9234 0.9236 0.9238 0.9241 0.9243
2222.000000 0.9294 0.9230 0.9230 0.9230 0.9230
2217.000000 0.9230 0.9230 0.9230 0.9230 0.9229
2212.000000 0.9229 0.9229 0.9229 0.9228 0.9228
2207.000000 0.9228 0.9228 0.9227 0.9227 0.9227
2202.000000 0.9227 0.9226 0.9226 0.9226 0.9226
2197.000000 0.9226 0.9224 0.9214 0.9226 0.9223
2192.000000 0.9212 0.9212 0.9212 0.9212 0.9212
2187.000000 0.9212 0.9212 0.9211 0.9218 0.9216
2182.000000 0.9212 0.9213 0.9215 0.9216 0.9229
2177.000000 0.9233 0.9235 0.9236 0.9237 0.9240
2172.000000 0.9242 0.9243 0.9246 0.9245 0.9234
2167.000000 0.9236 0.9238 0.9239 0.9241 0.9242
2162.000000 0.9244 0.9246 0.9248 0.9249 0.9251
2157.000000 0.9252 0.9253 0.9254 0.9255 0.9256
2152.000000 0.9257 0.9258 0.9259 0.9261 0.9262
2147.000000 0.9263 0.9264 0.9265 0.9266 0.9267
2142.000000 0.9268 0.9268 0.9270 0.9271 0.9271
2137.000000 0.9273 0.9274 0.9275 0.9275 0.9277
2132.000000 0.9278 0.9278 0.9280 0.9281 0.9282
2127.000000 0.9282 0.9283 0.9283 0.9284 0.9284
2122.000000 0.9272 0.9283 0.9285 0.9285 0.9285
2117.000000 0.9285 0.9286 0.9286 0.9286 0.9286
2112.000000 0.9287 0.9287 0.9287 0.9287 0.9288
2107.000000 0.9288 0.9288 0.9288 0.9289 0.9289
2102.000000 0.9289 0.9289 0.9290 0.9290 0.9280
2097.000000 0.9276 0.9288 0.9291 0.9279 0.9290
2092.000000 0.9291 0.9291 0.9291 0.9291 0.9291
2087.000000 0.9291 0.9291 0.9291 0.9291 0.9291
2082.000000 0.9291 0.9290 0.9290 0.9290 0.9290
2077.000000 0.9290 0.9290 0.9290 0.9290 0.9290
2072.000000 0.9290 0.9290 0.9290 0.9290 0.9290
2067.000000 0.9290 0.9290 0.9289 0.9289 0.9288
2062.000000 0.9288 0.9287 0.9287 0.9286 0.9284
2057.000000 0.9287 0.9298 0.9297 0.9297 0.9296
2052.000000 0.9289 0.9287 0.9293 0.9284 0.9277
2047.000000 0.9277 0.9277 0.9276 0.9276 0.9274
2042.000000 0.9274 0.9274 0.9273 0.9272 0.9272
2037.000000 0.9269 0.9269 0.9269 0.9269 0.9268
2032.000000 0.9268 0.9266 0.9266 0.9265 0.9270
2027.000000 0.9273 0.9264 0.9269 0.9277 0.9276
2022.000000 0.9275 0.9274 0.9274 0.9273 0.9273
2017.000000 0.9272 0.9271 0.9270 0.9270 0.9270
2012.000000 0.9270 0.9271 0.9272 0.9272 0.9272
2007.000000 0.9270 0.9269 0.9266 0.9265 0.9260
2002.000000 0.9256 0.9243 0.9231 0.9215 0.9195
1997.000000 0.9180 0.9193 0.9206 0.9216 0.9226
1992.000000 0.9236 0.9247 0.9256 0.9255 0.9253
1987.000000 0.9252 0.9240 0.9239 0.9241 0.9242
1982.000000 0.9243 0.9245 0.9246 0.9246 0.9234
1977.000000 0.9234 0.9235 0.9235 0.9236 0.9236
1972.000000 0.9236 0.9236 0.9236 0.9236 0.9236
1967.000000 0.9237 0.9245 0.9244 0.9239 0.9287
1962.000000 0.9372 0.9451 0.9515 0.9511 0.9456
1957.000000 0.9362 0.9268 0.9256 0.9237 0.9237
1952.000000 0.9239 0.9239 0.9237 0.9226 0.9226
1947.000000 0.9223 0.9222 0.9220 0.9219 0.9217
1942.000000 0.9216 0.9214 0.9212 0.9211 0.9211
1937.000000 0.9211 0.9211 0.9212 0.9212 0.9213
1932.000000 0.9213 0.9214 0.9215 0.9215 0.9216
1927.000000 0.9216 0.9216 0.9216 0.9216 0.9217
1922.000000 0.9217 0.9217 0.9217 0.9217 0.9217
1917.000000 0.9218 0.9218 0.9218 0.9216 0.9214
1912.000000 0.9212 0.9209 0.9207 0.9206 0.9204
1907.000000 0.9213 0.9214 0.9212 0.9210 0.9208
1902.000000 0.9206 0.9205 0.9204 0.9204 0.9204
1897.000000 0.9204 0.9204 0.9204 0.9205 0.9205
1892.000000 0.9205 0.9200 0.9190 0.9190 0.9190
1887.000000 0.9190 0.9190 0.9193 0.9207 0.9217
1882.000000 0.9221 0.9226 0.9231 0.9235 0.9239
1877.000000 0.9243 0.9243 0.9259 0.9259 0.9259
1872.000000 0.9257 0.9233 0.9208 0.9186 0.9163
1867.000000 0.9162 0.9161 0.9164 0.9167 0.9170
1862.000000 0.9170 0.9169 0.9163 0.9157 0.9152
1857.000000 0.9156 0.9150 0.9144 0.9150 0.9155
1852.000000 0.9164 0.9170 0.9176 0.9175 0.9173
1847.000000 0.9172 0.9169 0.9162 0.9155 0.9151
1842.000000 0.9151 0.9155 0.9161 0.9166 0.9171
1837.000000 0.9175 0.9171 0.9163 0.9164 0.9165
1832.000000 0.9166 0.9167 0.9168 0.9169 0.9170
1827.000000 0.9170 0.9170 0.9170 0.9169 0.9169
1822.000000 0.9169 0.9169 0.9172 0.9190 0.9196
1817.000000 0.9200 0.9204 0.9209 0.9214 0.9219
1812.000000 0.9224 0.9228 0.9233 0.9232 0.9224
1807.000000 0.9224 0.9225 0.9225 0.9217 0.9211
1802.000000 0.9212 0.9212 0.9212 0.9212 0.9212
