##TITLE=PROPANE, 1-IODO-
##JCAMP-DX=4.24
$$ By DXEDIT 1.05 (RS McDonald)
##DATA TYPE=INFRARED SPECTRUM
##CLASS=COBLENTZ III
##ORIGIN=WYANDOTTE CHEMICALS CORP.
##OWNER=COBLENTZ SOC.
Collection (C) 2018 copyright by the U.S. Secretary of Commerce
on behalf of the United States of America. All rights reserved.
##DATE=1956/03/09
##NAMES=1-iodopropane
##CAS REGISTRY NO=107-08-4
##MOLFORM=C3 H7 I
##SOURCE REFERENCE=COBLENTZ NO. 05867
##$NIST SOURCE=COBLENTZ
##$NIST IMAGE=cob5867
##SPECTROMETER/DATA SYSTEM=BAIRD (GRATING)
##INSTRUMENT PARAMETERS=NaCl PRISM
##STATE=LIQUID (NEAT)
##PATH LENGTH=0.003 CM,
##SAMPLING PROCEDURE=TRANSMISSION
##RESOLUTION=2
##DATA PROCESSING=DIGITIZED BY COBLENTZ SOCIETY (BATCH I) FROM HARD COPY
##XUNITS=1/CM
##YUNITS=TRANSMITTANCE
##XLABEL=Wavenumbers (cm-1)
##YLABEL=Transmittance
##XFACTOR=1
##YFACTOR=1
##DELTAX=1
##FIRSTX=4000
##LASTX=626
##FIRSTY=0.9321
##MAXX=4000
##MINX=626
##MAXY=0.9418
##MINY=0.0376
##NPOINTS=3375
##XYDATA=(X++(Y..Y))
4000.000000 0.9321 0.9321 0.9321 0.9321 0.9323
3995.000000 0.9323 0.9323 0.9324 0.9324 0.9325
3990.000000 0.9325 0.9325 0.9325 0.9327 0.9327
3985.000000 0.9327 0.9327 0.9327 0.9327 0.9327
3980.000000 0.9327 0.9327 0.9327 0.9327 0.9327
3975.000000 0.9327 0.9325 0.9325 0.9325 0.9325
3970.000000 0.9325 0.9325 0.9325 0.9325 0.9325
3965.000000 0.9325 0.9325 0.9325 0.9325 0.9325
3960.000000 0.9325 0.9325 0.9325 0.9325 0.9325
3955.000000 0.9324 0.9324 0.9324 0.9324 0.9324
3950.000000 0.9324 0.9323 0.9323 0.9323 0.9323
3945.000000 0.9323 0.9323 0.9321 0.9321 0.9321
3940.000000 0.9321 0.9321 0.9321 0.9321 0.9321
3935.000000 0.9321 0.9321 0.9321 0.9321 0.9321
3930.000000 0.9321 0.9321 0.9321 0.9321 0.9321
3925.000000 0.9321 0.9323 0.9323 0.9323 0.9324
3920.000000 0.9324 0.9324 0.9325 0.9325 0.9325
3915.000000 0.9325 0.9325 0.9325 0.9327 0.9327
3910.000000 0.9327 0.9327 0.9327 0.9327 0.9328
3905.000000 0.9328 0.9328 0.9328 0.9328 0.9328
3900.000000 0.9330 0.9330 0.9330 0.9331 0.9331
3895.000000 0.9331 0.9332 0.9332 0.9332 0.9333
3890.000000 0.9333 0.9333 0.9334 0.9334 0.9335
3885.000000 0.9336 0.9337 0.9338 0.9338 0.9339
3880.000000 0.9340 0.9341 0.9342 0.9343 0.9344
3875.000000 0.9345 0.9346 0.9347 0.9348 0.9349
3870.000000 0.9350 0.9351 0.9352 0.9353 0.9354
3865.000000 0.9355 0.9355 0.9356 0.9357 0.9359
3860.000000 0.9360 0.9361 0.9362 0.9363 0.9364
3855.000000 0.9365 0.9366 0.9367 0.9368 0.9368
3850.000000 0.9370 0.9371 0.9371 0.9373 0.9374
3845.000000 0.9375 0.9375 0.9378 0.9378 0.9380
3840.000000 0.9382 0.9383 0.9384 0.9385 0.9387
3835.000000 0.9388 0.9389 0.9390 0.9392 0.9393
3830.000000 0.9394 0.9396 0.9397 0.9398 0.9399
3825.000000 0.9401 0.9402 0.9403 0.9404 0.9405
3820.000000 0.9406 0.9407 0.9407 0.9408 0.9409
3815.000000 0.9410 0.9411 0.9412 0.9413 0.9413
3810.000000 0.9414 0.9415 0.9416 0.9417 0.9418
3805.000000 0.9418 0.9416 0.9414 0.9412 0.9411
3800.000000 0.9409 0.9407 0.9405 0.9403 0.9401
3795.000000 0.9399 0.9397 0.9395 0.9393 0.9391
3790.000000 0.9389 0.9387 0.9385 0.9383 0.9381
3785.000000 0.9378 0.9377 0.9375 0.9373 0.9371
3780.000000 0.9371 0.9371 0.9370 0.9368 0.9368
3775.000000 0.9368 0.9368 0.9367 0.9367 0.9367
3770.000000 0.9366 0.9366 0.9366 0.9365 0.9365
3765.000000 0.9364 0.9364 0.9363 0.9363 0.9362
3760.000000 0.9362 0.9361 0.9361 0.9361 0.9360
3755.000000 0.9360 0.9360 0.9359 0.9359 0.9359
3750.000000 0.9359 0.9359 0.9359 0.9359 0.9359
3745.000000 0.9359 0.9359 0.9359 0.9359 0.9359
3740.000000 0.9359 0.9359 0.9359 0.9359 0.9360
3735.000000 0.9360 0.9360 0.9360 0.9360 0.9360
3730.000000 0.9360 0.9360 0.9360 0.9360 0.9360
3725.000000 0.9360 0.9360 0.9360 0.9360 0.9360
3720.000000 0.9360 0.9360 0.9360 0.9360 0.9360
3715.000000 0.9360 0.9361 0.9361 0.9361 0.9361
3710.000000 0.9361 0.9361 0.9361 0.9361 0.9361
3705.000000 0.9361 0.9361 0.9361 0.9361 0.9361
3700.000000 0.9361 0.9361 0.9362 0.9362 0.9362
3695.000000 0.9362 0.9362 0.9362 0.9362 0.9362
3690.000000 0.9362 0.9362 0.9362 0.9361 0.9361
3685.000000 0.9361 0.9361 0.9361 0.9361 0.9360
3680.000000 0.9360 0.9359 0.9359 0.9359 0.9358
3675.000000 0.9358 0.9358 0.9357 0.9357 0.9356
3670.000000 0.9356 0.9356 0.9356 0.9356 0.9356
3665.000000 0.9355 0.9355 0.9354 0.9354 0.9354
3660.000000 0.9353 0.9353 0.9353 0.9352 0.9352
3655.000000 0.9352 0.9351 0.9351 0.9351 0.9351
3650.000000 0.9351 0.9350 0.9350 0.9350 0.9349
3645.000000 0.9349 0.9348 0.9348 0.9348 0.9347
3640.000000 0.9347 0.9346 0.9346 0.9346 0.9345
3635.000000 0.9345 0.9345 0.9344 0.9344 0.9343
3630.000000 0.9342 0.9342 0.9341 0.9340 0.9339
3625.000000 0.9338 0.9337 0.9336 0.9335 0.9334
3620.000000 0.9333 0.9332 0.9331 0.9330 0.9328
3615.000000 0.9328 0.9327 0.9325 0.9325 0.9324
3610.000000 0.9323 0.9321 0.9321 0.9320 0.9318
3605.000000 0.9318 0.9316 0.9315 0.9314 0.9313
3600.000000 0.9312 0.9311 0.9310 0.9309 0.9308
3595.000000 0.9307 0.9306 0.9305 0.9304 0.9302
3590.000000 0.9301 0.9300 0.9299 0.9298 0.9296
3585.000000 0.9295 0.9294 0.9292 0.9291 0.9290
3580.000000 0.9289 0.9287 0.9286 0.9285 0.9284
3575.000000 0.9282 0.9281 0.9280 0.9278 0.9277
3570.000000 0.9275 0.9275 0.9273 0.9271 0.9271
3565.000000 0.9270 0.9268 0.9267 0.9266 0.9264
3560.000000 0.9263 0.9262 0.9261 0.9259 0.9258
3555.000000 0.9257 0.9255 0.9254 0.9253 0.9251
3550.000000 0.9250 0.9249 0.9248 0.9247 0.9245
3545.000000 0.9244 0.9243 0.9241 0.9240 0.9238
3540.000000 0.9237 0.9236 0.9235 0.9234 0.9232
3535.000000 0.9231 0.9230 0.9228 0.9227 0.9225
3530.000000 0.9224 0.9223 0.9221 0.9221 0.9218
3525.000000 0.9218 0.9217 0.9216 0.9215 0.9213
3520.000000 0.9212 0.9210 0.9209 0.9208 0.9206
3515.000000 0.9205 0.9204 0.9203 0.9201 0.9200
3510.000000 0.9199 0.9197 0.9196 0.9194 0.9193
3505.000000 0.9192 0.9190 0.9189 0.9187 0.9186
3500.000000 0.9184 0.9183 0.9182 0.9180 0.9178
3495.000000 0.9177 0.9175 0.9174 0.9173 0.9171
3490.000000 0.9170 0.9168 0.9167 0.9166 0.9164
3485.000000 0.9163 0.9162 0.9160 0.9159 0.9157
3480.000000 0.9156 0.9154 0.9153 0.9151 0.9150
3475.000000 0.9149 0.9147 0.9146 0.9144 0.9143
3470.000000 0.9141 0.9140 0.9138 0.9137 0.9135
3465.000000 0.9134 0.9133 0.9131 0.9130 0.9128
3460.000000 0.9128 0.9127 0.9125 0.9125 0.9124
3455.000000 0.9123 0.9121 0.9120 0.9118 0.9118
3450.000000 0.9117 0.9116 0.9115 0.9114 0.9113
3445.000000 0.9112 0.9111 0.9110 0.9109 0.9108
3440.000000 0.9107 0.9106 0.9105 0.9104 0.9103
3435.000000 0.9101 0.9100 0.9099 0.9098 0.9097
3430.000000 0.9095 0.9094 0.9094 0.9093 0.9093
3425.000000 0.9093 0.9092 0.9092 0.9091 0.9091
3420.000000 0.9091 0.9090 0.9090 0.9089 0.9089
3415.000000 0.9088 0.9088 0.9088 0.9088 0.9088
3410.000000 0.9087 0.9087 0.9086 0.9086 0.9086
3405.000000 0.9085 0.9085 0.9085 0.9085 0.9084
3400.000000 0.9084 0.9083 0.9083 0.9083 0.9082
3395.000000 0.9082 0.9082 0.9082 0.9081 0.9081
3390.000000 0.9081 0.9080 0.9080 0.9078 0.9078
3385.000000 0.9078 0.9077 0.9077 0.9075 0.9074
3380.000000 0.9073 0.9071 0.9071 0.9070 0.9068
3375.000000 0.9068 0.9067 0.9066 0.9065 0.9064
3370.000000 0.9063 0.9062 0.9061 0.9060 0.9059
3365.000000 0.9058 0.9056 0.9054 0.9052 0.9050
3360.000000 0.9048 0.9045 0.9043 0.9040 0.9037
3355.000000 0.9035 0.9032 0.9028 0.9027 0.9024
3350.000000 0.9023 0.9021 0.9018 0.9018 0.9017
3345.000000 0.9016 0.9016 0.9015 0.9014 0.9014
3340.000000 0.9013 0.9012 0.9012 0.9011 0.9010
3335.000000 0.9010 0.9009 0.9008 0.9007 0.9006
3330.000000 0.9005 0.9005 0.9004 0.9003 0.9002
3325.000000 0.9001 0.9000 0.8999 0.8998 0.8997
3320.000000 0.8995 0.8995 0.8994 0.8993 0.8992
3315.000000 0.8991 0.8990 0.8988 0.8987 0.8986
3310.000000 0.8985 0.8984 0.8983 0.8982 0.8980
3305.000000 0.8978 0.8977 0.8975 0.8974 0.8971
3300.000000 0.8970 0.8968 0.8967 0.8966 0.8964
3295.000000 0.8962 0.8961 0.8959 0.8958 0.8956
3290.000000 0.8954 0.8953 0.8951 0.8949 0.8948
3285.000000 0.8946 0.8945 0.8943 0.8941 0.8940
3280.000000 0.8938 0.8937 0.8935 0.8933 0.8931
3275.000000 0.8928 0.8925 0.8923 0.8920 0.8917
3270.000000 0.8914 0.8911 0.8909 0.8906 0.8902
3265.000000 0.8899 0.8896 0.8894 0.8891 0.8888
3260.000000 0.8885 0.8882 0.8878 0.8875 0.8873
3255.000000 0.8870 0.8867 0.8863 0.8860 0.8857
3250.000000 0.8853 0.8849 0.8846 0.8842 0.8839
3245.000000 0.8836 0.8832 0.8828 0.8825 0.8821
3240.000000 0.8818 0.8815 0.8811 0.8807 0.8804
3235.000000 0.8800 0.8796 0.8792 0.8787 0.8783
3230.000000 0.8778 0.8774 0.8770 0.8766 0.8761
3225.000000 0.8757 0.8752 0.8748 0.8743 0.8739
3220.000000 0.8734 0.8730 0.8725 0.8721 0.8718
3215.000000 0.8714 0.8710 0.8706 0.8702 0.8698
3210.000000 0.8694 0.8690 0.8686 0.8682 0.8678
3205.000000 0.8674 0.8670 0.8666 0.8662 0.8658
3200.000000 0.8654 0.8651 0.8647 0.8643 0.8639
3195.000000 0.8634 0.8630 0.8625 0.8621 0.8618
3190.000000 0.8614 0.8610 0.8606 0.8602 0.8598
3185.000000 0.8594 0.8590 0.8586 0.8582 0.8578
3180.000000 0.8574 0.8570 0.8565 0.8561 0.8557
3175.000000 0.8553 0.8549 0.8545 0.8541 0.8537
3170.000000 0.8533 0.8528 0.8525 0.8521 0.8517
3165.000000 0.8513 0.8510 0.8508 0.8506 0.8504
3160.000000 0.8503 0.8501 0.8499 0.8497 0.8495
3155.000000 0.8493 0.8491 0.8489 0.8488 0.8487
3150.000000 0.8486 0.8485 0.8484 0.8484 0.8483
3145.000000 0.8483 0.8482 0.8482 0.8481 0.8481
3140.000000 0.8480 0.8480 0.8480 0.8480 0.8478
3135.000000 0.8478 0.8478 0.8478 0.8477 0.8477
3130.000000 0.8475 0.8475 0.8474 0.8471 0.8470
3125.000000 0.8468 0.8467 0.8465 0.8464 0.8462
3120.000000 0.8460 0.8457 0.8455 0.8451 0.8446
3115.000000 0.8441 0.8436 0.8431 0.8425 0.8420
3110.000000 0.8414 0.8408 0.8401 0.8394 0.8387
3105.000000 0.8380 0.8371 0.8364 0.8356 0.8347
3100.000000 0.8337 0.8328 0.8318 0.8313 0.8308
3095.000000 0.8303 0.8298 0.8293 0.8288 0.8283
3090.000000 0.8278 0.8273 0.8268 0.8263 0.8259
3085.000000 0.8254 0.8249 0.8244 0.8240 0.8236
3080.000000 0.8231 0.8227 0.8223 0.8218 0.8215
3075.000000 0.8210 0.8206 0.8202 0.8198 0.8193
3070.000000 0.8189 0.8185 0.8181 0.8174 0.8165
3065.000000 0.8156 0.8147 0.8138 0.8128 0.8119
3060.000000 0.8111 0.8099 0.8087 0.8075 0.8062
3055.000000 0.8051 0.8039 0.8026 0.8014 0.7998
3050.000000 0.7982 0.7965 0.7948 0.7928 0.7910
3045.000000 0.7891 0.7869 0.7848 0.7826 0.7801
3040.000000 0.7768 0.7736 0.7701 0.7671 0.7643
3035.000000 0.7614 0.7585 0.7557 0.7528 0.7500
3030.000000 0.7458 0.7385 0.7311 0.7239 0.7138
3025.000000 0.7019 0.6901 0.6785 0.6671 0.6558
3020.000000 0.6444 0.6331 0.6217 0.6103 0.5990
3015.000000 0.5876 0.5760 0.5647 0.5533 0.5418
3010.000000 0.5304 0.5189 0.5075 0.4960 0.4846
3005.000000 0.4732 0.4617 0.4502 0.4386 0.4271
3000.000000 0.4156 0.4041 0.3925 0.3809 0.3695
2995.000000 0.3579 0.3464 0.3348 0.3232 0.3116
2990.000000 0.3001 0.2884 0.2768 0.2652 0.2535
2985.000000 0.2420 0.2304 0.2187 0.2071 0.1954
2980.000000 0.1836 0.1720 0.1603 0.1486 0.1372
2975.000000 0.1270 0.1167 0.1065 0.1029 0.1028
2970.000000 0.1026 0.1025 0.1025 0.1024 0.1022
2965.000000 0.1022 0.1022 0.1022 0.1025 0.1063
2960.000000 0.1102 0.1140 0.1198 0.1270 0.1342
2955.000000 0.1414 0.1487 0.1559 0.1631 0.1703
2950.000000 0.1776 0.1848 0.1917 0.1961 0.2004
2945.000000 0.2046 0.2100 0.2160 0.2219 0.2279
2940.000000 0.2346 0.2413 0.2480 0.2564 0.2654
2935.000000 0.2745 0.2834 0.2926 0.3017 0.3108
2930.000000 0.3239 0.3378 0.3516 0.3616 0.3655
2925.000000 0.3694 0.3734 0.3766 0.3798 0.3829
2920.000000 0.3855 0.3876 0.3897 0.3916 0.3936
2915.000000 0.3955 0.3974 0.3980 0.3982 0.3982
2910.000000 0.3984 0.3987 0.3989 0.4003 0.3992
2905.000000 0.3994 0.3996 0.3997 0.3999 0.4000
2900.000000 0.4002 0.4003 0.4005 0.4006 0.4007
2895.000000 0.4008 0.4008 0.3994 0.3964 0.3937
2890.000000 0.3908 0.3873 0.3839 0.3804 0.3768
2885.000000 0.3734 0.3700 0.3664 0.3630 0.3596
2880.000000 0.3562 0.3530 0.3498 0.3480 0.3462
2875.000000 0.3462 0.3462 0.3462 0.3462 0.3462
2870.000000 0.3468 0.3499 0.3528 0.3558 0.3720
2865.000000 0.3886 0.4052 0.4218 0.4384 0.4551
2860.000000 0.4717 0.4884 0.5051 0.5201 0.5252
2855.000000 0.5304 0.5355 0.5371 0.5381 0.5392
2850.000000 0.5401 0.5409 0.5417 0.5426 0.5434
2845.000000 0.5442 0.5449 0.5456 0.5462 0.5469
2840.000000 0.5578 0.5698 0.5818 0.5943 0.6070
2835.000000 0.6198 0.6325 0.6453 0.6581 0.6708
2830.000000 0.6836 0.6964 0.7092 0.7221 0.7349
2825.000000 0.7476 0.7594 0.7708 0.7821 0.7883
2820.000000 0.7917 0.7951 0.7982 0.8008 0.8035
2815.000000 0.8060 0.8083 0.8106 0.8128 0.8148
2810.000000 0.8168 0.8188 0.8203 0.8217 0.8231
2805.000000 0.8244 0.8256 0.8268 0.8281 0.8294
2800.000000 0.8307 0.8318 0.8330 0.8341 0.8351
2795.000000 0.8361 0.8370 0.8378 0.8389 0.8399
2790.000000 0.8408 0.8415 0.8421 0.8428 0.8435
2785.000000 0.8442 0.8448 0.8454 0.8461 0.8467
2780.000000 0.8473 0.8478 0.8485 0.8491 0.8497
2775.000000 0.8504 0.8509 0.8515 0.8520 0.8525
2770.000000 0.8530 0.8534 0.8540 0.8545 0.8551
2765.000000 0.8555 0.8558 0.8562 0.8564 0.8565
2760.000000 0.8567 0.8567 0.8567 0.8566 0.8565
2755.000000 0.8562 0.8560 0.8557 0.8552 0.8547
2750.000000 0.8543 0.8540 0.8537 0.8534 0.8532
2745.000000 0.8528 0.8527 0.8525 0.8523 0.8521
2740.000000 0.8518 0.8517 0.8515 0.8514 0.8514
2735.000000 0.8514 0.8518 0.8525 0.8532 0.8542
2730.000000 0.8551 0.8561 0.8573 0.8584 0.8596
2725.000000 0.8608 0.8618 0.8631 0.8643 0.8654
2720.000000 0.8665 0.8677 0.8688 0.8698 0.8709
2715.000000 0.8718 0.8728 0.8740 0.8750 0.8760
2710.000000 0.8768 0.8777 0.8785 0.8793 0.8801
2705.000000 0.8808 0.8816 0.8823 0.8828 0.8832
2700.000000 0.8836 0.8839 0.8843 0.8846 0.8849
2695.000000 0.8852 0.8855 0.8857 0.8860 0.8860
2690.000000 0.8860 0.8859 0.8858 0.8854 0.8851
2685.000000 0.8847 0.8844 0.8840 0.8834 0.8827
2680.000000 0.8818 0.8811 0.8803 0.8794 0.8787
2675.000000 0.8778 0.8771 0.8765 0.8758 0.8751
2670.000000 0.8745 0.8738 0.8732 0.8728 0.8725
2665.000000 0.8723 0.8720 0.8716 0.8714 0.8714
2660.000000 0.8714 0.8714 0.8717 0.8720 0.8723
2655.000000 0.8725 0.8728 0.8731 0.8735 0.8738
2650.000000 0.8745 0.8752 0.8758 0.8764 0.8770
2645.000000 0.8775 0.8781 0.8786 0.8791 0.8795
2640.000000 0.8800 0.8803 0.8806 0.8809 0.8809
2635.000000 0.8810 0.8811 0.8811 0.8811 0.8811
2630.000000 0.8808 0.8804 0.8800 0.8796 0.8792
2625.000000 0.8785 0.8778 0.8770 0.8763 0.8756
2620.000000 0.8751 0.8747 0.8744 0.8741 0.8739
2615.000000 0.8739 0.8738 0.8740 0.8741 0.8742
2610.000000 0.8743 0.8744 0.8746 0.8747 0.8749
2605.000000 0.8750 0.8752 0.8757 0.8762 0.8767
2600.000000 0.8774 0.8780 0.8786 0.8793 0.8799
2595.000000 0.8807 0.8815 0.8821 0.8830 0.8837
2590.000000 0.8845 0.8852 0.8859 0.8867 0.8875
2585.000000 0.8883 0.8890 0.8898 0.8905 0.8913
2580.000000 0.8920 0.8928 0.8935 0.8943 0.8950
2575.000000 0.8958 0.8966 0.8973 0.8981 0.8986
2570.000000 0.8992 0.8996 0.8999 0.9001 0.9003
2565.000000 0.9005 0.9008 0.9010 0.9012 0.9014
2560.000000 0.9016 0.9017 0.9018 0.9018 0.9018
2555.000000 0.9018 0.9018 0.9017 0.9017 0.9016
2550.000000 0.9015 0.9013 0.9009 0.9004 0.8998
2545.000000 0.8993 0.8988 0.8982 0.8977 0.8971
2540.000000 0.8966 0.8961 0.8956 0.8951 0.8945
2535.000000 0.8941 0.8937 0.8933 0.8930 0.8927
2530.000000 0.8925 0.8923 0.8921 0.8920 0.8920
2525.000000 0.8920 0.8920 0.8920 0.8920 0.8920
2520.000000 0.8920 0.8920 0.8920 0.8920 0.8920
2515.000000 0.8920 0.8920 0.8920 0.8921 0.8921
2510.000000 0.8921 0.8921 0.8921 0.8921 0.8921
2505.000000 0.8920 0.8920 0.8920 0.8918 0.8918
2500.000000 0.8918 0.8918 0.8917 0.8916 0.8916
2495.000000 0.8915 0.8915 0.8915 0.8914 0.8914
2490.000000 0.8913 0.8913 0.8913 0.8912 0.8912
2485.000000 0.8911 0.8911 0.8910 0.8909 0.8908
2480.000000 0.8906 0.8905 0.8904 0.8903 0.8902
2475.000000 0.8901 0.8900 0.8899 0.8898 0.8896
2470.000000 0.8895 0.8892 0.8890 0.8886 0.8882
2465.000000 0.8878 0.8875 0.8871 0.8868 0.8864
2460.000000 0.8860 0.8856 0.8853 0.8849 0.8845
2455.000000 0.8842 0.8839 0.8834 0.8828 0.8824
2450.000000 0.8818 0.8814 0.8808 0.8803 0.8798
2445.000000 0.8794 0.8789 0.8786 0.8783 0.8780
2440.000000 0.8778 0.8778 0.8778 0.8783 0.8787
2435.000000 0.8791 0.8796 0.8800 0.8804 0.8809
2430.000000 0.8813 0.8818 0.8823 0.8827 0.8833
2425.000000 0.8838 0.8843 0.8848 0.8853 0.8858
2420.000000 0.8863 0.8868 0.8873 0.8878 0.8883
2415.000000 0.8887 0.8891 0.8895 0.8898 0.8901
2410.000000 0.8901 0.8901 0.8901 0.8901 0.8901
2405.000000 0.8901 0.8901 0.8900 0.8900 0.8900
2400.000000 0.8900 0.8899 0.8895 0.8892 0.8885
2395.000000 0.8878 0.8871 0.8864 0.8856 0.8848
2390.000000 0.8839 0.8830 0.8821 0.8812 0.8803
2385.000000 0.8794 0.8785 0.8775 0.8768 0.8761
2380.000000 0.8755 0.8748 0.8742 0.8735 0.8728
2375.000000 0.8721 0.8715 0.8709 0.8703 0.8696
2370.000000 0.8690 0.8684 0.8678 0.8674 0.8668
2365.000000 0.8664 0.8659 0.8660 0.8660 0.8667
2360.000000 0.8673 0.8680 0.8687 0.8694 0.8700
2355.000000 0.8706 0.8713 0.8720 0.8725 0.8733
2350.000000 0.8740 0.8747 0.8754 0.8760 0.8767
2345.000000 0.8773 0.8780 0.8787 0.8793 0.8800
2340.000000 0.8807 0.8814 0.8821 0.8828 0.8835
2335.000000 0.8841 0.8848 0.8855 0.8862 0.8868
2330.000000 0.8875 0.8882 0.8889 0.8894 0.8899
2325.000000 0.8904 0.8910 0.8915 0.8920 0.8925
2320.000000 0.8931 0.8936 0.8941 0.8946 0.8951
2315.000000 0.8957 0.8962 0.8967 0.8971 0.8975
2310.000000 0.8978 0.8980 0.8982 0.8984 0.8986
2305.000000 0.8987 0.8989 0.8990 0.8992 0.8992
2300.000000 0.8992 0.8993 0.8994 0.8995 0.8995
2295.000000 0.8995 0.8993 0.8990 0.8987 0.8984
2290.000000 0.8981 0.8978 0.8975 0.8974 0.8971
2285.000000 0.8968 0.8965 0.8962 0.8960 0.8957
2280.000000 0.8955 0.8952 0.8949 0.8947 0.8944
2275.000000 0.8941 0.8939 0.8936 0.8934 0.8931
2270.000000 0.8928 0.8925 0.8923 0.8921 0.8918
2265.000000 0.8916 0.8913 0.8910 0.8907 0.8905
2260.000000 0.8903 0.8900 0.8898 0.8896 0.8894
2255.000000 0.8891 0.8889 0.8887 0.8885 0.8882
2250.000000 0.8880 0.8878 0.8875 0.8874 0.8871
2245.000000 0.8868 0.8867 0.8864 0.8861 0.8859
2240.000000 0.8856 0.8854 0.8851 0.8848 0.8845
2235.000000 0.8843 0.8840 0.8837 0.8834 0.8832
2230.000000 0.8828 0.8825 0.8823 0.8818 0.8816
2225.000000 0.8812 0.8809 0.8805 0.8802 0.8798
2220.000000 0.8795 0.8791 0.8787 0.8781 0.8775
2215.000000 0.8767 0.8760 0.8752 0.8745 0.8737
2210.000000 0.8731 0.8725 0.8721 0.8716 0.8711
2205.000000 0.8706 0.8701 0.8696 0.8692 0.8687
2200.000000 0.8682 0.8677 0.8671 0.8667 0.8665
2195.000000 0.8664 0.8662 0.8661 0.8658 0.8656
2190.000000 0.8655 0.8653 0.8652 0.8650 0.8648
2185.000000 0.8646 0.8644 0.8643 0.8641 0.8639
2180.000000 0.8637 0.8636 0.8636 0.8636 0.8636
2175.000000 0.8636 0.8636 0.8636 0.8637 0.8637
2170.000000 0.8637 0.8637 0.8637 0.8638 0.8639
2165.000000 0.8641 0.8642 0.8644 0.8646 0.8647
2160.000000 0.8648 0.8649 0.8651 0.8653 0.8664
2155.000000 0.8675 0.8692 0.8709 0.8725 0.8743
2150.000000 0.8760 0.8775 0.8789 0.8803 0.8816
2145.000000 0.8830 0.8842 0.8853 0.8864 0.8875
2140.000000 0.8887 0.8896 0.8903 0.8907 0.8905
2135.000000 0.8902 0.8898 0.8894 0.8890 0.8887
2130.000000 0.8883 0.8880 0.8875 0.8874 0.8873
2125.000000 0.8873 0.8874 0.8874 0.8874 0.8874
2120.000000 0.8875 0.8875 0.8875 0.8875 0.8877
2115.000000 0.8878 0.8878 0.8878 0.8878 0.8880
2110.000000 0.8882 0.8884 0.8885 0.8887 0.8889
2105.000000 0.8890 0.8892 0.8894 0.8896 0.8897
2100.000000 0.8899 0.8901 0.8902 0.8904 0.8905
2095.000000 0.8906 0.8908 0.8910 0.8912 0.8913
2090.000000 0.8915 0.8917 0.8918 0.8920 0.8921
2085.000000 0.8923 0.8923 0.8924 0.8924 0.8925
2080.000000 0.8925 0.8925 0.8925 0.8925 0.8925
2075.000000 0.8925 0.8921 0.8918 0.8915 0.8912
2070.000000 0.8909 0.8906 0.8902 0.8898 0.8893
2065.000000 0.8885 0.8875 0.8866 0.8857 0.8848
2060.000000 0.8840 0.8832 0.8828 0.8825 0.8821
2055.000000 0.8818 0.8818 0.8818 0.8818 0.8820
2050.000000 0.8821 0.8824 0.8825 0.8825 0.8828
2045.000000 0.8833 0.8839 0.8845 0.8851 0.8857
2040.000000 0.8863 0.8868 0.8875 0.8881 0.8887
2035.000000 0.8892 0.8896 0.8901 0.8906 0.8911
2030.000000 0.8916 0.8921 0.8925 0.8930 0.8934
2025.000000 0.8938 0.8943 0.8947 0.8951 0.8956
2020.000000 0.8956 0.8956 0.8956 0.8956 0.8956
2015.000000 0.8956 0.8955 0.8953 0.8945 0.8936
2010.000000 0.8925 0.8912 0.8895 0.8878 0.8862
2005.000000 0.8846 0.8830 0.8815 0.8800 0.8786
2000.000000 0.8771 0.8765 0.8759 0.8754 0.8747
1995.000000 0.8741 0.8736 0.8733 0.8731 0.8730
1990.000000 0.8728 0.8728 0.8728 0.8732 0.8736
1985.000000 0.8739 0.8742 0.8747 0.8751 0.8754
