##TITLE=ACETIC ACID, VINYL ESTER
##JCAMP-DX=4.24
##DATA TYPE=INFRARED SPECTRUM
##CLASS=COBLENTZ
##ORIGIN=DOW CHEMICAL COMPANY
##OWNER=COBLENTZ SOCIETY
Collection (C) 2018 copyright by the U.S. Secretary of Commerce
on behalf of the United States of America. All rights reserved.
##DATE=1964
##NAMES=vinyl acetate
ACETIC ACID, ETHENYL ESTER
##CAS REGISTRY NO=108-05-4
##MOLFORM=C4 H6 O2
##SOURCE REFERENCE=COBLENTZ NO. 8787
##$NIST SOURCE=COBLENTZ
##$NIST IMAGE=cob-r8787
##SPECTROMETER/DATA SYSTEM=DOW KBr FOREPRISM-GRATING
##INSTRUMENT PARAMETERS=GRATING CHANGED AT 5.0, 7.5, 15.0 MICRON
##STATE=GAS (100 mmHg, N2 ADDED, TOTAL PRESSURE 600 mmHg)
##PATH LENGTH=5 CM
##SAMPLING PROCEDURE=TRANSMISSION
##RESOLUTION=2
##DATA PROCESSING=DIGITIZED BY NIST FROM HARD COPY (FROM TWO SEGMENTS)
##XUNITS=1/CM
##YUNITS=TRANSMITTANCE
##XFACTOR=1.000000
##YFACTOR=1
##DELTAX=0.938235
##FIRSTX=380.61
##LASTX=3792.03
##FIRSTY=0.946
##MAXX=3792.03
##MINX=380.61
##MAXY=1.017
##MINY=0.005
##NPOINTS=3637
##XYDATA=(X++(Y..Y))
380.610000 0.9460 0.9460 0.9460 0.9460 0.9460
385.301175 0.9460 0.9460 0.9440 0.9440 0.9440
389.992350 0.9440 0.9440 0.9440 0.9440 0.9440
394.683525 0.9440 0.9460 0.9460 0.9460 0.9460
399.374701 0.9470 0.9470 0.9490 0.9500 0.9520
404.065876 0.9540 0.9560 0.9570 0.9630 0.9660
408.757051 0.9680 0.9720 0.9760 0.9790 0.9820
413.448226 0.9840 0.9860 0.9890 0.9910 0.9940
418.139401 0.9940 0.9920 0.9920 0.9910 0.9910
422.830576 0.9880 0.9850 0.9850 0.9840 0.9820
427.521751 0.9810 0.9790 0.9780 0.9730 0.9700
432.212927 0.9680 0.9630 0.9600 0.9570 0.9560
436.904102 0.9500 0.9460 0.9440 0.9380 0.9330
441.595277 0.9200 0.9150 0.9080 0.9010 0.8950
446.286452 0.8900 0.8890 0.8860 0.8830 0.8820
450.977627 0.8800 0.8790 0.8790 0.8790 0.8770
455.668802 0.8770 0.8760 0.8760 0.8770 0.8770
460.359978 0.8770 0.8800 0.8820 0.8860 0.8950
465.051153 0.9080 0.9180 0.9310 0.9500 0.9600
469.742328 0.9680 0.9820 0.9890 0.9920 0.9950
474.433503 0.9980 1.0010 1.0020 1.0020 1.0040
479.124678 1.0050 1.0050 1.0080 1.0100 1.0100
483.815853 1.0100 1.0110 1.0130 1.0140 1.0140
488.507028 1.0150 1.0150 1.0170 1.0170 1.0170
493.198204 1.0170 1.0170 1.0170 1.0170 1.0150
497.889379 1.0150 1.0150 1.0150 1.0150 1.0130
502.580554 1.0130 1.0130 1.0130 1.0130 1.0130
507.271729 1.0130 1.0110 1.0110 1.0110 1.0110
511.962904 1.0110 1.0100 1.0100 1.0100 1.0080
516.654079 1.0080 1.0070 1.0070 1.0070 1.0050
521.345254 1.0050 1.0050 1.0050 1.0050 1.0050
526.036430 1.0050 1.0050 1.0050 1.0050 1.0050
530.727605 1.0050 1.0050 1.0050 1.0050 1.0050
535.418780 1.0070 1.0070 1.0070 1.0080 1.0080
540.109955 1.0080 1.0080 1.0080 1.0080 1.0080
544.801130 1.0080 1.0080 1.0080 1.0080 1.0080
549.492305 1.0070 1.0070 1.0050 1.0050 1.0040
554.183481 1.0040 0.9980 0.9970 0.9950 0.9920
558.874656 0.9910 0.9840 0.9810 0.9720 0.9660
563.565831 0.9600 0.9520 0.9440 0.9370 0.9280
568.257006 0.9210 0.9150 0.9050 0.8950 0.8900
572.948181 0.8800 0.8730 0.8630 0.8510 0.8381
577.639356 0.8220 0.8150 0.8090 0.7970 0.7870
582.330531 0.7800 0.7710 0.7580 0.7411 0.7121
587.021707 0.7000 0.6900 0.6750 0.6550 0.6131
591.712882 0.6110 0.6140 0.6319 0.6330 0.6619
596.404057 0.6740 0.6780 0.6800 0.6810 0.6800
601.095232 0.6740 0.6710 0.6670 0.6650 0.6620
605.786407 0.6510 0.6460 0.6430 0.6400 0.6390
610.477582 0.6360 0.6360 0.6360 0.6360 0.6360
615.168757 0.6360 0.6360 0.6350 0.6330 0.6330
619.859933 0.6300 0.6200 0.6100 0.6030 0.5881
624.551108 0.5780 0.5710 0.5650 0.5650 0.5690
629.242283 0.5740 0.5770 0.5880 0.5940 0.5980
633.933458 0.6000 0.6010 0.6010 0.6030 0.6040
638.624633 0.6040 0.6040 0.6060 0.6090 0.6140
643.315808 0.6190 0.6300 0.6390 0.6540 0.6650
648.006983 0.6810 0.6900 0.7129 0.7449 0.7789
652.698159 0.7920 0.8120 0.8310 0.8380 0.8540
657.389334 0.8700 0.8770 0.8770 0.8790 0.8900
662.080509 0.9210 0.9280 0.9360 0.9490 0.9500
666.771684 0.9530 0.9540 0.9560 0.9570 0.9570
671.462859 0.9560 0.9530 0.9520 0.9490 0.9470
676.154034 0.9460 0.9430 0.9410 0.9380 0.9360
680.845210 0.9270 0.9220 0.9220 0.9200 0.9180
685.536385 0.9170 0.9170 0.9140 0.9110 0.9090
690.227560 0.9020 0.8990 0.8960 0.8950 0.8930
694.918735 0.8860 0.8750 0.8591 0.8769 0.8879
699.609910 0.8890 0.8890 0.8890 0.8890 0.8880
704.301085 0.8850 0.8830 0.8800 0.8790 0.8770
708.992260 0.8750 0.8730 0.8720 0.8720 0.8720
713.683436 0.8730 0.8760 0.8820 0.8860 0.8950
718.374611 0.9010 0.9040 0.9090 0.9150 0.9170
723.065786 0.9180 0.9200 0.9220 0.9250 0.9270
727.756961 0.9280 0.9310 0.9330 0.9330 0.9360
732.448136 0.9370 0.9400 0.9410 0.9430 0.9440
737.139311 0.9460 0.9460 0.9460 0.9460 0.9440
741.830486 0.9440 0.9430 0.9410 0.9410 0.9400
746.521662 0.9370 0.9370 0.9360 0.9340 0.9340
751.212837 0.9310 0.9280 0.9270 0.9240 0.9220
755.904012 0.9220 0.9200 0.9170 0.9140 0.9110
760.595187 0.9080 0.9060 0.8980 0.8960 0.8930
765.286362 0.8850 0.8820 0.8770 0.8760 0.8730
769.977537 0.8720 0.8720 0.8720 0.8730 0.8750
774.668713 0.8760 0.8770 0.8790 0.8800 0.8800
779.359888 0.8830 0.8860 0.8860 0.8880 0.8880
784.051063 0.8890 0.8890 0.8900 0.8900 0.8900
788.742238 0.8900 0.8900 0.8900 0.8890 0.8890
793.433413 0.8890 0.8890 0.8880 0.8880 0.8880
798.124588 0.8860 0.8860 0.8850 0.8830 0.8800
802.815763 0.8790 0.8760 0.8720 0.8670 0.8630
807.506939 0.8610 0.8600 0.8560 0.8530 0.8381
812.198114 0.8340 0.8250 0.8160 0.8080 0.7970
816.889289 0.7810 0.7630 0.7580 0.7500 0.7181
821.580464 0.7000 0.6780 0.6610 0.6360 0.6090
826.271639 0.6010 0.5870 0.5431 0.5261 0.5021
830.962814 0.4690 0.4540 0.4310 0.4020 0.3800
835.653989 0.3630 0.3341 0.2971 0.2811 0.2760
840.345165 0.2630 0.2540 0.2510 0.2450 0.2290
845.036340 0.2180 0.2090 0.2020 0.1940 0.1830
849.727515 0.1680 0.1450 0.1270 0.1190 0.1160
854.418690 0.1140 0.1130 0.1140 0.1160 0.1170
859.109865 0.1190 0.1190 0.1160 0.1110 0.0980
863.801040 0.0910 0.0780 0.0630 0.0401 0.0390
868.492216 0.0420 0.0530 0.0770 0.0810 0.0840
873.183391 0.0870 0.0950 0.1090 0.1200 0.1230
877.874566 0.1270 0.1270 0.1320 0.1400 0.1480
882.565741 0.1540 0.1550 0.1620 0.1809 0.1900
887.256916 0.1990 0.2160 0.2420 0.2730 0.3060
891.948091 0.3349 0.3530 0.3989 0.4428 0.4749
896.639266 0.5070 0.5290 0.5500 0.5910 0.6330
901.330442 0.6719 0.7029 0.7190 0.7579 0.7998
906.021617 0.8020 0.8030 0.8030 0.8000 0.7990
910.712792 0.7970 0.7920 0.7810 0.7710 0.7600
915.403967 0.7450 0.7310 0.7200 0.7060 0.6830
920.095142 0.6610 0.6351 0.6061 0.5462 0.5201
924.786317 0.5040 0.4790 0.4530 0.4310 0.4080
929.477492 0.3880 0.3670 0.3510 0.3400 0.3221
934.168668 0.3060 0.2930 0.2800 0.2670 0.2540
938.859843 0.2390 0.2220 0.2001 0.1811 0.1740
943.551018 0.1700 0.1650 0.1590 0.1580 0.1510
948.242193 0.1380 0.1270 0.1250 0.1260 0.1320
952.933368 0.1350 0.1490 0.1620 0.1750 0.1910
957.624543 0.2090 0.2060 0.2040 0.2000 0.1880
962.315718 0.1780 0.1740 0.1720 0.1720 0.1720
967.006894 0.1740 0.1780 0.1930 0.1960 0.2129
971.698069 0.2190 0.2230 0.2280 0.2320 0.2340
976.389244 0.2360 0.2350 0.2310 0.2151 0.2120
981.080419 0.2150 0.2290 0.2440 0.2670 0.3250
985.771594 0.3440 0.3590 0.3610 0.3590 0.3470
990.462769 0.3310 0.3160 0.3000 0.2860 0.2700
995.153945 0.2550 0.2390 0.2101 0.1861 0.1621
999.845120 0.1390 0.1110 0.0970 0.0910 0.0820
1004.536295 0.0650 0.0490 0.0400 0.0360 0.0211
1009.227470 0.0180 0.0180 0.0180 0.0180 0.0180
1013.918645 0.0180 0.0180 0.0200 0.0200 0.0200
1018.609820 0.0200 0.0210 0.0210 0.0210 0.0230
1023.300995 0.0240 0.0260 0.0270 0.0270 0.0270
1027.992171 0.0310 0.0340 0.0420 0.0620 0.0720
1032.683346 0.0840 0.0930 0.1010 0.1189 0.1389
1037.374521 0.1590 0.1880 0.2060 0.2260 0.2830
1042.065696 0.2970 0.2970 0.3050 0.3080 0.3090
1046.756871 0.3220 0.3290 0.3320 0.3350 0.3400
1051.448046 0.3450 0.3510 0.3540 0.3540 0.3560
1056.139221 0.3570 0.3610 0.3610 0.3630 0.3640
1060.830397 0.3690 0.3720 0.3760 0.3790 0.3820
1065.521572 0.3890 0.3950 0.3990 0.4020 0.4050
1070.212747 0.4170 0.4220 0.4270 0.4300 0.4360
1074.903922 0.4380 0.4470 0.4500 0.4560 0.4600
1079.595097 0.4680 0.4780 0.4820 0.4890 0.4920
1084.286272 0.5020 0.5040 0.5130 0.5300 0.5300
1088.977448 0.5330 0.5360 0.5420 0.5490 0.5520
1093.668623 0.5530 0.5580 0.5650 0.5680 0.5740
1098.359798 0.5790 0.5780 0.5750 0.5740 0.5710
1103.050973 0.5690 0.5680 0.5650 0.5630 0.5610
1107.742148 0.5580 0.5550 0.5490 0.5370 0.5240
1112.433323 0.5170 0.5110 0.5040 0.4910 0.4780
1117.124498 0.4630 0.4470 0.4271 0.4011 0.3661
1121.815674 0.3239 0.2710 0.2580 0.2260 0.1870
1126.506849 0.1450 0.0981 0.0401 0.0211 0.0100
1131.198024 0.0080 0.0080 0.0080 0.0080 0.0080
1135.889199 0.0080 0.0080 0.0080 0.0080 0.0080
1140.580374 0.0080 0.0080 0.0080 0.0080 0.0080
1145.271549 0.0080 0.0080 0.0080 0.0080 0.0100
1149.962724 0.0100 0.0100 0.0100 0.0100 0.0100
1154.653900 0.0100 0.0110 0.0140 0.0180 0.0290
1159.345075 0.0371 0.1031 0.1670 0.1810 0.2220
1164.036250 0.2790 0.3559 0.4169 0.4170 0.4250
1168.727425 0.4380 0.4380 0.4380 0.4310 0.4280
1173.418600 0.4220 0.4150 0.4050 0.3920 0.3800
1178.109775 0.3720 0.3570 0.3380 0.3060 0.2840
1182.800950 0.2650 0.2480 0.2320 0.2180 0.2040
1187.492126 0.1900 0.1740 0.1580 0.1400 0.0940
1192.183301 0.0710 0.0560 0.0151 0.0130 0.0130
1196.874476 0.0110 0.0110 0.0110 0.0110 0.0110
1201.565651 0.0110 0.0110 0.0110 0.0110 0.0110
1206.256826 0.0110 0.0110 0.0110 0.0110 0.0110
1210.948001 0.0110 0.0110 0.0110 0.0110 0.0110
1215.639177 0.0110 0.0110 0.0110 0.0110 0.0110
1220.330352 0.0110 0.0110 0.0110 0.0110 0.0110
1225.021527 0.0110 0.0110 0.0110 0.0110 0.0110
1229.712702 0.0130 0.0130 0.0130 0.0130 0.0130
1234.403877 0.0130 0.0150 0.0170 0.0180 0.0200
1239.095052 0.0210 0.0210 0.0290 0.0340 0.0340
1243.786227 0.0390 0.0420 0.0490 0.0520 0.0530
1248.477403 0.0580 0.0620 0.0680 0.0710 0.0720
1253.168578 0.0750 0.0770 0.0780 0.0790 0.0810
1257.859753 0.0850 0.1000 0.1130 0.1299 0.1479
1262.550928 0.1481 0.1911 0.2340 0.2760 0.3180
1267.242103 0.3590 0.4079 0.4210 0.4240 0.4250
1271.933278 0.4250 0.4240 0.4210 0.4170 0.4080
1276.624453 0.3930 0.3760 0.3540 0.3251 0.2891
1281.315629 0.2359 0.1990 0.1840 0.1460 0.1350
1286.006804 0.1250 0.1130 0.1090 0.1060 0.1030
1290.697979 0.1010 0.1010 0.1000 0.1000 0.1000
1295.389154 0.1010 0.1010 0.1010 0.1030 0.1030
1300.080329 0.1060 0.1070 0.1100 0.1160 0.1230
1304.771504 0.1360 0.1560 0.2149 0.2409 0.2599
1309.462680 0.2871 0.3501 0.4630 0.5000 0.5370
1314.153855 0.5580 0.5770 0.6109 0.6449 0.6699
1318.845030 0.6970 0.7180 0.7410 0.7480 0.7550
1323.536205 0.7570 0.7570 0.7570 0.7580 0.7580
1328.227380 0.7580 0.7570 0.7570 0.7550 0.7550
1332.918555 0.7540 0.7520 0.7510 0.7480 0.7470
1337.609730 0.7420 0.7350 0.7290 0.7230 0.7120
1342.300906 0.7040 0.6930 0.6780 0.6620 0.6451
1346.992081 0.6320 0.6100 0.5949 0.5330 0.4950
1351.683256 0.4620 0.4181 0.3990 0.3671 0.3241
1356.374431 0.2669 0.2229 0.1958 0.0740 0.0580
1361.065606 0.0300 0.0270 0.0240 0.0180 0.0170
1365.756781 0.0150 0.0140 0.0130 0.0130 0.0130
1370.447956 0.0110 0.0110 0.0100 0.0100 0.0100
1375.139132 0.0100 0.0100 0.0100 0.0110 0.0110
1379.830307 0.0130 0.0130 0.0140 0.0150 0.0180
1384.521482 0.0240 0.0300 0.0340 0.0470 0.0560
1389.212657 0.0710 0.0930 0.1060 0.1190 0.1389
1393.903832 0.1580 0.1710 0.1721 0.2070 0.2410
1398.595007 0.2740 0.3090 0.3430 0.3759 0.4279
1403.286182 0.4841 0.5201 0.5560 0.5980 0.6040
1407.977358 0.6100 0.6160 0.6170 0.6170 0.6160
1412.668533 0.6110 0.6100 0.6090 0.6060 0.6040
1417.359708 0.6030 0.6010 0.6000 0.5970 0.5910
1422.050883 0.5820 0.5740 0.5650 0.5430 0.5370
1426.742058 0.5330 0.5290 0.5240 0.5210 0.5230
1431.433233 0.5270 0.5340 0.5360 0.5420 0.5460
1436.124409 0.5490 0.5500 0.5520 0.5530 0.5530
1440.815584 0.5550 0.5550 0.5560 0.5560 0.5580
1445.506759 0.5580 0.5630 0.5650 0.5740 0.5770
1450.197934 0.5780 0.5820 0.5950 0.6040 0.6060
1454.889109 0.6110 0.6170 0.6190 0.6230 0.6320
1459.580284 0.6330 0.6360 0.6480 0.6550 0.6590
1464.271459 0.6610 0.6610 0.6620 0.6650 0.6680
1468.962635 0.6700 0.6720 0.6740 0.6770 0.6770
1473.653810 0.6780 0.6830 0.6840 0.6870 0.6930
1478.344985 0.6930 0.6940 0.6990 0.7030 0.7090
1483.036160 0.7130 0.7150 0.7160 0.7190 0.7250
1487.727335 0.7280 0.7310 0.7340 0.7360 0.7420
1492.418510 0.7440 0.7450 0.7450 0.7470 0.7480
1497.109685 0.7500 0.7510 0.7520 0.7540 0.7600
1501.800861 0.7610 0.7630 0.7630 0.7630 0.7630
1506.492036 0.7630 0.7640 0.7650 0.7670 0.7670
1511.183211 0.7700 0.7740 0.7760 0.7770 0.7760
1515.874386 0.7770 0.7790 0.7810 0.7830 0.7840
1520.565561 0.7860 0.7890 0.7900 0.7920 0.7920
1525.256736 0.7930 0.7950 0.7960 0.7970 0.8000
1529.947912 0.8020 0.8030 0.8050 0.8050 0.8060
1534.639087 0.8080 0.8080 0.8080 0.8080 0.8060
1539.330262 0.8060 0.8050 0.8050 0.8030 0.7970
1544.021437 0.7930 0.7890 0.7860 0.7830 0.7790
1548.712612 0.7770 0.7740 0.7670 0.7600 0.7520
1553.403787 0.7470 0.7440 0.7410 0.7380 0.7310
1558.094962 0.7260 0.7250 0.7230 0.7220 0.7180
1562.786138 0.7150 0.7090 0.7090 0.7070 0.7040
1567.477313 0.7020 0.6970 0.6940 0.6910 0.6880
1572.168488 0.6830 0.6800 0.6800 0.6780 0.6770
1576.859663 0.6750 0.6750 0.6740 0.6720 0.6700
1581.550838 0.6700 0.6700 0.6680 0.6680 0.6670
1586.242013 0.6650 0.6650 0.6620 0.6620 0.6620
1590.933188 0.6620 0.6610 0.6610 0.6610 0.6590
1595.624364 0.6580 0.6580 0.6560 0.6560 0.6520
1600.315539 0.6510 0.6480 0.6450 0.6390 0.6330
1605.006714 0.6300 0.6290 0.6220 0.6170 0.6110
1609.697889 0.6040 0.6000 0.5900 0.5690 0.5630
1614.389064 0.5430 0.5270 0.5230 0.5130 0.5040
1619.080239 0.5020 0.4940 0.4880 0.4760 0.4690
1623.771414 0.4630 0.4570 0.4540 0.4410 0.4220
1628.462590 0.3979 0.3729 0.3479 0.3050 0.2580
1633.153765 0.2380 0.1970 0.1551 0.1290 0.0502
1637.844940 0.0130 0.0110 0.0110 0.0100 0.0100
1642.536115 0.0100 0.0100 0.0080 0.0080 0.0080
1647.227290 0.0080 0.0080 0.0080 0.0080 0.0080
1651.918465 0.0080 0.0080 0.0080 0.0080 0.0080
1656.609641 0.0080 0.0080 0.0080 0.0100 0.0150
1661.300816 0.0300 0.0490 0.0880 0.1010 0.1130
1665.991991 0.2001 0.2392 0.3091 0.3821 0.4170
1670.683166 0.4340 0.4940 0.5530 0.5820 0.6030
1675.374341 0.6261 0.6450 0.6590 0.6780 0.6970
1680.065516 0.7120 0.7220 0.7290 0.7340 0.7350
1684.756691 0.7360 0.7410 0.7420 0.7420 0.7420
1689.447867 0.7440 0.7450 0.7510 0.7540 0.7570
1694.139042 0.7600 0.7610 0.7630 0.7640 0.7670
1698.830217 0.7670 0.7680 0.7710 0.7740 0.7760
1703.521392 0.7790 0.7810 0.7830 0.7860 0.7870
1708.212567 0.7900 0.7920 0.7930 0.7950 0.7950
1712.903742 0.7950 0.7950 0.7920 0.7890 0.7860
1717.594917 0.7770 0.7670 0.7610 0.7570 0.7440
1722.286093 0.7280 0.7130 0.7100 0.6970 0.6860
1726.977268 0.6750 0.6620 0.6490 0.6430 0.6360
1731.668443 0.6230 0.6160 0.6130 0.6070 0.6000
1736.359618 0.5840 0.5460 0.5230 0.5020 0.4810
1741.050793 0.4408 0.3689 0.3340 0.3190 0.3080
1745.741968 0.2810 0.2520 0.2250 0.2020 0.1781
1750.433144 0.1548 0.0839 0.0619 0.0360 0.0270
1755.124319 0.0140 0.0100 0.0080 0.0080 0.0070
1759.815494 0.0050 0.0050 0.0050 0.0050 0.0050
1764.506669 0.0050 0.0050 0.0050 0.0050 0.0050
1769.197844 0.0050 0.0050 0.0050 0.0050 0.0050
1773.889019 0.0050 0.0050 0.0050 0.0050 0.0050
1778.580194 0.0050 0.0050 0.0070 0.0070 0.0070
1783.271370 0.0070 0.0070 0.0070 0.0070 0.0080
1787.962545 0.0080 0.0080 0.0080 0.0080 0.0080
1792.653720 0.0080 0.0080 0.0080 0.0080 0.0080
1797.344895 0.0080 0.0080 0.0100 0.0150 0.0370
1802.036070 0.0530 0.0630 0.0750 0.0880 0.1000
1806.727245 0.1301 0.1561 0.2020 0.2041 0.2551
1811.418420 0.3080 0.3600 0.4120 0.4649 0.5129
1816.109596 0.5471 0.5821 0.6171 0.6450 0.6670
1820.800771 0.6810 0.6910 0.6930 0.6940 0.6970
1825.491946 0.7000 0.7030 0.7060 0.7070 0.7090
1830.183121 0.7100 0.7120 0.7130 0.7150 0.7190
1834.874296 0.7230 0.7250 0.7250 0.7250 0.7230
1839.565471 0.7220 0.7200 0.7130 0.7090 0.7000
1844.256647 0.6960 0.6930 0.6910 0.6840 0.6810
1848.947822 0.6780 0.6710 0.6650 0.6610 0.6560
1853.638997 0.6520 0.6490 0.6450 0.6420 0.6400
1858.330172 0.6390 0.6380 0.6360 0.6350 0.6350
1863.021347 0.6360 0.6380 0.6400 0.6420 0.6450
1867.712522 0.6480 0.6490 0.6520 0.6550 0.6580
1872.403697 0.6610 0.6620 0.6720 0.6770 0.6780
1877.094873 0.6860 0.6940 0.7070 0.7120 0.7260
1881.786048 0.7581 0.7740 0.7770 0.7790 0.7800
1886.477223 0.7810 0.7840 0.7840 0.7860 0.7860
1891.168398 0.7860 0.7870 0.7870 0.7870 0.7870
1895.859573 0.7890 0.7900 0.7960 0.7970 0.7970
1900.550748 0.8030 0.8080 0.8130 0.8180 0.8250
1905.241923 0.8270 0.8280 0.8340 0.8370 0.8430
1909.933099 0.8470 0.8510 0.8560 0.8640 0.8730
1914.624274 0.8730 0.8850 0.8930 0.8950 0.8990
1919.315449 0.9020 0.9040 0.9050 0.9060 0.9080
1924.006624 0.9080 0.9080 0.9080 0.9080 0.9060
1928.697799 0.9050 0.9040 0.9040 0.9020 0.9020
1933.388974 0.9010 0.8990 0.8990 0.8990 0.8990
1938.080149 0.8990 0.8990 0.8980 0.8980 0.8980
1942.771325 0.8980 0.8980 0.8960 0.8960 0.8960
1947.462500 0.8960 0.8980 0.8960 0.8960 0.8960
1952.153675 0.8960 0.8960 0.8960 0.8960 0.8980
1956.844850 0.8980 0.8980 0.8980 0.8980 0.8980
1961.536025 0.8990 0.8990 0.8990 0.8990 0.8990
1966.227200 0.8990 0.8990 0.8980 0.8980 0.8960
1970.918376 0.8950 0.8900 0.8880 0.8830 0.8790
1975.609551 0.8760 0.8730 0.8690 0.8610 0.8540
1980.300726 0.8410 0.8240 0.8090 0.8080 0.8030
1984.991901 0.8000 0.8000 0.8000 0.8000 0.8000
1989.683076 0.7990 0.7990 0.7990 0.7990 0.7990
1994.374251 0.7990 0.7990 0.7990 0.7990 0.7990
1999.065426 0.8000 0.8020 0.8070 0.8120 0.8165
2003.756602 0.8210 0.8305 0.8400 0.8505 0.8609
2008.447777 0.8689 0.8769 0.8785 0.8800 0.8815
2013.138952 0.8830 0.8840 0.8850 0.8865 0.8880
2017.830127 0.8880 0.8880 0.8880 0.8880 0.8880
2022.521302 0.8880 0.8880 0.8880 0.8880 0.8880
2027.212477 0.8870 0.8860 0.8855 0.8850 0.8840
2031.903652 0.8830 0.8825 0.8820 0.8805 0.8790
2036.594828 0.8775 0.8760 0.8730 0.8700 0.8645
2041.286003 0.8590 0.8436 0.8281 0.8230 0.8181
2045.977178 0.8165 0.8150 0.8135 0.8120 0.7899
2050.668353 0.7674 0.7439 0.7205 0.7151 0.7101
2055.359528 0.7036 0.6970 0.6860 0.6751 0.6665
2060.050703 0.6581 0.6565 0.6550 0.6535 0.6520
2064.741879 0.6515 0.6510 0.6500 0.6490 0.6490
2069.433054 0.6490 0.6500 0.6510 0.6534 0.6559
2074.124229 0.6629 0.6700 0.6750 0.6800 0.6805
2078.815404 0.6810 0.6924 0.7039 0.7163 0.7288
2083.506579 0.7571 0.7855 0.8160 0.8464 0.8548
2088.197754 0.8628 0.8664 0.8699 0.8729 0.8759
2092.888929 0.8780 0.8800 0.8840 0.8880 0.8880
2097.580105 0.8880 0.8880 0.8880 0.8880 0.8880
2102.271280 0.8865 0.8850 0.8850 0.8850 0.8840
2106.962455 0.8830 0.8825 0.8820 0.8791 0.8761
2111.653630 0.8745 0.8730 0.8715 0.8700 0.8695
2116.344805 0.8690 0.8690 0.8690 0.8690 0.8690
2121.035980 0.8690 0.8690 0.8690 0.8690 0.8695
2125.727155 0.8700 0.8710 0.8720 0.8720 0.8720
2130.418331 0.8740 0.8760 0.8780 0.8800 0.8825
2135.109506 0.8850 0.8870 0.8890 0.8910 0.8930
2139.800681 0.8954 0.8979 0.8995 0.9010 0.9000
2144.491856 0.8990 0.8985 0.8980 0.8970 0.8960
2149.183031 0.8955 0.8950 0.8940 0.8930 0.8930
2153.874206 0.8930 0.8925 0.8920 0.8910 0.8900
2158.565381 0.8900 0.8900 0.8910 0.8920 0.8920
2163.256557 0.8920 0.8920 0.8920 0.8925 0.8930
2167.947732 0.8940 0.8950 0.8950 0.8950 0.8955
2172.638907 0.8960 0.8975 0.8990 0.9000 0.9010
2177.330082 0.9044 0.9079 0.9085 0.9090 0.9105
2182.021257 0.9120 0.9135 0.9149 0.9164 0.9179
2186.712432 0.9195 0.9210 0.9225 0.9240 0.9245
2191.403608 0.9250 0.9274 0.9299 0.9305 0.9310
2196.094783 0.9320 0.9330 0.9335 0.9340 0.9340
2200.785958 0.9340 0.9340 0.9340 0.9335 0.9330
2205.477133 0.9320 0.9310 0.9295 0.9280 0.9280
2210.168308 0.9280 0.9275 0.9270 0.9241 0.9211
2214.859483 0.9176 0.9141 0.9130 0.9120 0.9106
2219.550658 0.9091 0.9071 0.9051 0.9016 0.8981
2224.241834 0.8965 0.8950 0.8950 0.8950 0.8950
2228.933009 0.8950 0.8950 0.8950 0.8950 0.8950
2233.624184 0.8955 0.8960 0.8970 0.8980 0.8985
2238.315359 0.8990 0.9000 0.9010 0.9024 0.9039
2243.006534 0.9050 0.9060 0.9070 0.9080 0.9085
2247.697709 0.9090 0.9105 0.9120 0.9120 0.9120
2252.388884 0.9134 0.9149 0.9160 0.9170 0.9175
2257.080060 0.9180 0.9180 0.9180 0.9180 0.9180
2261.771235 0.9180 0.9180 0.9180 0.9180 0.9165
2266.462410 0.9150 0.9150 0.9150 0.9136 0.9121
2271.153585 0.9101 0.9081 0.9032 0.8982 0.8932
2275.844760 0.8882 0.8827 0.8773 0.8641 0.8506
2280.535935 0.8466 0.8431 0.8386 0.8341 0.8296
