##TITLE=Furan, tetrahydro-
##JCAMP-DX=4.24
##DATA TYPE=INFRARED SPECTRUM
##CLASS=COBLENTZ
##ORIGIN=DOW CHEMICAL COMPANY
##OWNER=Copyright (C) 1987 by the Coblentz Society
Collection (C) 2018 copyright by the U.S. Secretary of Commerce
on behalf of the United States of America. All rights reserved.
##DATE=1964
##NAMES=tetrahydrofuran
##CAS REGISTRY NO=109-99-9
##MOLFORM=C4 H8 O
##SOURCE REFERENCE=COBLENTZ NO. 8802
##$NIST SOURCE=COBLENTZ
##$NIST IMAGE=cob8802
##SPECTROMETER/DATA SYSTEM=DOW KBr FOREPRISM-GRATING
##INSTRUMENT PARAMETERS=GRATING CHANGED AT 5.0, 7.5, 15.0 MICRON
##STATE=GAS (100 mmHg, N2 ADDED, TOTAL PRESSURE 600 mmHg)
##PATH LENGTH=5 CM
##SAMPLING PROCEDURE=TRANSMISSION
##RESOLUTION=2
##DATA PROCESSING=DIGITIZED BY COBLENTZ SOCIETY (BATCH II) FROM HARD COPY
##XUNITS=1/CM
##YUNITS=TRANSMITTANCE
##XFACTOR=1.0
##YFACTOR=1
##FIRSTX=460
##LASTX=3794
##FIRSTY=0.9027
##MAXX=3794
##MINX=460
##MAXY=0.9028
##MINY=0.0034
##NPOINTS=3335
##XYDATA=(X++(Y..Y))
460.000000 0.9027 0.9026 0.9026 0.9025 0.9024
465.000000 0.9024 0.9025 0.9026 0.9026 0.9027
470.000000 0.9028 0.9028 0.9027 0.9026 0.9025
475.000000 0.9025 0.9024 0.9023 0.9022 0.9021
480.000000 0.9021 0.9021 0.9021 0.9021 0.9021
485.000000 0.9021 0.9021 0.9021 0.9021 0.9021
490.000000 0.9021 0.9022 0.9020 0.9017 0.9014
495.000000 0.9011 0.9007 0.9004 0.8999 0.8991
500.000000 0.8983 0.8975 0.8967 0.8960 0.8954
505.000000 0.8947 0.8941 0.8936 0.8935 0.8933
510.000000 0.8934 0.8935 0.8936 0.8938 0.8940
515.000000 0.8943 0.8946 0.8948 0.8951 0.8953
520.000000 0.8955 0.8957 0.8959 0.8961 0.8963
525.000000 0.8965 0.8965 0.8964 0.8963 0.8946
530.000000 0.8962 0.8962 0.8961 0.8961 0.8960
535.000000 0.8960 0.8959 0.8959 0.8958 0.8959
540.000000 0.8959 0.8959 0.8960 0.8960 0.8961
545.000000 0.8961 0.8962 0.8962 0.8962 0.8964
550.000000 0.8967 0.8970 0.8973 0.8976 0.8979
555.000000 0.8982 0.8985 0.8988 0.8991 0.8994
560.000000 0.8997 0.9000 0.9003 0.9006 0.9009
565.000000 0.9011 0.9014 0.9014 0.9014 0.9014
570.000000 0.9014 0.9014 0.9014 0.9014 0.9014
575.000000 0.9013 0.9013 0.9013 0.9012 0.9012
580.000000 0.9012 0.9012 0.9011 0.9011 0.9008
585.000000 0.9006 0.9003 0.9000 0.8995 0.8990
590.000000 0.8984 0.8979 0.8973 0.8968 0.8963
595.000000 0.8958 0.8953 0.8948 0.8943 0.8934
600.000000 0.8926 0.8917 0.8908 0.8899 0.8890
605.000000 0.8879 0.8864 0.8850 0.8835 0.8821
610.000000 0.8806 0.8787 0.8767 0.8747 0.8727
615.000000 0.8707 0.8687 0.8662 0.8636 0.8610
620.000000 0.8584 0.8558 0.8533 0.8507 0.8481
625.000000 0.8449 0.8416 0.8383 0.8351 0.8318
630.000000 0.8285 0.8247 0.8198 0.8149 0.8101
635.000000 0.8062 0.8023 0.7984 0.7946 0.7909
640.000000 0.7889 0.7868 0.7848 0.7817 0.7782
645.000000 0.7747 0.7712 0.7682 0.7673 0.7665
650.000000 0.7656 0.7644 0.7628 0.7612 0.7596
655.000000 0.7577 0.7558 0.7539 0.7530 0.7532
660.000000 0.7517 0.7546 0.7555 0.7564 0.7573
665.000000 0.7587 0.7602 0.7617 0.7632 0.7647
670.000000 0.7662 0.7677 0.7694 0.7713 0.7732
675.000000 0.7750 0.7769 0.7788 0.7808 0.7827
680.000000 0.7846 0.7867 0.7891 0.7916 0.7940
685.000000 0.7965 0.7989 0.8013 0.8036 0.8060
690.000000 0.8083 0.8107 0.8129 0.8149 0.8169
695.000000 0.8189 0.8209 0.8233 0.8262 0.8292
700.000000 0.8322 0.8351 0.8376 0.8401 0.8425
705.000000 0.8449 0.8475 0.8501 0.8527 0.8553
710.000000 0.8579 0.8593 0.8606 0.8619 0.8633
715.000000 0.8646 0.8659 0.8669 0.8677 0.8685
720.000000 0.8692 0.8700 0.8708 0.8714 0.8718
725.000000 0.8721 0.8725 0.8729 0.8733 0.8737
730.000000 0.8741 0.8745 0.8748 0.8752 0.8755
735.000000 0.8759 0.8760 0.8761 0.8762 0.8763
740.000000 0.8764 0.8765 0.8766 0.8767 0.8767
745.000000 0.8765 0.8762 0.8741 0.8757 0.8754
750.000000 0.8751 0.8748 0.8745 0.8740 0.8735
755.000000 0.8730 0.8725 0.8720 0.8715 0.8710
760.000000 0.8704 0.8698 0.8692 0.8685 0.8675
765.000000 0.8664 0.8654 0.8644 0.8634 0.8624
770.000000 0.8614 0.8604 0.8594 0.8581 0.8566
775.000000 0.8551 0.8536 0.8516 0.8494 0.8471
780.000000 0.8449 0.8424 0.8398 0.8372 0.8346
785.000000 0.8320 0.8293 0.8263 0.8233 0.8203
790.000000 0.8173 0.8123 0.8082 0.8070 0.8057
795.000000 0.8045 0.8033 0.8023 0.8017 0.8010
800.000000 0.8004 0.7998 0.7992 0.7985 0.7978
805.000000 0.7970 0.7963 0.7955 0.7948 0.7943
810.000000 0.7939 0.7934 0.7930 0.7925 0.7921
815.000000 0.7915 0.7909 0.7902 0.7896 0.7889
820.000000 0.7883 0.7875 0.7866 0.7857 0.7848
825.000000 0.7840 0.7826 0.7809 0.7793 0.7776
830.000000 0.7754 0.7724 0.7695 0.7666 0.7643
835.000000 0.7622 0.7602 0.7583 0.7566 0.7543
840.000000 0.7504 0.7464 0.7422 0.7379 0.7337
845.000000 0.7295 0.7253 0.7211 0.7170 0.7155
850.000000 0.7139 0.7130 0.7125 0.7120 0.7107
855.000000 0.7077 0.7033 0.6983 0.6917 0.6831
860.000000 0.6754 0.6677 0.6574 0.6479 0.6386
865.000000 0.6293 0.6210 0.6127 0.6044 0.5970
870.000000 0.5906 0.5842 0.5778 0.5714 0.5650
875.000000 0.5579 0.5505 0.5431 0.5358 0.5304
880.000000 0.5249 0.5195 0.5141 0.5086 0.5038
885.000000 0.4990 0.4942 0.4895 0.4847 0.4754
890.000000 0.4646 0.4540 0.4435 0.4330 0.4176
895.000000 0.3532 0.3237 0.3076 0.2990 0.2905
900.000000 0.2804 0.2687 0.2566 0.2432 0.2298
905.000000 0.2164 0.2048 0.1931 0.1811 0.1652
910.000000 0.1492 0.1343 0.1197 0.1094 0.1011
915.000000 0.0966 0.0941 0.0925 0.0924 0.0922
920.000000 0.0937 0.0948 0.0978 0.1152 0.1313
925.000000 0.1374 0.1440 0.1478 0.1495 0.1511
930.000000 0.1526 0.1544 0.1567 0.1617 0.1661
935.000000 0.1724 0.1801 0.1994 0.2174 0.2288
940.000000 0.2419 0.2609 0.2780 0.2956 0.3266
945.000000 0.3485 0.3957 0.4115 0.4272 0.4421
950.000000 0.4564 0.4706 0.4852 0.4999 0.5156
955.000000 0.5367 0.5581 0.5799 0.6166 0.6360
960.000000 0.6475 0.6549 0.6623 0.6698 0.6775
965.000000 0.6856 0.6937 0.7002 0.7064 0.7125
970.000000 0.7186 0.7251 0.7318 0.7386 0.7453
975.000000 0.7519 0.7585 0.7643 0.7679 0.7715
980.000000 0.7742 0.7768 0.7799 0.7841 0.7883
985.000000 0.7903 0.7917 0.7923 0.7926 0.7939
990.000000 0.7915 0.7905 0.7886 0.7859 0.7832
995.000000 0.7780 0.7776 0.7776 0.7776 0.7775
1000.000000 0.7773 0.7754 0.7723 0.7679 0.7638
1005.000000 0.7582 0.7517 0.7414 0.7325 0.7240
1010.000000 0.7169 0.7097 0.7023 0.6943 0.6863
1015.000000 0.6772 0.6676 0.6594 0.6530 0.6467
1020.000000 0.6403 0.6292 0.6162 0.6031 0.5921
1025.000000 0.5919 0.5939 0.5978 0.6016 0.6015
1030.000000 0.6007 0.5985 0.5950 0.5887 0.5810
1035.000000 0.5711 0.5606 0.5510 0.5402 0.5313
1040.000000 0.5222 0.5151 0.5121 0.5111 0.5101
1045.000000 0.5093 0.5085 0.5068 0.5032 0.4984
1050.000000 0.4892 0.4799 0.4697 0.4579 0.4298
1055.000000 0.3907 0.3517 0.2590 0.2296 0.1972
1060.000000 0.1761 0.1570 0.1390 0.1224 0.1047
1065.000000 0.0706 0.0542 0.0457 0.0373 0.0310
1070.000000 0.0248 0.0209 0.0172 0.0159 0.0148
1075.000000 0.0137 0.0128 0.0121 0.0115 0.0113
1080.000000 0.0112 0.0110 0.0108 0.0108 0.0108
1085.000000 0.0093 0.0108 0.0108 0.0111 0.0113
1090.000000 0.0115 0.0118 0.0122 0.0126 0.0135
1095.000000 0.0146 0.0158 0.0170 0.0184 0.0206
1100.000000 0.0238 0.0275 0.0338 0.0514 0.0625
1105.000000 0.0757 0.0955 0.1280 0.1605 0.1930
1110.000000 0.2255 0.2581 0.2906 0.3231 0.3556
1115.000000 0.3847 0.3952 0.4084 0.4283 0.4599
1120.000000 0.4840 0.5054 0.5243 0.5423 0.5615
1125.000000 0.5857 0.6045 0.6234 0.6412 0.6553
1130.000000 0.6671 0.6774 0.6836 0.6897 0.6938
1135.000000 0.6972 0.7006 0.7033 0.7049 0.7065
1140.000000 0.7081 0.7097 0.7113 0.7125 0.7133
1145.000000 0.7141 0.7149 0.7171 0.7155 0.7154
1150.000000 0.7149 0.7144 0.7136 0.7112 0.7066
1155.000000 0.7011 0.6915 0.6844 0.6780 0.6721
1160.000000 0.6662 0.6570 0.6479 0.6390 0.6301
1165.000000 0.6184 0.6174 0.6164 0.6154 0.6142
1170.000000 0.6122 0.6094 0.6050 0.5993 0.5551
1175.000000 0.5318 0.5327 0.5322 0.5437 0.5485
1180.000000 0.5491 0.5496 0.5500 0.5503 0.5514
1185.000000 0.5545 0.5568 0.5588 0.5602 0.5614
1190.000000 0.5624 0.5634 0.5674 0.5751 0.5808
1195.000000 0.5845 0.5867 0.5881 0.5888 0.5892
1200.000000 0.5848 0.5785 0.5722 0.5696 0.5720
1205.000000 0.5836 0.5952 0.6067 0.6183 0.6299
1210.000000 0.6415 0.6531 0.6637 0.6721 0.6763
1215.000000 0.6768 0.6761 0.6746 0.6732 0.6723
1220.000000 0.6714 0.6713 0.6723 0.6736 0.6754
1225.000000 0.6776 0.6804 0.6832 0.6858 0.6880
1230.000000 0.6895 0.6912 0.6900 0.6891 0.6872
1235.000000 0.6784 0.6588 0.6571 0.6571 0.6590
1240.000000 0.6596 0.6621 0.6642 0.6658 0.6665
1245.000000 0.6673 0.6672 0.6666 0.6660 0.6650
1250.000000 0.6639 0.6629 0.6619 0.6611 0.6633
1255.000000 0.6662 0.6696 0.6731 0.6764 0.6795
1260.000000 0.6826 0.6857 0.6891 0.6927 0.6962
1265.000000 0.6997 0.7031 0.7065 0.7100 0.7134
1270.000000 0.7174 0.7217 0.7259 0.7302 0.7341
1275.000000 0.7379 0.7414 0.7442 0.7470 0.7495
1280.000000 0.7519 0.7542 0.7568 0.7579 0.7591
1285.000000 0.7602 0.7608 0.7613 0.7618 0.7622
1290.000000 0.7622 0.7622 0.7622 0.7624 0.7626
1295.000000 0.7640 0.7659 0.7688 0.7717 0.7747
1300.000000 0.7776 0.7806 0.7834 0.7861 0.7888
1305.000000 0.7918 0.7968 0.8017 0.8065 0.8112
1310.000000 0.8159 0.8193 0.8227 0.8260 0.8294
1315.000000 0.8325 0.8356 0.8387 0.8419 0.8450
1320.000000 0.8477 0.8503 0.8529 0.8555 0.8576
1325.000000 0.8593 0.8609 0.8626 0.8640 0.8648
1330.000000 0.8657 0.8666 0.8669 0.8671 0.8664
1335.000000 0.8657 0.8640 0.8618 0.8592 0.8564
1340.000000 0.8533 0.8492 0.8451 0.8410 0.8365
1345.000000 0.8321 0.8277 0.8216 0.8156 0.8094
1350.000000 0.8031 0.7969 0.7874 0.7737 0.7507
1355.000000 0.7364 0.7296 0.7274 0.7273 0.7280
1360.000000 0.7292 0.7301 0.7309 0.7315 0.7317
1365.000000 0.7312 0.7294 0.7192 0.6938 0.6887
1370.000000 0.6881 0.6917 0.6988 0.7058 0.7129
1375.000000 0.7145 0.7154 0.7164 0.7176 0.7190
1380.000000 0.7209 0.7255 0.7369 0.7482 0.7596
1385.000000 0.7710 0.7824 0.7938 0.8037 0.8122
1390.000000 0.8175 0.8229 0.8285 0.8339 0.8374
1395.000000 0.8409 0.8425 0.8441 0.8456 0.8464
1400.000000 0.8472 0.8479 0.8487 0.8494 0.8497
1405.000000 0.8500 0.8501 0.8501 0.8525 0.8498
1410.000000 0.8491 0.8483 0.8476 0.8468 0.8456
1415.000000 0.8443 0.8429 0.8414 0.8398 0.8383
1420.000000 0.8368 0.8350 0.8329 0.8309 0.8289
1425.000000 0.8266 0.8238 0.8209 0.8181 0.8155
1430.000000 0.8132 0.8109 0.8085 0.8001 0.7897
1435.000000 0.7793 0.7689 0.7585 0.7481 0.7376
1440.000000 0.7233 0.7157 0.7061 0.6962 0.6873
1445.000000 0.6785 0.6719 0.6652 0.6586 0.6492
1450.000000 0.6380 0.6234 0.6080 0.5919 0.5814
1455.000000 0.5829 0.5852 0.5883 0.5904 0.5920
1460.000000 0.5928 0.5962 0.5914 0.5892 0.5851
1465.000000 0.5850 0.5856 0.5838 0.5893 0.5918
1470.000000 0.5942 0.5970 0.6014 0.6081 0.6135
1475.000000 0.6192 0.6255 0.6320 0.6387 0.6443
1480.000000 0.6508 0.6586 0.6744 0.6861 0.7042
1485.000000 0.7125 0.7197 0.7288 0.7456 0.7549
1490.000000 0.7651 0.7772 0.7846 0.7899 0.7952
1495.000000 0.8002 0.8036 0.8069 0.8103 0.8136
1500.000000 0.8154 0.8170 0.8187 0.8203 0.8219
1505.000000 0.8235 0.8251 0.8267 0.8285 0.8311
1510.000000 0.8337 0.8362 0.8387 0.8412 0.8429
1515.000000 0.8436 0.8442 0.8445 0.8448 0.8450
1520.000000 0.8453 0.8473 0.8493 0.8515 0.8536
1525.000000 0.8550 0.8557 0.8564 0.8569 0.8572
1530.000000 0.8576 0.8580 0.8583 0.8587 0.8591
1535.000000 0.8594 0.8598 0.8597 0.8596 0.8595
1540.000000 0.8594 0.8591 0.8602 0.8618 0.8637
1545.000000 0.8657 0.8676 0.8694 0.8709 0.8724
1550.000000 0.8738 0.8740 0.8741 0.8741 0.8739
1555.000000 0.8737 0.8736 0.8735 0.8735 0.8735
1560.000000 0.8735 0.8761 0.8797 0.8822 0.8837
1565.000000 0.8846 0.8852 0.8852 0.8852 0.8852
1570.000000 0.8851 0.8850 0.8849 0.8847 0.8843
1575.000000 0.8840 0.8840 0.8852 0.8864 0.8878
1580.000000 0.8892 0.8906 0.8911 0.8916 0.8920
1585.000000 0.8924 0.8926 0.8927 0.8929 0.8931
1590.000000 0.8934 0.8936 0.8938 0.8941 0.8943
1595.000000 0.8946 0.8948 0.8950 0.8952 0.8953
1600.000000 0.8955 0.8956 0.8958 0.8959 0.8961
1605.000000 0.8962 0.8963 0.8963 0.8963 0.8963
1610.000000 0.8994 0.8952 0.8947 0.8941 0.8936
1615.000000 0.8933 0.8930 0.8933 0.8942 0.8953
1620.000000 0.8967 0.8964 0.8961 0.8959 0.8956
1625.000000 0.8951 0.8946 0.8941 0.8928 0.8914
1630.000000 0.8901 0.8890 0.8880 0.8869 0.8867
1635.000000 0.8877 0.8888 0.8898 0.8910 0.8913
1640.000000 0.8911 0.8909 0.8900 0.8892 0.8883
1645.000000 0.8865 0.8847 0.8829 0.8811 0.8798
1650.000000 0.8791 0.8783 0.8776 0.8752 0.8771
1655.000000 0.8806 0.8837 0.8867 0.8874 0.8876
1660.000000 0.8875 0.8874 0.8872 0.8873 0.8873
1665.000000 0.8873 0.8871 0.8869 0.8866 0.8864
1670.000000 0.8859 0.8854 0.8849 0.8844 0.8840
1675.000000 0.8843 0.8849 0.8854 0.8851 0.8846
1680.000000 0.8837 0.8826 0.8806 0.8787 0.8773
1685.000000 0.8768 0.8783 0.8805 0.8825 0.8845
1690.000000 0.8858 0.8861 0.8847 0.8833 0.8819
1695.000000 0.8800 0.8779 0.8751 0.8752 0.8754
1700.000000 0.8759 0.8766 0.8776 0.8790 0.8804
1705.000000 0.8818 0.8832 0.8846 0.8859 0.8857
1710.000000 0.8855 0.8853 0.8845 0.8825 0.8807
1715.000000 0.8789 0.8771 0.8763 0.8780 0.8804
1720.000000 0.8835 0.8853 0.8870 0.8873 0.8868
1725.000000 0.8861 0.8857 0.8854 0.8846 0.8834
1730.000000 0.8823 0.8808 0.8785 0.8772 0.8770
1735.000000 0.8784 0.8789 0.8791 0.8789 0.8786
1740.000000 0.8784 0.8781 0.8778 0.8776 0.8776
1745.000000 0.8776 0.8775 0.8772 0.8769 0.8767
1750.000000 0.8764 0.8761 0.8758 0.8755 0.8752
1755.000000 0.8750 0.8747 0.8744 0.8741 0.8738
1760.000000 0.8735 0.8732 0.8730 0.8727 0.8724
1765.000000 0.8721 0.8718 0.8715 0.8713 0.8711
1770.000000 0.8712 0.8712 0.8712 0.8711 0.8711
1775.000000 0.8710 0.8710 0.8710 0.8709 0.8709
1780.000000 0.8709 0.8708 0.8707 0.8706 0.8705
1785.000000 0.8704 0.8702 0.8701 0.8700 0.8699
1790.000000 0.8698 0.8697 0.8695 0.8693 0.8691
1795.000000 0.8689 0.8687 0.8685 0.8683 0.8681
1800.000000 0.8679 0.8677 0.8675 0.8673 0.8672
1805.000000 0.8670 0.8668 0.8666 0.8664 0.8662
1810.000000 0.8660 0.8658 0.8656 0.8654 0.8652
1815.000000 0.8650 0.8648 0.8646 0.8644 0.8642
1820.000000 0.8640 0.8638 0.8636 0.8633 0.8629
1825.000000 0.8626 0.8622 0.8619 0.8616 0.8612
1830.000000 0.8610 0.8608 0.8607 0.8606 0.8604
1835.000000 0.8603 0.8602 0.8601 0.8599 0.8596
1840.000000 0.8592 0.8588 0.8584 0.8580 0.8583
1845.000000 0.8587 0.8591 0.8594 0.8598 0.8602
1850.000000 0.8606 0.8612 0.8619 0.8627 0.8634
1855.000000 0.8642 0.8649 0.8657 0.8664 0.8672
1860.000000 0.8680 0.8687 0.8695 0.8702 0.8710
1865.000000 0.8717 0.8725 0.8732 0.8740 0.8743
1870.000000 0.8747 0.8750 0.8753 0.8754 0.8756
1875.000000 0.8757 0.8759 0.8760 0.8762 0.8763
1880.000000 0.8765 0.8766 0.8768 0.8767 0.8766
1885.000000 0.8765 0.8763 0.8762 0.8761 0.8759
1890.000000 0.8758 0.8756 0.8755 0.8754 0.8752
1895.000000 0.8751 0.8750 0.8748 0.8747 0.8745
1900.000000 0.8744 0.8742 0.8741 0.8739 0.8738
1905.000000 0.8736 0.8735 0.8733 0.8732 0.8730
1910.000000 0.8729 0.8727 0.8725 0.8723 0.8721
1915.000000 0.8719 0.8717 0.8714 0.8712 0.8710
1920.000000 0.8708 0.8705 0.8701 0.8698 0.8695
1925.000000 0.8691 0.8688 0.8684 0.8681 0.8678
1930.000000 0.8674 0.8671 0.8667 0.8663 0.8658
1935.000000 0.8654 0.8649 0.8644 0.8639 0.8634
1940.000000 0.8630 0.8625 0.8620 0.8614 0.8606
1945.000000 0.8597 0.8589 0.8580 0.8572 0.8564
1950.000000 0.8555 0.8547 0.8538 0.8525 0.8509
1955.000000 0.8493 0.8477 0.8461 0.8445 0.8429
1960.000000 0.8409 0.8386 0.8364 0.8341 0.8318
1965.000000 0.8295 0.8270 0.8243 0.8217 0.8190
1970.000000 0.8163 0.8139 0.8116 0.8093 0.8070
1975.000000 0.8047 0.8024 0.8001 0.7978 0.7959
1980.000000 0.7942 0.7926 0.7910 0.7900 0.7898
1985.000000 0.7897 0.7895 0.7894 0.7894 0.7896
1990.000000 0.7897 0.7885 0.7900 0.7903 0.7907
1995.000000 0.7911 0.7915 0.7920 0.7927 0.7938
2000.000000 0.7951 0.7964 0.7978 0.7992 0.8006
2005.000000 0.8029 0.8052 0.8075 0.8098 0.8125
2010.000000 0.8153 0.8184 0.8216 0.8242 0.8269
2015.000000 0.8292 0.8316 0.8339 0.8363 0.8385
2020.000000 0.8408 0.8428 0.8449 0.8469 0.8489
2025.000000 0.8509 0.8530 0.8549 0.8569 0.8588
2030.000000 0.8608 0.8625 0.8642 0.8653 0.8664
2035.000000 0.8672 0.8681 0.8689 0.8697 0.8704
2040.000000 0.8712 0.8717 0.8722 0.8725 0.8729
2045.000000 0.8729 0.8729 0.8729 0.8729 0.8729
2050.000000 0.8730 0.8730 0.8730 0.8730 0.8730
2055.000000 0.8732 0.8734 0.8735 0.8737 0.8737
2060.000000 0.8738 0.8738 0.8738 0.8738 0.8738
2065.000000 0.8737 0.8737 0.8736 0.8735 0.8734
2070.000000 0.8733 0.8732 0.8731 0.8730 0.8729
2075.000000 0.8728 0.8727 0.8726 0.8725 0.8724
2080.000000 0.8723 0.8722 0.8721 0.8719 0.8718
2085.000000 0.8717 0.8716 0.8715 0.8714 0.8712
2090.000000 0.8711 0.8709 0.8708 0.8706 0.8705
2095.000000 0.8703 0.8702 0.8700 0.8699 0.8698
2100.000000 0.8697 0.8695 0.8694 0.8692 0.8691
2105.000000 0.8689 0.8688 0.8686 0.8685 0.8685
2110.000000 0.8685 0.8685 0.8685 0.8685 0.8685
2115.000000 0.8685 0.8685 0.8685 0.8685 0.8683
2120.000000 0.8682 0.8680 0.8678 0.8676 0.8675
2125.000000 0.8673 0.8671 0.8669 0.8667 0.8665
2130.000000 0.8664 0.8661 0.8659 0.8656 0.8654
2135.000000 0.8651 0.8648 0.8645 0.8643 0.8640
2140.000000 0.8637 0.8634 0.8632 0.8629 0.8626
2145.000000 0.8623 0.8620 0.8618 0.8617 0.8616
2150.000000 0.8615 0.8613 0.8612 0.8611 0.8610
2155.000000 0.8608 0.8607 0.8605 0.8604 0.8603
2160.000000 0.8602 0.8601 0.8600 0.8600 0.8600
2165.000000 0.8599 0.8599 0.8598 0.8598 0.8598
2170.000000 0.8598 0.8597 0.8597 0.8597 0.8598
2175.000000 0.8598 0.8598 0.8598 0.8599 0.8599
2180.000000 0.8600 0.8600 0.8601 0.8601 0.8602
2185.000000 0.8602 0.8603 0.8603 0.8604 0.8604
2190.000000 0.8604 0.8604 0.8605 0.8606 0.8608
2195.000000 0.8610 0.8612 0.8614 0.8616 0.8618
2200.000000 0.8620 0.8622 0.8624 0.8625 0.8627
2205.000000 0.8629 0.8631 0.8633 0.8636 0.8639
2210.000000 0.8642 0.8644 0.8647 0.8650 0.8653
2215.000000 0.8656 0.8659 0.8662 0.8665 0.8668
2220.000000 0.8671 0.8674 0.8678 0.8681 0.8685
2225.000000 0.8686 0.8688 0.8688 0.8689 0.8689
2230.000000 0.8690 0.8690 0.8691 0.8691 0.8691
2235.000000 0.8690 0.8690 0.8689 0.8688 0.8687
2240.000000 0.8687 0.8686 0.8685 0.8684 0.8684
2245.000000 0.8682 0.8681 0.8679 0.8678 0.8676
2250.000000 0.8675 0.8673 0.8672 0.8670 0.8669
2255.000000 0.8667 0.8666 0.8664 0.8663 0.8661
2260.000000 0.8659 0.8655 0.8652 0.8649 0.8646
2265.000000 0.8642 0.8639 0.8636 0.8633 0.8630
2270.000000 0.8627 0.8626 0.8626 0.8625 0.8625
2275.000000 0.8624 0.8624 0.8625 0.8626 0.8628
2280.000000 0.8631 0.8633 0.8636 0.8639 0.8642
2285.000000 0.8644 0.8647 0.8650 0.8654 0.8658
2290.000000 0.8662 0.8666 0.8670 0.8674 0.8678
2295.000000 0.8681 0.8685 0.8689 0.8693 0.8696
2300.000000 0.8700 0.8704 0.8708 0.8711 0.8714
2305.000000 0.8715 0.8709 0.8719 0.8721 0.8722
2310.000000 0.8724 0.8725 0.8727 0.8729 0.8731
2315.000000 0.8732 0.8734 0.8736 0.8738 0.8740
2320.000000 0.8742 0.8744 0.8746 0.8748 0.8750
2325.000000 0.8752 0.8754 0.8755 0.8757 0.8758
2330.000000 0.8759 0.8759 0.8760 0.8761 0.8762
2335.000000 0.8763 0.8764 0.8764 0.8764 0.8763
2340.000000 0.8763 0.8762 0.8761 0.8760 0.8760
2345.000000 0.8759 0.8758 0.8757 0.8757 0.8754
2350.000000 0.8752 0.8750 0.8748 0.8745 0.8743
2355.000000 0.8739 0.8736 0.8731 0.8727 0.8723
2360.000000 0.8719 0.8715 0.8711 0.8712 0.8714
2365.000000 0.8714 0.8715 0.8715 0.8715 0.8716
2370.000000 0.8717 0.8720 0.8723 0.8725 0.8728
2375.000000 0.8730 0.8733 0.8735 0.8738 0.8741
2380.000000 0.8744 0.8746 0.8749 0.8751 0.8754
2385.000000 0.8757 0.8760 0.8763 0.8767 0.8770
2390.000000 0.8774 0.8777 0.8781 0.8784 0.8788
2395.000000 0.8791 0.8795 0.8797 0.8800 0.8802
2400.000000 0.8805 0.8807 0.8810 0.8813 0.8816
2405.000000 0.8818 0.8820 0.8822 0.8824 0.8826
2410.000000 0.8828 0.8831 0.8834 0.8837 0.8840
2415.000000 0.8843 0.8846 0.8848 0.8851 0.8854
2420.000000 0.8857 0.8860 0.8863 0.8865 0.8867
2425.000000 0.8868 0.8870 0.8871 0.8873 0.8875
2430.000000 0.8877 0.8878 0.8880 0.8881 0.8883
2435.000000 0.8883 0.8884 0.8884 0.8885 0.8885
2440.000000 0.8885 0.8885 0.8886 0.8886 0.8887
2445.000000 0.8887 0.8887 0.8887 0.8888 0.8888
2450.000000 0.8888 0.8887 0.8887 0.8887 0.8887
2455.000000 0.8886 0.8886 0.8886 0.8886 0.8885
2460.000000 0.8885 0.8885 0.8885 0.8884 0.8883
2465.000000 0.8882 0.8882 0.8881 0.8880 0.8879
2470.000000 0.8879 0.8878 0.8878 0.8877 0.8876
2475.000000 0.8875 0.8875 0.8874 0.8873 0.8872
2480.000000 0.8871 0.8870 0.8870 0.8869 0.8868
2485.000000 0.8867 0.8866 0.8865 0.8864 0.8863
2490.000000 0.8862 0.8861 0.8860 0.8859 0.8858
