##TITLE=PROPANE, 1-BROMO-3-CHLORO-
##JCAMP-DX=4.24
##DATA TYPE=INFRARED SPECTRUM
##CLASS=COBLENTZ III
##ORIGIN=DOW CHEMICAL COMPANY
##OWNER=COBLENTZ SOCIETY
Collection (C) 2018 copyright by the U.S. Secretary of Commerce
on behalf of the United States of America. All rights reserved.
##DATE=1961/12/15
##NAMES=1-bromo-3-chloropropane
##CAS REGISTRY NO=109-70-6
##MOLFORM=C3 H6 Br Cl
##SOURCE REFERENCE=COBLENTZ NO. 10023
##$NIST SOURCE=COBLENTZ
##$NIST IMAGE=cob10023
##SPECTROMETER/DATA SYSTEM=DOW KBr FOREPRISM-GRATING
##INSTRUMENT PARAMETERS=BLAZED AT 3.5, 12.0, 20.0 MICRON, CHANGED AT 5.0, 7.5, 14.9 MICRON
##STATE=SOLUTION (10% IN CCl4 FOR 3800-1333, AND 10% IN CS2 FOR 1333-450 CM^-^1)
##PATH LENGTH=0.011, 0.011 CM
$$SPECTRAL CONTAMINATION DUE TO CCl4 AROUND 1550 CM^-^1
##SAMPLING PROCEDURE=TRANSMISSION
##RESOLUTION=4
##DATA PROCESSING=DIGITIZED BY NIST FROM HARD COPY (FROM TWO SEGMENTS)
##XUNITS=1/CM
##YUNITS=TRANSMITTANCE
##XFACTOR=1.000000
##YFACTOR=1
##DELTAX=0.869094
##FIRSTX=450.407
##LASTX=3794.68
##FIRSTY=1.062
##MAXX=3794.68
##MINX=450.407
##MAXY=1.088
##MINY=0.22203
##NPOINTS=3849
##XYDATA=(X++(Y..Y))
450.407000 1.0620 1.0640 1.0640 1.0620 1.0620
454.752470 1.0620 1.0620 1.0620 1.0620 1.0620
459.097941 1.0640 1.0640 1.0640 1.0620 1.0620
463.443411 1.0640 1.0640 1.0650 1.0650 1.0650
467.788882 1.0650 1.0650 1.0650 1.0650 1.0650
472.134352 1.0650 1.0680 1.0690 1.0690 1.0700
476.479822 1.0720 1.0720 1.0720 1.0730 1.0730
480.825293 1.0730 1.0760 1.0760 1.0730 1.0730
485.170763 1.0730 1.0740 1.0760 1.0760 1.0760
489.516234 1.0770 1.0770 1.0770 1.0770 1.0790
493.861704 1.0790 1.0790 1.0800 1.0800 1.0800
498.207174 1.0810 1.0800 1.0800 1.0800 1.0810
502.552645 1.0810 1.0830 1.0830 1.0830 1.0830
506.898115 1.0830 1.0830 1.0830 1.0830 1.0830
511.243585 1.0830 1.0830 1.0830 1.0830 1.0830
515.589056 1.0830 1.0830 1.0830 1.0830 1.0830
519.934526 1.0830 1.0830 1.0830 1.0850 1.0850
524.279997 1.0850 1.0850 1.0850 1.0850 1.0850
528.625467 1.0850 1.0870 1.0870 1.0870 1.0880
532.970937 1.0870 1.0870 1.0870 1.0870 1.0870
537.316408 1.0870 1.0870 1.0870 1.0870 1.0870
541.661878 1.0870 1.0850 1.0840 1.0840 1.0840
546.007349 1.0830 1.0810 1.0800 1.0800 1.0800
550.352819 1.0790 1.0760 1.0720 1.0660 1.0650
554.698289 1.0620 1.0580 1.0540 1.0500 1.0490
559.043760 1.0440 1.0380 1.0271 1.0171 1.0041
563.389230 0.9900 0.9760 0.9550 0.9270 0.8771
567.734701 0.8371 0.7951 0.7522 0.6903 0.6004
572.080171 0.5950 0.6000 0.6290 0.6639 0.7339
576.425641 0.7759 0.8318 0.9007 0.9448 0.9739
580.771112 0.9910 1.0080 1.0270 1.0420 1.0460
585.116582 1.0470 1.0530 1.0570 1.0610 1.0640
589.462053 1.0730 1.0740 1.0730 1.0720 1.0680
593.807523 1.0660 1.0660 1.0680 1.0700 1.0700
598.152993 1.0720 1.0720 1.0720 1.0720 1.0720
602.498464 1.0700 1.0700 1.0690 1.0680 1.0680
606.843934 1.0660 1.0660 1.0660 1.0660 1.0660
611.189405 1.0660 1.0640 1.0620 1.0620 1.0640
615.534875 1.0640 1.0620 1.0610 1.0590 1.0580
619.880345 1.0570 1.0550 1.0540 1.0510 1.0490
624.225816 1.0470 1.0470 1.0460 1.0380 1.0340
628.571286 1.0240 1.0200 1.0190 1.0100 1.0000
632.916756 0.9870 0.9760 0.9710 0.9710 0.9710
637.262227 0.9710 0.9710 0.9710 0.9710 0.9680
641.607697 0.9650 0.9600 0.9550 0.9490 0.9420
645.953168 0.9270 0.9220 0.9101 0.8951 0.8851
650.298638 0.8670 0.8510 0.8310 0.8100 0.8030
654.644108 0.7920 0.7761 0.7641 0.7540 0.7341
658.989579 0.7220 0.7050 0.6451 0.6400 0.6300
663.335049 0.5881 0.5472 0.5360 0.5350 0.5350
667.680520 0.5360 0.6629 0.7119 0.7130 0.7310
672.025990 0.7579 0.8237 0.8559 0.9008 0.9259
676.371460 0.9450 0.9570 0.9700 0.9760 0.9900
680.716931 0.9940 1.0000 1.0020 1.0040 1.0040
685.062401 1.0060 1.0160 1.0230 1.0230 1.0240
689.407872 1.0240 1.0250 1.0250 1.0250 1.0270
693.753342 1.0280 1.0270 1.0270 1.0270 1.0280
698.098812 1.0280 1.0290 1.0290 1.0290 1.0290
702.444283 1.0290 1.0290 1.0290 1.0280 1.0270
706.789753 1.0270 1.0270 1.0240 1.0230 1.0210
711.135224 1.0190 1.0140 1.0100 1.0040 1.0020
715.480694 1.0010 1.0000 0.9930 0.9870 0.9830
719.826164 0.9780 0.9710 0.9570 0.9290 0.9190
724.171635 0.9120 0.8990 0.8950 0.8930 0.8930
728.517105 0.9030 0.9160 0.9340 0.9420 0.9600
732.862575 0.9829 0.9870 0.9930 0.9980 1.0000
737.208046 1.0020 1.0040 1.0050 1.0060 1.0080
741.553516 1.0100 1.0130 1.0130 1.0130 1.0120
745.898987 1.0120 1.0120 1.0100 1.0090 1.0080
750.244457 1.0080 1.0050 1.0010 0.9980 0.9970
754.589927 0.9910 0.9890 0.9820 0.9780 0.9680
758.935398 0.9590 0.9520 0.9410 0.9261 0.9081
763.280868 0.8880 0.8660 0.8410 0.8210 0.7951
767.626339 0.7830 0.7651 0.7580 0.7530 0.7470
771.971809 0.7380 0.7260 0.7110 0.6960 0.6780
776.317279 0.6740 0.6600 0.6451 0.6301 0.6220
780.662750 0.6000 0.5840 0.5461 0.5420 0.5420
785.008220 0.5470 0.5639 0.5849 0.6059 0.6319
789.353691 0.6710 0.7090 0.7459 0.7789 0.8129
793.699161 0.8329 0.8699 0.8889 0.9029 0.9149
798.044631 0.9310 0.9380 0.9480 0.9560 0.9650
802.390102 0.9740 0.9800 0.9870 0.9910 0.9940
806.735572 0.9980 1.0000 1.0010 1.0020 1.0040
811.081043 1.0050 1.0060 1.0100 1.0140 1.0160
815.426513 1.0170 1.0190 1.0200 1.0210 1.0210
819.771983 1.0210 1.0210 1.0210 1.0200 1.0190
824.117454 1.0160 1.0140 1.0120 1.0100 1.0090
828.462924 1.0060 1.0060 1.0040 1.0010 1.0000
832.808394 0.9930 0.9870 0.9800 0.9780 0.9650
837.153865 0.9570 0.9450 0.9330 0.9121 0.8921
841.499335 0.8660 0.8460 0.8280 0.8280 0.8330
845.844806 0.8330 0.8330 0.8320 0.8290 0.8210
850.190276 0.8090 0.7920 0.7690 0.7460 0.7270
854.535746 0.7090 0.6930 0.6830 0.6740 0.6561
858.881217 0.6280 0.6080 0.6080 0.6140 0.6380
863.226687 0.6560 0.7088 0.7389 0.7569 0.7670
867.572158 0.7870 0.8020 0.8130 0.8210 0.8390
871.917628 0.8520 0.8670 0.8700 0.8740 0.8859
876.263098 0.8920 0.9000 0.9070 0.9150 0.9230
880.608569 0.9310 0.9350 0.9420 0.9490 0.9550
884.954039 0.9570 0.9600 0.9640 0.9760 0.9780
889.299510 0.9820 0.9860 0.9900 1.0000 1.0010
893.644980 1.0010 1.0020 1.0080 1.0100 1.0120
897.990450 1.0120 1.0160 1.0190 1.0190 1.0210
902.335921 1.0240 1.0240 1.0240 1.0230 1.0230
906.681391 1.0230 1.0230 1.0230 1.0230 1.0230
911.026862 1.0230 1.0230 1.0210 1.0210 1.0210
915.372332 1.0210 1.0210 1.0210 1.0210 1.0210
919.717802 1.0210 1.0210 1.0210 1.0190 1.0190
924.063273 1.0170 1.0140 1.0130 1.0120 1.0100
928.408743 1.0100 1.0090 1.0080 1.0050 1.0020
932.754214 1.0000 0.9980 0.9940 0.9910 0.9890
937.099684 0.9830 0.9780 0.9760 0.9670 0.9610
941.445154 0.9560 0.9400 0.9300 0.9151 0.9110
945.790625 0.8880 0.8670 0.8430 0.8250 0.8030
950.136095 0.7800 0.7491 0.7420 0.7420 0.7539
954.481565 0.7730 0.7870 0.8050 0.8250 0.8500
958.827036 0.8700 0.8820 0.9009 0.9219 0.9339
963.172506 0.9490 0.9570 0.9610 0.9680 0.9790
967.517977 0.9890 0.9910 0.9980 1.0000 1.0000
971.863447 1.0020 1.0050 1.0060 1.0060 1.0080
976.208917 1.0090 1.0100 1.0120 1.0120 1.0100
980.554388 1.0100 1.0120 1.0130 1.0160 1.0190
984.899858 1.0210 1.0230 1.0250 1.0280 1.0290
989.245329 1.0320 1.0320 1.0340 1.0340 1.0350
993.590799 1.0360 1.0360 1.0380 1.0380 1.0360
997.936269 1.0360 1.0360 1.0360 1.0360 1.0390
1002.281740 1.0360 1.0340 1.0320 1.0340 1.0350
1006.627210 1.0340 1.0290 1.0270 1.0270 1.0270
1010.972681 1.0250 1.0250 1.0250 1.0230 1.0190
1015.318151 1.0160 1.0140 1.0140 1.0140 1.0170
1019.663621 1.0230 1.0240 1.0270 1.0280 1.0280
1024.009092 1.0280 1.0280 1.0270 1.0270 1.0250
1028.354562 1.0240 1.0230 1.0230 1.0210 1.0210
1032.700033 1.0240 1.0250 1.0270 1.0280 1.0310
1037.045503 1.0320 1.0320 1.0320 1.0320 1.0320
1041.390973 1.0320 1.0340 1.0320 1.0320 1.0310
1045.736444 1.0290 1.0280 1.0270 1.0250 1.0250
1050.081914 1.0240 1.0240 1.0200 1.0160 1.0130
1054.427384 1.0090 1.0020 1.0000 0.9910 0.9860
1058.772855 0.9800 0.9780 0.9760 0.9780 0.9790
1063.118325 0.9850 0.9890 0.9910 0.9930 0.9940
1067.463796 0.9940 0.9930 0.9900 0.9870 0.9800
1071.809266 0.9760 0.9670 0.9560 0.9450 0.9251
1076.154736 0.9160 0.9160 0.9300 0.9450 0.9560
1080.500207 0.9670 0.9800 0.9930 1.0020 1.0020
1084.845677 1.0080 1.0140 1.0210 1.0210 1.0230
1089.191148 1.0230 1.0240 1.0250 1.0290 1.0310
1093.536618 1.0320 1.0320 1.0320 1.0340 1.0320
1097.882088 1.0340 1.0340 1.0350 1.0350 1.0350
1102.227559 1.0360 1.0360 1.0360 1.0360 1.0360
1106.573029 1.0360 1.0360 1.0360 1.0360 1.0380
1110.918500 1.0380 1.0390 1.0380 1.0380 1.0380
1115.263970 1.0380 1.0350 1.0340 1.0320 1.0310
1119.609440 1.0290 1.0290 1.0280 1.0280 1.0290
1123.954911 1.0290 1.0310 1.0310 1.0290 1.0280
1128.300381 1.0250 1.0240 1.0190 1.0160 1.0160
1132.645852 1.0170 1.0190 1.0200 1.0210 1.0210
1136.991322 1.0210 1.0210 1.0200 1.0190 1.0190
1141.336792 1.0140 1.0100 1.0050 1.0010 1.0080
1145.682263 1.0120 1.0170 1.0210 1.0240 1.0270
1150.027733 1.0280 1.0280 1.0280 1.0310 1.0310
1154.373204 1.0320 1.0320 1.0320 1.0320 1.0320
1158.718674 1.0340 1.0340 1.0340 1.0340 1.0320
1163.064144 1.0340 1.0340 1.0350 1.0350 1.0350
1167.409615 1.0350 1.0350 1.0350 1.0350 1.0340
1171.755085 1.0310 1.0290 1.0280 1.0270 1.0250
1176.100555 1.0230 1.0210 1.0160 1.0100 1.0020
1180.446026 0.9970 0.9910 0.9800 0.9780 0.9790
1184.791496 0.9870 0.9980 1.0000 1.0010 1.0100
1189.136967 1.0140 1.0160 1.0190 1.0210 1.0210
1193.482437 1.0210 1.0200 1.0170 1.0170 1.0160
1197.827907 1.0160 1.0140 1.0120 1.0090 1.0040
1202.173378 0.9980 0.9910 0.9850 0.9760 0.9750
1206.518848 0.9760 0.9780 0.9850 0.9900 0.9940
1210.864319 0.9980 1.0000 1.0000 0.9980 0.9980
1215.209789 0.9980 0.9940 0.9930 0.9910 0.9890
1219.555259 0.9860 0.9860 0.9820 0.9780 0.9750
1223.900730 0.9710 0.9650 0.9560 0.9490 0.9410
1228.246200 0.9270 0.9110 0.8960 0.8711 0.8481
1232.591671 0.8100 0.7760 0.7230 0.6750 0.5272
1236.937141 0.5011 0.4870 0.4740 0.4461 0.4141
1241.282611 0.3779 0.2560 0.2500 0.2530 0.2790
1245.628082 0.3020 0.4257 0.4270 0.4668 0.5088
1249.973552 0.5420 0.5840 0.6510 0.6590 0.6600
1254.319023 0.6630 0.6630 0.6580 0.6451 0.6321
1258.664493 0.6130 0.5790 0.5590 0.4891 0.4011
1263.009963 0.3591 0.2314 0.2220 0.2270 0.2539
1267.355434 0.3330 0.4000 0.4570 0.5499 0.6149
1271.700904 0.6659 0.7518 0.7540 0.7759 0.8029
1276.046374 0.8200 0.8310 0.8500 0.8580 0.8690
1280.391845 0.8730 0.8800 0.8850 0.8860 0.8890
1284.737315 0.8890 0.8820 0.8800 0.8730 0.8650
1289.082786 0.8560 0.8510 0.8430 0.8400 0.8400
1293.428256 0.8400 0.8410 0.8410 0.8370 0.8310
1297.773726 0.8220 0.8090 0.7940 0.7761 0.7611
1302.119197 0.7420 0.7380 0.7260 0.7090 0.6860
1306.464667 0.6530 0.6261 0.6061 0.5851 0.5850
1310.810138 0.6210 0.6560 0.7170 0.7650 0.7840
1315.155608 0.8130 0.8310 0.8500 0.8580 0.8700
1319.501078 0.8780 0.8880 0.8920 0.8950 0.8990
1323.846549 0.9030 0.9100 0.9120 0.9140 0.9150
1328.192019 0.9180 0.9190 0.9200 0.9220 0.9230
1332.537490 0.9230 0.9200 0.9190 0.9160 0.9120
1336.882960 0.9100 0.8970 0.8950 0.8970 0.8930
1341.228430 0.8880 0.8800 0.8740 0.8710 0.8730
1345.573901 0.8770 0.8810 0.8850 0.8910 0.8960
1349.919371 0.8950 0.8860 0.8840 0.8820 0.8820
1354.264842 0.8810 0.8780 0.8740 0.8660 0.8630
1358.610312 0.8650 0.8700 0.8760 0.9049 0.9309
1362.955782 0.9530 0.9720 0.9800 0.9900 0.9930
1367.301253 0.9940 0.9970 0.9980 0.9980 0.9980
1371.646723 0.9970 0.9980 0.9980 0.9980 1.0000
1375.992193 1.0000 1.0000 0.9980 0.9980 0.9980
1380.337664 0.9980 0.9980 0.9980 1.0000 1.0010
1384.683134 1.0020 1.0040 1.0040 1.0020 1.0010
1389.028605 1.0010 1.0000 1.0000 0.9980 0.9970
1393.374075 0.9970 0.9980 0.9980 0.9980 0.9970
1397.719545 0.9970 0.9970 0.9950 0.9950 0.9930
1402.065016 0.9870 0.9830 0.9820 0.9800 0.9790
1406.410486 0.9760 0.9750 0.9710 0.9700 0.9670
1410.755957 0.9630 0.9590 0.9550 0.9490 0.9420
1415.101427 0.9330 0.9250 0.9120 0.8990 0.8740
1419.446897 0.8550 0.8370 0.7472 0.6443 0.6320
1423.792368 0.6170 0.6170 0.6280 0.7130 0.7830
1428.137838 0.8110 0.8210 0.8220 0.8200 0.8160
1432.483309 0.7940 0.7750 0.7420 0.6480 0.5501
1436.828779 0.4851 0.4201 0.4649 0.4680 0.5089
1441.174249 0.5360 0.5610 0.5430 0.5350 0.5310
1445.519720 0.5080 0.5310 0.5549 0.5889 0.6179
1449.865190 0.6751 0.7130 0.7430 0.7580 0.7710
1454.210661 0.7940 0.8209 0.8509 0.8699 0.8839
1458.556131 0.8860 0.8880 0.8890 0.8890 0.8920
1462.901601 0.9030 0.9110 0.9190 0.9220 0.9260
1467.247072 0.9300 0.9330 0.9340 0.9370 0.9400
1471.592542 0.9410 0.9440 0.9460 0.9490 0.9520
1475.938013 0.9490 0.9480 0.9460 0.9440 0.9420
1480.283483 0.9410 0.9380 0.9340 0.9330 0.9310
1484.628953 0.9300 0.9260 0.9250 0.9230 0.9220
1488.974424 0.9200 0.9190 0.9140 0.9110 0.9050
1493.319894 0.9030 0.8990 0.8970 0.8930 0.8910
1497.665364 0.8890 0.8880 0.8780 0.8740 0.8670
1502.010835 0.8590 0.8560 0.8500 0.8440 0.8400
1506.356305 0.8350 0.8310 0.8250 0.8160 0.8100
1510.701776 0.8060 0.7990 0.7970 0.7920 0.7910
1515.047246 0.7860 0.7800 0.7750 0.7690 0.7650
1519.392716 0.7580 0.7570 0.7520 0.7490 0.7420
1523.738187 0.7380 0.7310 0.7300 0.7270 0.7260
1528.083657 0.7230 0.7130 0.7080 0.7020 0.6960
1532.429128 0.6890 0.6850 0.6790 0.6740 0.6591
1536.774598 0.6470 0.6300 0.6280 0.6180 0.6080
1541.120068 0.5960 0.5760 0.5610 0.5580 0.5490
1545.465539 0.5400 0.5340 0.5340 0.5240 0.5210
1549.811009 0.5190 0.5160 0.5140 0.5140 0.5160
1554.156480 0.5160 0.5200 0.5230 0.5310 0.5350
1558.501950 0.5360 0.5400 0.5699 0.5880 0.5950
1562.847420 0.5980 0.5990 0.5990 0.6020 0.6170
1567.192891 0.6290 0.6370 0.6430 0.6490 0.6620
1571.538361 0.6740 0.6820 0.6890 0.6890 0.6920
1575.883832 0.6960 0.6980 0.7010 0.7040 0.7050
1580.229302 0.7070 0.7080 0.7110 0.7120 0.7130
1584.574772 0.7150 0.7220 0.7220 0.7240 0.7280
1588.920243 0.7320 0.7390 0.7450 0.7500 0.7580
1593.265713 0.7680 0.7760 0.7820 0.7900 0.7950
1597.611183 0.8090 0.8130 0.8170 0.8310 0.8410
1601.956654 0.8540 0.8650 0.8740 0.8800 0.8890
1606.302124 0.8930 0.9010 0.9100 0.9150 0.9230
1610.647595 0.9290 0.9310 0.9350 0.9440 0.9440
1614.993065 0.9520 0.9550 0.9560 0.9590 0.9630
1619.338535 0.9640 0.9640 0.9670 0.9680 0.9720
1623.684006 0.9760 0.9760 0.9790 0.9820 0.9830
1628.029476 0.9850 0.9860 0.9870 0.9890 0.9910
1632.374947 0.9930 0.9950 0.9980 0.9980 1.0000
1636.720417 1.0010 1.0130 1.0140 1.0140 1.0140
1641.065887 1.0170 1.0190 1.0190 1.0200 1.0210
1645.411358 1.0240 1.0250 1.0270 1.0270 1.0250
1649.756828 1.0240 1.0240 1.0230 1.0210 1.0200
1654.102299 1.0140 1.0130 1.0130 1.0120 1.0100
1658.447769 1.0100 1.0090 1.0060 1.0050 1.0040
1662.793239 1.0040 1.0020 1.0020 1.0010 1.0000
1667.138710 1.0000 1.0000 1.0000 1.0010 1.0010
1671.484180 1.0010 0.9980 0.9980 0.9980 0.9980
1675.829651 0.9980 1.0000 1.0000 1.0000 1.0000
1680.175121 1.0000 1.0000 1.0000 1.0000 1.0000
1684.520591 1.0000 1.0000 1.0000 1.0000 1.0000
1688.866062 1.0000 1.0000 1.0000 1.0000 0.9980
1693.211532 0.9980 0.9980 0.9980 1.0000 1.0000
1697.557003 1.0000 1.0000 1.0000 1.0000 1.0000
1701.902473 0.9980 1.0010 1.0010 1.0010 1.0010
1706.247943 1.0010 1.0040 1.0040 1.0010 1.0010
1710.593414 1.0000 1.0000 1.0000 1.0000 1.0000
1714.938884 1.0000 1.0000 1.0000 1.0000 1.0000
1719.284354 1.0000 1.0020 1.0020 1.0000 1.0000
1723.629825 1.0000 1.0000 1.0000 1.0000 1.0000
1727.975295 1.0000 1.0000 1.0000 1.0000 1.0000
1732.320766 1.0000 0.9980 0.9980 0.9980 0.9980
1736.666236 0.9980 0.9970 0.9970 0.9970 0.9980
1741.011706 0.9980 1.0000 0.9980 0.9980 0.9980
1745.357177 0.9980 0.9980 0.9980 0.9980 0.9980
1749.702647 0.9980 1.0000 1.0000 1.0010 1.0000
1754.048118 1.0000 1.0000 1.0000 1.0000 1.0000
1758.393588 1.0000 1.0000 1.0000 1.0000 1.0000
1762.739058 1.0010 1.0010 1.0010 1.0020 1.0020
1767.084529 1.0010 1.0010 1.0010 1.0010 1.0010
1771.429999 1.0020 1.0040 1.0040 1.0040 1.0040
1775.775470 1.0050 1.0040 1.0020 1.0020 1.0010
1780.120940 1.0010 1.0010 1.0010 1.0010 1.0010
1784.466410 1.0010 1.0010 1.0010 1.0010 1.0010
1788.811881 1.0010 1.0010 1.0010 1.0010 1.0000
1793.157351 1.0000 1.0000 1.0010 1.0000 1.0000
1797.502822 0.9980 0.9980 0.9980 0.9980 0.9970
1801.848292 0.9970 0.9970 0.9970 0.9970 0.9970
1806.193762 0.9970 0.9970 0.9970 0.9980 0.9980
1810.539233 0.9980 0.9970 0.9970 0.9970 0.9980
1814.884703 0.9970 0.9970 0.9950 0.9940 0.9940
1819.230173 0.9940 0.9940 0.9940 0.9940 0.9940
1823.575644 0.9940 0.9940 0.9940 0.9950 0.9950
1827.921114 0.9950 0.9950 0.9950 0.9950 0.9950
1832.266585 0.9950 0.9950 0.9940 0.9940 0.9940
1836.612055 0.9940 0.9930 0.9930 0.9930 0.9930
1840.957525 0.9930 0.9910 0.9900 0.9900 0.9910
1845.302996 0.9910 0.9930 0.9940 0.9940 0.9930
1849.648466 0.9930 0.9930 0.9910 0.9930 0.9910
1853.993937 0.9910 0.9910 0.9910 0.9900 0.9900
1858.339407 0.9900 0.9900 0.9890 0.9890 0.9890
1862.684877 0.9900 0.9900 0.9900 0.9910 0.9930
1867.030348 0.9930 0.9940 0.9940 0.9940 0.9940
1871.375818 0.9940 0.9970 0.9980 0.9980 0.9980
1875.721289 0.9980 0.9980 0.9980 0.9980 0.9950
1880.066759 0.9950 0.9950 1.0000 1.0000 0.9940
1884.412229 0.9940 0.9940 0.9930 0.9930 0.9930
1888.757700 0.9930 0.9940 0.9950 0.9970 0.9970
1893.103170 0.9970 0.9970 0.9970 0.9970 0.9970
1897.448641 0.9970 0.9970 0.9970 0.9970 0.9970
1901.794111 0.9970 0.9970 0.9970 0.9980 0.9980
1906.139581 0.9970 0.9970 0.9950 0.9940 0.9940
1910.485052 0.9940 0.9940 0.9970 0.9950 0.9950
1914.830522 0.9950 0.9950 0.9950 0.9950 0.9950
1919.175992 0.9950 0.9950 0.9950 0.9950 0.9950
1923.521463 0.9950 0.9970 0.9970 0.9970 0.9980
1927.866933 0.9980 0.9980 0.9980 0.9980 0.9980
1932.212404 0.9980 0.9980 0.9980 1.0000 0.9980
1936.557874 0.9950 0.9950 0.9980 0.9980 0.9980
1940.903344 0.9980 1.0000 1.0000 1.0000 1.0000
1945.248815 1.0000 1.0000 1.0000 1.0000 1.0000
1949.594285 0.9980 0.9980 0.9980 0.9980 0.9980
1953.939756 0.9980 0.9980 0.9980 0.9980 1.0000
1958.285226 1.0000 1.0000 1.0000 1.0000 1.0000
1962.630696 1.0000 1.0000 1.0000 1.0000 1.0000
1966.976167 1.0010 1.0010 1.0010 1.0010 1.0000
1971.321637 1.0000 1.0010 1.0010 1.0010 1.0000
1975.667108 1.0010 1.0010 1.0010 1.0010 1.0000
1980.012578 1.0000 1.0000 1.0000 1.0000 1.0000
1984.358048 1.0010 1.0010 1.0010 1.0010 1.0010
1988.703519 1.0000 1.0000 1.0000 1.0000 1.0000
1993.048989 1.0000 1.0000 1.0000 1.0000 1.0000
1997.394460 1.0000 1.0000 1.0000 1.0050 1.0045
2001.739930 1.0040 1.0040 1.0040 1.0030 1.0020
2006.085400 1.0015 1.0010 1.0010 1.0010 1.0010
2010.430871 1.0010 1.0010 1.0010 0.9995 0.9980
2014.776341 0.9975 0.9970 0.9960 0.9950 0.9950
2019.121812 0.9950 0.9960 0.9970 0.9975 0.9980
2023.467282 0.9980 0.9980 0.9980 0.9980 0.9980
2027.812752 0.9980 0.9980 0.9980 0.9990 1.0000
2032.158223 1.0000 1.0000 1.0005 1.0010 1.0010
2036.503693 1.0010 1.0010 1.0010 1.0010 1.0010
2040.849163 1.0034 1.0059 1.0075 1.0090 1.0095
2045.194634 1.0100 1.0110 1.0120 1.0120 1.0120
2049.540104 1.0120 1.0120 1.0110 1.0100 1.0095
2053.885575 1.0090 1.0085 1.0080 1.0070 1.0060
2058.231045 1.0050 1.0040 1.0030 1.0020 1.0015
2062.576515 1.0010 1.0005 1.0000 1.0010 1.0020
2066.921986 1.0020 1.0020 1.0020 1.0020 1.0034
2071.267456 1.0049 1.0050 1.0050 1.0012 0.9972
2075.612927 0.9970 0.9970 0.9994 1.0019 1.0020
2079.958397 1.0020 1.0020 1.0020 1.0020 1.0020
2084.303867 1.0029 1.0039 1.0045 1.0050 1.0026
2088.649338 1.0001 1.0000 1.0000 1.0019 1.0039
2092.994808 1.0031 1.0021 1.0015 1.0010 1.0010
2097.340279 1.0010 1.0010 1.0010 1.0005 1.0000
2101.685749 1.0005 1.0010 1.0005 1.0000 1.0000
2106.031219 1.0000 0.9991 0.9981 0.9980 0.9980
2110.376690 0.9989 0.9999 1.0005 1.0010 1.0015
2114.722160 1.0020 1.0020 1.0020 1.0020 1.0020
2119.067631 1.0020 1.0020 1.0020 1.0020 1.0029
2123.413101 1.0039 1.0031 1.0021 1.0015 1.0010
2127.758571 1.0010 1.0010 1.0010 1.0010 1.0010
2132.104042 1.0010 1.0010 1.0010 1.0010 1.0010
2136.449512 1.0010 1.0010 1.0010 1.0010 1.0010
2140.794982 1.0010 1.0010 1.0010 1.0006 1.0000
2145.140453 1.0000 1.0000 1.0005 1.0010 1.0010
2149.485923 1.0010 1.0010 1.0010 1.0006 1.0000
2153.831394 1.0000 1.0000 1.0000 1.0000 1.0000
2158.176864 1.0000 1.0000 1.0000 1.0000 1.0000
2162.522334 1.0005 1.0010 1.0010 1.0010 1.0010
2166.867805 1.0010 1.0010 1.0010 1.0010 1.0010
2171.213275 1.0010 1.0010 1.0006 1.0000 1.0000
2175.558746 1.0000 0.9991 0.9981 0.9980 0.9980
2179.904216 0.9980 0.9980 0.9980 0.9980 0.9980
2184.249686 0.9980 0.9989 0.9999 0.9991 0.9981
2188.595157 0.9980 0.9980 0.9980 0.9980 0.9980
2192.940627 0.9980 0.9980 0.9980 0.9976 0.9971
2197.286098 0.9961 0.9951 0.9950 0.9950 0.9946
2201.631568 0.9941 0.9936 0.9931 0.9930 0.9930
