##TITLE=VINYL ETHER
##JCAMP-DX=4.24
##DATA TYPE=INFRARED SPECTRUM
##CLASS=COBLENTZ
##ORIGIN=DOW CHEMICAL COMPANY
##OWNER=COBLENTZ SOCIETY
Collection (C) 2018 copyright by the U.S. Secretary of Commerce
on behalf of the United States of America. All rights reserved.
##DATE=1964
##NAMES=divinyl ether
1-(vinyloxy)ethylene
DIVINYL ETHER
##CAS REGISTRY NO=109-93-3
##MOLFORM=C4 H6 O
##SOURCE REFERENCE=COBLENTZ NO. 8797
##$NIST SOURCE=COBLENTZ
##$NIST IMAGE=cob-r8797
##SPECTROMETER/DATA SYSTEM=DOW KBr FOREPRISM-GRATING
##INSTRUMENT PARAMETERS=GRATING CHANGED AT 5.0, 7.5, 15.0 MICRON
##STATE=GAS (100 mmHg, N2 ADDED, TOTAL PRESSURE 600 mmHg)
##PATH LENGTH=5 CM
##SAMPLING PROCEDURE=TRANSMISSION
##RESOLUTION=2
##DATA PROCESSING=DIGITIZED BY NIST FROM HARD COPY (FROM TWO SEGMENTS)
##XUNITS=1/CM
##YUNITS=TRANSMITTANCE
##XFACTOR=1.000000
##YFACTOR=1
##DELTAX=0.939705
##FIRSTX=385.591
##LASTX=3792.02
##FIRSTY=0.88
##MAXX=3792.02
##MINX=385.591
##MAXY=0.96
##MINY=0
##NPOINTS=3626
##XYDATA=(X++(Y..Y))
385.591000 0.8800 0.8800 0.8800 0.8800 0.8800
390.289524 0.8800 0.8800 0.8780 0.8780 0.8780
394.988049 0.8780 0.8780 0.8780 0.8780 0.8780
399.686573 0.8780 0.8770 0.8770 0.8770 0.8770
404.385098 0.8770 0.8750 0.8750 0.8750 0.8750
409.083622 0.8750 0.8750 0.8740 0.8740 0.8720
413.782147 0.8720 0.8710 0.8710 0.8710 0.8690
418.480671 0.8690 0.8680 0.8680 0.8660 0.8660
423.179196 0.8650 0.8650 0.8640 0.8640 0.8640
427.877720 0.8620 0.8620 0.8610 0.8610 0.8590
432.576244 0.8590 0.8580 0.8580 0.8560 0.8560
437.274769 0.8550 0.8550 0.8530 0.8520 0.8520
441.973293 0.8520 0.8500 0.8500 0.8500 0.8500
446.671818 0.8520 0.8520 0.8520 0.8520 0.8520
451.370342 0.8530 0.8530 0.8530 0.8530 0.8530
456.068867 0.8550 0.8560 0.8560 0.8560 0.8580
460.767391 0.8580 0.8610 0.8640 0.8640 0.8650
465.465915 0.8650 0.8650 0.8660 0.8660 0.8660
470.164440 0.8660 0.8650 0.8620 0.8620 0.8590
474.862964 0.8560 0.8500 0.8460 0.8400 0.8360
479.561489 0.8330 0.8310 0.8280 0.8270 0.8280
484.260013 0.8300 0.8300 0.8310 0.8310 0.8310
488.958538 0.8310 0.8310 0.8310 0.8300 0.8280
493.657062 0.8280 0.8310 0.8340 0.8370 0.8420
498.355587 0.8490 0.8550 0.8610 0.8660 0.8720
503.054111 0.8810 0.8840 0.8850 0.8870 0.8880
507.752635 0.8900 0.8900 0.8910 0.8910 0.8930
512.451160 0.8930 0.8940 0.8940 0.8940 0.8960
517.149684 0.8940 0.8960 0.8960 0.8960 0.8960
521.848209 0.8960 0.8960 0.8960 0.8960 0.8960
526.546733 0.8960 0.8960 0.8960 0.8960 0.8960
531.245258 0.8960 0.8960 0.8960 0.8960 0.8960
535.943782 0.8960 0.8960 0.8960 0.8960 0.8960
540.642307 0.8960 0.8960 0.8960 0.8960 0.8960
545.340831 0.8960 0.8960 0.8960 0.8960 0.8960
550.039355 0.8940 0.8940 0.8940 0.8930 0.8930
554.737880 0.8910 0.8910 0.8900 0.8880 0.8870
559.436404 0.8850 0.8850 0.8840 0.8830 0.8810
564.134929 0.8770 0.8740 0.8690 0.8660 0.8640
568.833453 0.8620 0.8610 0.8610 0.8610 0.8620
573.531978 0.8640 0.8680 0.8690 0.8710 0.8740
578.230502 0.8750 0.8750 0.8740 0.8720 0.8720
582.929027 0.8710 0.8680 0.8680 0.8660 0.8660
587.627551 0.8660 0.8660 0.8680 0.8710 0.8740
592.326075 0.8780 0.8810 0.8840 0.8870 0.8910
597.024600 0.8930 0.8970 0.9000 0.9030 0.9070
601.723124 0.9100 0.9130 0.9160 0.9190 0.9190
606.421649 0.9220 0.9250 0.9250 0.9260 0.9280
611.120173 0.9280 0.9280 0.9280 0.9280 0.9280
615.818698 0.9280 0.9280 0.9280 0.9280 0.9260
620.517222 0.9260 0.9250 0.9250 0.9230 0.9220
625.215746 0.9220 0.9220 0.9220 0.9220 0.9220
629.914271 0.9210 0.9210 0.9210 0.9210 0.9190
634.612795 0.9190 0.9190 0.9190 0.9180 0.9180
639.311320 0.9180 0.9160 0.9160 0.9150 0.9130
644.009844 0.9120 0.9120 0.9100 0.9090 0.9070
648.708369 0.9070 0.9060 0.9040 0.9020 0.8970
653.406893 0.8940 0.8940 0.8930 0.8910 0.8880
658.105418 0.8850 0.8840 0.8830 0.8810 0.8780
662.803942 0.8740 0.8720 0.8710 0.8690 0.8650
667.502466 0.8620 0.8610 0.8580 0.8560 0.8520
672.200991 0.8470 0.8390 0.8370 0.8340 0.8171
676.899515 0.8090 0.8080 0.8020 0.7990 0.7950
681.598040 0.7890 0.7830 0.7790 0.7730 0.7690
686.296564 0.7630 0.7600 0.7550 0.7540 0.7510
690.995089 0.7410 0.7330 0.7290 0.7250 0.7200
695.693613 0.7130 0.7060 0.6980 0.6920 0.6730
700.392138 0.6690 0.6690 0.6849 0.6850 0.6820
705.090662 0.6790 0.6790 0.6760 0.6730 0.6730
709.789186 0.6720 0.6720 0.6730 0.6750 0.6780
714.487711 0.6870 0.6940 0.6970 0.6970 0.6980
719.186235 0.6980 0.7000 0.7000 0.7000 0.7010
723.884760 0.7030 0.7040 0.7060 0.7070 0.7100
728.583284 0.7130 0.7170 0.7190 0.7250 0.7300
733.281809 0.7360 0.7380 0.7480 0.7570 0.7600
737.980333 0.7630 0.7670 0.7730 0.7790 0.7850
742.678857 0.7920 0.7980 0.8020 0.8110 0.8180
747.377382 0.8240 0.8300 0.8370 0.8460 0.8579
752.075906 0.8660 0.8740 0.8810 0.8840 0.8870
756.774431 0.8870 0.8850 0.8850 0.8840 0.8840
761.472955 0.8810 0.8800 0.8780 0.8770 0.8740
766.171480 0.8720 0.8710 0.8690 0.8680 0.8660
770.870004 0.8650 0.8610 0.8580 0.8550 0.8530
775.568529 0.8500 0.8460 0.8450 0.8430 0.8400
780.267053 0.8370 0.8340 0.8300 0.8270 0.8240
784.965577 0.8230 0.8200 0.8180 0.8150 0.8120
789.664102 0.8080 0.8020 0.7980 0.7900 0.7830
794.362626 0.7760 0.7670 0.7570 0.7470 0.7360
799.061151 0.7250 0.7130 0.7000 0.6870 0.6720
803.759675 0.6600 0.6470 0.6300 0.6111 0.5901
808.458200 0.5680 0.5460 0.5210 0.4980 0.4730
813.156724 0.4470 0.4231 0.3991 0.3751 0.3521
817.855249 0.3310 0.3120 0.2930 0.2700 0.2480
822.553773 0.2280 0.2100 0.1950 0.1820 0.1691
827.252297 0.1570 0.1490 0.1380 0.1300 0.1210
831.950822 0.0930 0.0830 0.0710 0.0620 0.0381
836.649346 0.0350 0.0360 0.0450 0.0450 0.0400
841.347871 0.0380 0.0380 0.0380 0.0380 0.0380
846.046395 0.0380 0.0380 0.0360 0.0360 0.0350
850.744920 0.0350 0.0350 0.0330 0.0330 0.0350
855.443444 0.0350 0.0350 0.0350 0.0360 0.0380
860.141969 0.0400 0.0430 0.0460 0.0520 0.0570
864.840493 0.0620 0.0670 0.0710 0.0760 0.0800
869.539017 0.0840 0.0870 0.0930 0.0990 0.1060
874.237542 0.1120 0.1180 0.1240 0.1280 0.1340
878.936066 0.1370 0.1520 0.1630 0.1819 0.1880
883.634591 0.1980 0.2040 0.2040 0.2140 0.2250
888.333115 0.2330 0.2440 0.2540 0.2819 0.2820
893.031640 0.2950 0.3180 0.3210 0.3280 0.3360
897.730164 0.3430 0.3500 0.3580 0.3620 0.3710
902.428688 0.3960 0.3930 0.3910 0.3870 0.3830
907.127213 0.3780 0.3750 0.3800 0.4159 0.4120
911.825737 0.4060 0.3910 0.3850 0.3810 0.3770
916.524262 0.3710 0.3660 0.3620 0.3590 0.3471
921.222786 0.3230 0.3070 0.2930 0.2820 0.2710
925.921311 0.2630 0.2540 0.2470 0.2410 0.2330
930.619835 0.2260 0.2190 0.2100 0.1980 0.1910
935.318360 0.1810 0.1780 0.1750 0.1710 0.1571
940.016884 0.1160 0.1080 0.1000 0.1000 0.1090
944.715408 0.1090 0.1080 0.1060 0.1060 0.1060
949.413933 0.1000 0.0800 0.1250 0.1220 0.1180
954.112457 0.1150 0.1110 0.1080 0.1030 0.0990
958.810982 0.0970 0.0990 0.1150 0.1270 0.1590
963.509506 0.1760 0.1969 0.2100 0.2130 0.2249
968.208031 0.2450 0.2580 0.2660 0.2730 0.2770
972.906555 0.2800 0.2800 0.2740 0.2670 0.2521
977.605080 0.2360 0.2200 0.2040 0.1900 0.1720
982.303604 0.1530 0.1301 0.1091 0.1050 0.1050
987.002128 0.1060 0.1160 0.1280 0.1400 0.1660
991.700653 0.1370 0.1210 0.1160 0.0891 0.1209
996.399177 0.1350 0.1460 0.1440 0.1250 0.1020
1001.097702 0.0990 0.0990 0.1000 0.1090 0.1160
1005.796226 0.1250 0.1310 0.1530 0.1680 0.1850
1010.494751 0.2070 0.2290 0.2519 0.2709 0.2820
1015.193275 0.2930 0.2950 0.2980 0.2990 0.3010
1019.891799 0.3020 0.3020 0.3040 0.3050 0.3070
1024.590324 0.3080 0.3090 0.3170 0.3240 0.3330
1029.288848 0.3370 0.3590 0.3989 0.4279 0.4479
1033.987373 0.4630 0.4730 0.4820 0.4910 0.5020
1038.685897 0.5190 0.5400 0.5699 0.5959 0.6179
1043.384422 0.6350 0.6520 0.6650 0.6760 0.6850
1048.082946 0.6940 0.7000 0.7060 0.7100 0.7140
1052.781471 0.7190 0.7250 0.7290 0.7320 0.7330
1057.479995 0.7360 0.7380 0.7390 0.7410 0.7420
1062.178519 0.7480 0.7550 0.7580 0.7470 0.7410
1066.877044 0.7500 0.7570 0.7690 0.7690 0.7670
1071.575568 0.7630 0.7600 0.7580 0.7580 0.7580
1076.274093 0.7600 0.7600 0.7610 0.7630 0.7630
1080.972617 0.7630 0.7640 0.7640 0.7630 0.7630
1085.671142 0.7610 0.7610 0.7600 0.7600 0.7580
1090.369666 0.7570 0.7540 0.7470 0.7450 0.7420
1095.068191 0.7390 0.7320 0.7100 0.7010 0.6900
1099.766715 0.6780 0.6660 0.6530 0.6410 0.6300
1104.465239 0.6180 0.6050 0.5950 0.5830 0.5710
1109.163764 0.5680 0.5670 0.5680 0.5700 0.5870
1113.862288 0.6030 0.6060 0.6120 0.6270 0.6429
1118.560813 0.6430 0.6430 0.6410 0.6300 0.6120
1123.259337 0.5810 0.5640 0.5610 0.5590 0.5610
1127.957862 0.5650 0.5710 0.5890 0.5990 0.6090
1132.656386 0.6120 0.6220 0.6310 0.6370 0.6410
1137.354911 0.6460 0.6500 0.6540 0.6590 0.6630
1142.053435 0.6660 0.6680 0.6680 0.6660 0.6600
1146.751959 0.6530 0.6470 0.6400 0.6340 0.6270
1151.450484 0.6080 0.5621 0.5400 0.5101 0.4791
1156.149008 0.4309 0.3839 0.3470 0.3040 0.2600
1160.847533 0.1851 0.1560 0.1271 0.0991 0.0492
1165.546057 0.0260 0.0140 0.0100 0.0050 0.0040
1170.244582 0.0040 0.0020 0.0020 0.0020 0.0020
1174.943106 0.0020 0.0020 0.0020 0.0020 0.0020
1179.641630 0.0020 0.0020 0.0020 0.0020 0.0020
1184.340155 0.0020 0.0020 0.0020 0.0020 0.0020
1189.038679 0.0020 0.0020 0.0020 0.0020 0.0020
1193.737204 0.0020 0.0020 0.0020 0.0020 0.0020
1198.435728 0.0020 0.0020 0.0020 0.0040 0.0040
1203.134253 0.0040 0.0040 0.0040 0.0040 0.0040
1207.832777 0.0040 0.0040 0.0040 0.0040 0.0040
1212.531302 0.0040 0.0040 0.0040 0.0040 0.0040
1217.229826 0.0040 0.0040 0.0040 0.0040 0.0040
1221.928350 0.0040 0.0050 0.0050 0.0050 0.0050
1226.626875 0.0050 0.0050 0.0050 0.0070 0.0100
1231.325399 0.0200 0.0290 0.0420 0.0620 0.0860
1236.023924 0.1160 0.1520 0.1909 0.2349 0.2849
1240.722448 0.3371 0.3931 0.4531 0.5080 0.5510
1245.420973 0.5520 0.5680 0.5840 0.6139 0.6150
1250.119497 0.6250 0.6350 0.6460 0.6630 0.6650
1254.818022 0.6710 0.6730 0.6730 0.6750 0.6750
1259.516546 0.6750 0.6730 0.6730 0.6720 0.6710
1264.215070 0.6710 0.6710 0.6710 0.6720 0.6720
1268.913595 0.6730 0.6730 0.6750 0.6760 0.6760
1273.612119 0.6780 0.6790 0.6810 0.6810 0.6820
1278.310644 0.6820 0.6840 0.6840 0.6840 0.6840
1283.009168 0.6840 0.6820 0.6820 0.6810 0.6790
1287.707693 0.6750 0.6720 0.6680 0.6440 0.6220
1292.406217 0.6000 0.5770 0.5550 0.5331 0.5210
1297.104741 0.5080 0.4970 0.4830 0.4830 0.4910
1301.803266 0.4970 0.5040 0.5050 0.5070 0.5100
1306.501790 0.5160 0.5210 0.5230 0.5230 0.4820
1311.200315 0.4610 0.4470 0.4211 0.3881 0.3611
1315.898839 0.3530 0.3420 0.3310 0.3200 0.2990
1320.597364 0.2540 0.2091 0.0843 0.0810 0.0830
1325.295888 0.0900 0.0960 0.1020 0.1160 0.0950
1329.994413 0.0810 0.0680 0.0650 0.0520 0.0899
1334.692937 0.1599 0.1350 0.1210 0.1080 0.0960
1339.391461 0.0900 0.0870 0.0890 0.1020 0.1160
1344.089986 0.1310 0.1460 0.1470 0.1720 0.1970
1348.788510 0.2420 0.2670 0.3389 0.4178 0.4938
1353.487035 0.4971 0.5351 0.5730 0.6080 0.6150
1358.185559 0.6150 0.6140 0.6110 0.6080 0.6030
1362.884084 0.5890 0.5740 0.5610 0.5480 0.5380
1367.582608 0.5160 0.4890 0.4561 0.4191 0.3781
1372.281133 0.3359 0.2959 0.2580 0.2250 0.1970
1376.979657 0.1910 0.1850 0.1790 0.1750 0.1680
1381.678181 0.1649 0.1430 0.1250 0.1220 0.1220
1386.376706 0.1240 0.1380 0.1410 0.1440 0.1460
1391.075230 0.1460 0.1430 0.1430 0.1440 0.1490
1395.773755 0.1560 0.1570 0.1630 0.1690 0.1720
1400.472279 0.1971 0.2200 0.2440 0.2640 0.2860
1405.170804 0.3050 0.3490 0.3929 0.4349 0.4749
1409.869328 0.5131 0.5481 0.5780 0.6050 0.6270
1414.567853 0.6430 0.6530 0.6540 0.6590 0.6600
1419.266377 0.6600 0.6620 0.6630 0.6660 0.6780
1423.964901 0.6790 0.6820 0.6820 0.6880 0.6900
1428.663426 0.6910 0.6920 0.6920 0.6920 0.6940
1433.361950 0.6940 0.6940 0.6910 0.6880 0.6810
1438.060475 0.6780 0.6780 0.6790 0.6900 0.6910
1442.758999 0.6910 0.6920 0.7030 0.7060 0.7090
1447.457524 0.7130 0.7170 0.7200 0.7230 0.7250
1452.156048 0.7320 0.7360 0.7410 0.7410 0.7420
1456.854572 0.7420 0.7420 0.7390 0.7390 0.7410
1461.553097 0.7600 0.7990 0.8150 0.8230 0.8240
1466.251621 0.8310 0.8330 0.8390 0.8400 0.8430
1470.950146 0.8500 0.8520 0.8520 0.8500 0.8470
1475.648670 0.8470 0.8500 0.8520 0.8550 0.8580
1480.347195 0.8590 0.8610 0.8620 0.8620 0.8620
1485.045719 0.8620 0.8590 0.8560 0.8560 0.8550
1489.744244 0.8470 0.8450 0.8450 0.8460 0.8500
1494.442768 0.8530 0.8500 0.8470 0.8360 0.8330
1499.141292 0.8330 0.8340 0.8400 0.8420 0.8400
1503.839817 0.8400 0.8370 0.8340 0.8120 0.7890
1508.538341 0.7860 0.7860 0.7860 0.7830 0.7790
1513.236866 0.7770 0.7700 0.7510 0.7440 0.7330
1517.935390 0.7100 0.6980 0.6920 0.6850 0.6680
1522.633915 0.6380 0.6240 0.6210 0.6190 0.6140
1527.332439 0.5950 0.5800 0.5640 0.5550 0.5380
1532.030964 0.5160 0.5130 0.5100 0.5040 0.5010
1536.729488 0.5000 0.4950 0.4880 0.4860 0.4880
1541.428012 0.4940 0.4970 0.5070 0.5080 0.5080
1546.126537 0.5080 0.5080 0.5100 0.5100 0.5110
1550.825061 0.5140 0.5270 0.5400 0.5540 0.5620
1555.523586 0.5670 0.5700 0.5730 0.5740 0.5740
1560.222110 0.5740 0.5760 0.5890 0.5990 0.5990
1564.920635 0.5960 0.5960 0.5950 0.5950 0.5930
1569.619159 0.5930 0.5920 0.5920 0.5960 0.6000
1574.317683 0.6050 0.5780 0.5760 0.5730 0.5730
1579.016208 0.5730 0.5710 0.5670 0.5580 0.5540
1583.714732 0.5480 0.5430 0.5400 0.5360 0.5330
1588.413257 0.5290 0.5210 0.5140 0.5040 0.4940
1593.111781 0.4800 0.4670 0.4530 0.4370 0.4210
1597.810306 0.4029 0.3838 0.3279 0.2829 0.2470
1602.508830 0.2170 0.1940 0.1730 0.1560 0.1370
1607.207355 0.1179 0.0949 0.0649 0.0290 0.0040
1611.905879 0.0000 0.0000 0.0000 0.0000 0.0000
1616.604403 0.0000 0.0000 0.0000 0.0000 0.0000
1621.302928 0.0000 0.0000 0.0000 0.0000 0.0000
1626.001452 0.0000 0.0000 0.0010 0.0010 0.0010
1630.699977 0.0010 0.0020 0.0020 0.0020 0.0020
1635.398501 0.0040 0.0040 0.0050 0.0050 0.0070
1640.097026 0.0070 0.0080 0.0080 0.0100 0.0100
1644.795550 0.0110 0.0110 0.0130 0.0130 0.0140
1649.494075 0.0140 0.0160 0.0170 0.0170 0.0170
1654.192599 0.0170 0.0170 0.0170 0.0190 0.0210
1658.891123 0.0270 0.0320 0.0420 0.0859 0.1020
1663.589648 0.1271 0.1681 0.1980 0.2230 0.2440
1668.288172 0.2640 0.2860 0.3140 0.3469 0.3909
1672.986697 0.4180 0.4340 0.4350 0.4380 0.4420
1677.685221 0.4470 0.4500 0.4540 0.4600 0.4610
1682.383746 0.4560 0.4530 0.4540 0.4640 0.4750
1687.082270 0.4820 0.4940 0.5050 0.5160 0.5200
1691.780795 0.5260 0.5270 0.5230 0.5130 0.5100
1696.479319 0.5110 0.5380 0.5390 0.5420 0.5460
1701.177843 0.5731 0.5990 0.6090 0.6210 0.6300
1705.876368 0.6380 0.6540 0.6660 0.6760 0.6850
1710.574892 0.6950 0.7070 0.7110 0.7190 0.7200
1715.273417 0.7220 0.7230 0.7230 0.7250 0.7360
1719.971941 0.7580 0.7710 0.7760 0.7820 0.7860
1724.670466 0.7890 0.7920 0.7950 0.7960 0.7960
1729.368990 0.7960 0.7960 0.7920 0.7830 0.7800
1734.067514 0.7820 0.7890 0.7990 0.8020 0.8040
1738.766039 0.8040 0.8050 0.8070 0.8140 0.8150
1743.464563 0.8170 0.8200 0.8200 0.8200 0.8200
1748.163088 0.8200 0.8200 0.8210 0.8230 0.8310
1752.861612 0.8310 0.8360 0.8370 0.8400 0.8400
1757.560137 0.8400 0.8420 0.8420 0.8420 0.8420
1762.258661 0.8420 0.8420 0.8400 0.8400 0.8390
1766.957186 0.8360 0.8340 0.8330 0.8310 0.8300
1771.655710 0.8300 0.8330 0.8360 0.8400 0.8400
1776.354234 0.8400 0.8390 0.8390 0.8390 0.8360
1781.052759 0.8360 0.8340 0.8330 0.8310 0.8300
1785.751283 0.8300 0.8280 0.8270 0.8270 0.8280
1790.449808 0.8300 0.8300 0.8300 0.8300 0.8310
1795.148332 0.8310 0.8310 0.8310 0.8330 0.8330
1799.846857 0.8330 0.8340 0.8340 0.8340 0.8360
1804.545381 0.8360 0.8360 0.8360 0.8360 0.8360
1809.243906 0.8360 0.8370 0.8390 0.8400 0.8400
1813.942430 0.8430 0.8450 0.8450 0.8460 0.8460
1818.640954 0.8470 0.8490 0.8500 0.8500 0.8500
1823.339479 0.8500 0.8490 0.8470 0.8460 0.8450
1828.038003 0.8450 0.8430 0.8400 0.8390 0.8360
1832.736528 0.8340 0.8310 0.8280 0.8260 0.8230
1837.435052 0.8180 0.8150 0.8090 0.8050 0.7990
1842.133577 0.7919 0.7760 0.7660 0.7630 0.7610
1846.832101 0.7610 0.7580 0.7540 0.7470 0.7420
1851.530625 0.7320 0.7220 0.7110 0.7090 0.7070
1856.229150 0.7040 0.6970 0.6940 0.6910 0.6880
1860.927674 0.6870 0.6840 0.6810 0.6790 0.6760
1865.626199 0.6750 0.6720 0.6690 0.6690 0.6690
1870.324723 0.6710 0.6720 0.6760 0.6790 0.6840
1875.023248 0.6870 0.6910 0.6940 0.6980 0.6980
1879.721772 0.7030 0.7060 0.7090 0.7110 0.7170
1884.420297 0.7220 0.7230 0.7250 0.7280 0.7290
1889.118821 0.7330 0.7380 0.7420 0.7450 0.7510
1893.817345 0.7550 0.7580 0.7610 0.7630 0.7670
1898.515870 0.7710 0.7760 0.7820 0.7860 0.7900
1903.214394 0.7950 0.7960 0.7960 0.7990 0.8020
1907.912919 0.8070 0.8110 0.8170 0.8240 0.8260
1912.611443 0.8280 0.8300 0.8310 0.8330 0.8360
1917.309968 0.8370 0.8390 0.8400 0.8430 0.8490
1922.008492 0.8500 0.8560 0.8590 0.8640 0.8680
1926.707017 0.8710 0.8720 0.8750 0.8770 0.8780
1931.405541 0.8800 0.8850 0.8870 0.8880 0.8900
1936.104065 0.8910 0.8930 0.8930 0.8940 0.8940
1940.802590 0.8960 0.8960 0.8960 0.8960 0.8960
1945.501114 0.8960 0.8960 0.8960 0.8960 0.8960
1950.199639 0.8960 0.8960 0.8960 0.8960 0.8960
1954.898163 0.8960 0.8960 0.8960 0.8960 0.8960
1959.596688 0.8960 0.8960 0.8960 0.8960 0.8960
1964.295212 0.8960 0.8960 0.8960 0.8960 0.8960
1968.993737 0.8960 0.8960 0.8940 0.8940 0.8940
1973.692261 0.8940 0.8940 0.8930 0.8930 0.8930
1978.390785 0.8930 0.8910 0.8910 0.8910 0.8900
1983.089310 0.8900 0.8880 0.8880 0.8880 0.8880
1987.787834 0.8880 0.8880 0.8880 0.8900 0.8900
1992.486359 0.8900 0.8880 0.8880 0.8880 0.8880
1997.184883 0.8900 0.8900 0.8900 0.8900 0.8900
2001.883408 0.8900 0.8900 0.8900 0.8890 0.8880
2006.581932 0.8875 0.8870 0.8860 0.8850 0.8830
2011.280456 0.8810 0.8795 0.8780 0.8765 0.8750
2015.978981 0.8745 0.8739 0.8679 0.8617 0.8537
2020.677505 0.8457 0.8357 0.8256 0.8136 0.8016
2025.376030 0.7901 0.7786 0.7666 0.7546 0.7436
2030.074554 0.7326 0.7226 0.7129 0.7114 0.7100
2034.773079 0.7095 0.7090 0.7101 0.7111 0.7121
2039.471603 0.7132 0.7167 0.7202 0.7232 0.7262
2044.170128 0.7297 0.7332 0.7362 0.7393 0.7433
2048.868652 0.7472 0.7497 0.7523 0.7563 0.7602
2053.567176 0.7632 0.7662 0.7698 0.7733 0.7768
2058.265701 0.7798 0.7778 0.7757 0.7727 0.7698
2062.964225 0.7678 0.7657 0.7627 0.7598 0.7573
2067.662750 0.7548 0.7523 0.7498 0.7473 0.7447
2072.361274 0.7417 0.7388 0.7368 0.7346 0.7316
2077.059799 0.7286 0.7256 0.7228 0.7213 0.7201
2081.758323 0.7211 0.7221 0.7226 0.7236 0.7286
2086.456848 0.7336 0.7381 0.7426 0.7476 0.7523
2091.155372 0.7548 0.7578 0.7638 0.7697 0.7748
2095.853896 0.7795 0.7830 0.7863 0.7883 0.7905
2100.552421 0.7935 0.7964 0.7989 0.8015 0.8045
2105.250945 0.8075 0.8110 0.8147 0.8192 0.8239
2109.949470 0.8294 0.8347 0.8393 0.8434 0.8454
2114.647994 0.8474 0.8499 0.8523 0.8538 0.8553
2119.346519 0.8568 0.8584 0.8604 0.8626 0.8661
2124.045043 0.8697 0.8737 0.8776 0.8811 0.8843
2128.743567 0.8858 0.8871 0.8876 0.8880 0.8880
2133.442092 0.8882 0.8892 0.8900 0.8900 0.8901
2138.140616 0.8906 0.8912 0.8922 0.8930 0.8930
2142.839141 0.8931 0.8936 0.8940 0.8940 0.8942
2147.537665 0.8952 0.8960 0.8960 0.8960 0.8960
2152.236190 0.8960 0.8960 0.8960 0.8960 0.8958
2156.934714 0.8948 0.8940 0.8940 0.8940 0.8940
2161.633239 0.8940 0.8940 0.8939 0.8934 0.8930
2166.331763 0.8930 0.8928 0.8917 0.8909 0.8904
2171.030287 0.8896 0.8881 0.8867 0.8857 0.8849
2175.728812 0.8844 0.8836 0.8821 0.8809 0.8804
2180.427336 0.8796 0.8781 0.8766 0.8751 0.8736
2185.125861 0.8721 0.8706 0.8691 0.8676 0.8661
2189.824385 0.8646 0.8631 0.8614 0.8594 0.8571
2194.522910 0.8541 0.8516 0.8501 0.8487 0.8477
2199.221434 0.8470 0.8470 0.8473 0.8483 0.8492
2203.919959 0.8497 0.8505 0.8520 0.8533 0.8543
2208.618483 0.8552 0.8557 0.8565 0.8580 0.8593
2213.317007 0.8603 0.8612 0.8617 0.8625 0.8640
2218.015532 0.8652 0.8657 0.8663 0.8673 0.8685
2222.714056 0.8700 0.8712 0.8717 0.8720 0.8720
2227.412581 0.8724 0.8734 0.8742 0.8747 0.8750
2232.111105 0.8750 0.8750 0.8750 0.8748 0.8743
2236.809630 0.8731 0.8706 0.8690 0.8690 0.8690
2241.508154 0.8690 0.8688 0.8683 0.8680 0.8680
2246.206679 0.8680 0.8680 0.8680 0.8680 0.8682
2250.905203 0.8687 0.8696 0.8711 0.8724 0.8734
2255.603727 0.8742 0.8747 0.8756 0.8771 0.8786
2260.302252 0.8801 0.8816 0.8831 0.8848 0.8868
2265.000776 0.8886 0.8901 0.8914 0.8924 0.8932
2269.699301 0.8937 0.8944 0.8954 0.8966 0.8981
2274.397825 0.8992 0.8997 0.9004 0.9014 0.9022
2279.096350 0.9027 0.9032 0.9037 0.9040 0.9040
2283.794874 0.9040 0.9040 0.9040 0.9040 0.9038
2288.493398 0.9033 0.9030 0.9030 0.9030 0.9030
2293.191923 0.9028 0.9023 0.9020 0.9020 0.9020
