##TITLE=MALONONITRILE
##JCAMP-DX=4.24
$$ By DXEDIT 1.05 (RS McDonald)
##DATA TYPE=INFRARED SPECTRUM
##CLASS=COBLENTZ III
##ORIGIN=DOW CHEMICAL COMPANY
##OWNER=COBLENTZ SOC.
Collection (C) 2018 copyright by the U.S. Secretary of Commerce
on behalf of the United States of America. All rights reserved.
##DATE=1949/09/06
##CAS REGISTRY NO=109-77-3
##MOLFORM=C3 H2 N2
##SOURCE REFERENCE=COBLENTZ NO. 05636
##$NIST SOURCE=COBLENTZ
##$NIST IMAGE=cob5636
##SPECTROMETER/DATA SYSTEM=BAIRD (PRISM)
##INSTRUMENT PARAMETERS=NaCl PRISM
##STATE=LIQUID (NEAT)
$$PURITY 99.75%
##PATH LENGTH=FILM
##SAMPLING PROCEDURE=TRANSMISSION
##DATA PROCESSING=DIGITIZED BY COBLENTZ SOCIETY (BATCH I) FROM HARD COPY
##XUNITS=1/CM
##YUNITS=TRANSMITTANCE
##XLABEL=Wavenumbers (cm-1)
##YLABEL=% Transmission
##XFACTOR=1
##YFACTOR=1
##DELTAX=1
##FIRSTX=4000
##LASTX=626
##FIRSTY=0.9364
##MAXX=4000
##MINX=626
##MAXY=0.9903
##MINY=0.2815
##NPOINTS=3375
##XYDATA=(X++(Y..Y))
4000.000000 0.9364 0.9363 0.9363 0.9363 0.9362
3995.000000 0.9362 0.9362 0.9361 0.9361 0.9361
3990.000000 0.9361 0.9361 0.9361 0.9360 0.9360
3985.000000 0.9359 0.9358 0.9357 0.9356 0.9356
3980.000000 0.9354 0.9353 0.9351 0.9350 0.9349
3975.000000 0.9345 0.9345 0.9345 0.9343 0.9342
3970.000000 0.9341 0.9339 0.9338 0.9337 0.9336
3965.000000 0.9334 0.9333 0.9332 0.9331 0.9328
3960.000000 0.9325 0.9321 0.9320 0.9317 0.9314
3955.000000 0.9312 0.9309 0.9306 0.9303 0.9301
3950.000000 0.9298 0.9295 0.9293 0.9290 0.9287
3945.000000 0.9284 0.9282 0.9278 0.9275 0.9274
3940.000000 0.9271 0.9268 0.9266 0.9263 0.9261
3935.000000 0.9259 0.9256 0.9254 0.9251 0.9249
3930.000000 0.9247 0.9244 0.9242 0.9239 0.9237
3925.000000 0.9234 0.9232 0.9228 0.9227 0.9225
3920.000000 0.9221 0.9220 0.9218 0.9217 0.9215
3915.000000 0.9214 0.9213 0.9211 0.9210 0.9209
3910.000000 0.9207 0.9206 0.9205 0.9203 0.9202
3905.000000 0.9201 0.9200 0.9199 0.9198 0.9196
3900.000000 0.9195 0.9194 0.9193 0.9191 0.9190
3895.000000 0.9189 0.9187 0.9186 0.9185 0.9184
3890.000000 0.9183 0.9182 0.9180 0.9178 0.9178
3885.000000 0.9175 0.9175 0.9174 0.9173 0.9171
3880.000000 0.9170 0.9168 0.9167 0.9166 0.9165
3875.000000 0.9164 0.9164 0.9164 0.9163 0.9163
3870.000000 0.9162 0.9162 0.9162 0.9162 0.9162
3865.000000 0.9162 0.9162 0.9162 0.9163 0.9164
3860.000000 0.9165 0.9166 0.9167 0.9167 0.9168
3855.000000 0.9168 0.9170 0.9171 0.9171 0.9174
3850.000000 0.9175 0.9177 0.9178 0.9181 0.9183
3845.000000 0.9188 0.9192 0.9197 0.9201 0.9206
3840.000000 0.9211 0.9217 0.9223 0.9228 0.9235
3835.000000 0.9242 0.9248 0.9257 0.9265 0.9273
3830.000000 0.9281 0.9289 0.9296 0.9302 0.9308
3825.000000 0.9314 0.9320 0.9325 0.9331 0.9335
3820.000000 0.9340 0.9345 0.9350 0.9355 0.9357
3815.000000 0.9358 0.9359 0.9361 0.9362 0.9363
3810.000000 0.9365 0.9366 0.9368 0.9368 0.9370
3805.000000 0.9371 0.9373 0.9375 0.9375 0.9377
3800.000000 0.9378 0.9380 0.9381 0.9382 0.9384
3795.000000 0.9385 0.9386 0.9387 0.9387 0.9387
3790.000000 0.9387 0.9387 0.9386 0.9386 0.9386
3785.000000 0.9385 0.9384 0.9384 0.9383 0.9381
3780.000000 0.9380 0.9378 0.9375 0.9374 0.9373
3775.000000 0.9371 0.9368 0.9367 0.9365 0.9363
3770.000000 0.9360 0.9356 0.9353 0.9349 0.9346
3765.000000 0.9342 0.9339 0.9336 0.9332 0.9328
3760.000000 0.9325 0.9321 0.9318 0.9316 0.9313
3755.000000 0.9310 0.9307 0.9304 0.9301 0.9298
3750.000000 0.9295 0.9292 0.9289 0.9288 0.9287
3745.000000 0.9286 0.9285 0.9284 0.9283 0.9282
3740.000000 0.9281 0.9280 0.9278 0.9278 0.9278
3735.000000 0.9277 0.9275 0.9275 0.9275 0.9274
3730.000000 0.9274 0.9273 0.9273 0.9271 0.9271
3725.000000 0.9271 0.9271 0.9270 0.9268 0.9268
3720.000000 0.9268 0.9268 0.9268 0.9267 0.9267
3715.000000 0.9267 0.9267 0.9267 0.9267 0.9267
3710.000000 0.9267 0.9267 0.9268 0.9270 0.9271
3705.000000 0.9273 0.9275 0.9277 0.9278 0.9278
3700.000000 0.9281 0.9282 0.9284 0.9286 0.9287
3695.000000 0.9289 0.9290 0.9292 0.9294 0.9295
3690.000000 0.9297 0.9299 0.9300 0.9302 0.9304
3685.000000 0.9306 0.9308 0.9309 0.9311 0.9312
3680.000000 0.9313 0.9314 0.9314 0.9315 0.9314
3675.000000 0.9308 0.9303 0.9297 0.9292 0.9285
3670.000000 0.9265 0.9244 0.9224 0.9203 0.9183
3665.000000 0.9167 0.9154 0.9141 0.9128 0.9114
3660.000000 0.9101 0.9089 0.9075 0.9064 0.9051
3655.000000 0.9039 0.9028 0.9017 0.9006 0.8995
3650.000000 0.8984 0.8974 0.8964 0.8955 0.8945
3645.000000 0.8936 0.8927 0.8918 0.8909 0.8901
3640.000000 0.8892 0.8883 0.8878 0.8871 0.8866
3635.000000 0.8861 0.8855 0.8849 0.8843 0.8838
3630.000000 0.8832 0.8825 0.8820 0.8815 0.8810
3625.000000 0.8805 0.8800 0.8795 0.8790 0.8785
3620.000000 0.8781 0.8775 0.8771 0.8770 0.8768
3615.000000 0.8767 0.8765 0.8764 0.8762 0.8761
3610.000000 0.8759 0.8757 0.8756 0.8755 0.8755
3605.000000 0.8755 0.8756 0.8756 0.8757 0.8759
3600.000000 0.8761 0.8762 0.8764 0.8766 0.8768
3595.000000 0.8770 0.8773 0.8775 0.8777 0.8780
3590.000000 0.8782 0.8784 0.8787 0.8789 0.8793
3585.000000 0.8797 0.8800 0.8804 0.8808 0.8814
3580.000000 0.8820 0.8825 0.8832 0.8839 0.8845
3575.000000 0.8851 0.8858 0.8864 0.8871 0.8877
3570.000000 0.8883 0.8889 0.8895 0.8901 0.8906
3565.000000 0.8912 0.8917 0.8923 0.8928 0.8934
3560.000000 0.8938 0.8943 0.8948 0.8953 0.8957
3555.000000 0.8961 0.8964 0.8968 0.8971 0.8975
3550.000000 0.8978 0.8982 0.8986 0.8989 0.8993
3545.000000 0.8996 0.9000 0.9004 0.9007 0.9011
3540.000000 0.9011 0.9011 0.9012 0.9012 0.9013
3535.000000 0.9013 0.9013 0.9013 0.9013 0.9014
3530.000000 0.9014 0.9014 0.9014 0.9014 0.9015
3525.000000 0.9015 0.9016 0.9016 0.9017 0.9018
3520.000000 0.9018 0.9018 0.9020 0.9021 0.9021
3515.000000 0.9021 0.9023 0.9024 0.9025 0.9025
3510.000000 0.9030 0.9033 0.9036 0.9039 0.9043
3505.000000 0.9046 0.9049 0.9052 0.9056 0.9059
3500.000000 0.9062 0.9065 0.9068 0.9071 0.9074
3495.000000 0.9077 0.9081 0.9084 0.9087 0.9091
3490.000000 0.9094 0.9097 0.9100 0.9104 0.9107
3485.000000 0.9111 0.9114 0.9118 0.9121 0.9125
3480.000000 0.9128 0.9133 0.9137 0.9141 0.9144
3475.000000 0.9148 0.9152 0.9156 0.9159 0.9163
3470.000000 0.9167 0.9171 0.9174 0.9178 0.9182
3465.000000 0.9186 0.9189 0.9193 0.9197 0.9201
3460.000000 0.9204 0.9208 0.9212 0.9215 0.9218
3455.000000 0.9223 0.9225 0.9230 0.9233 0.9236
3450.000000 0.9240 0.9243 0.9246 0.9250 0.9254
3445.000000 0.9257 0.9261 0.9264 0.9268 0.9271
3440.000000 0.9274 0.9278 0.9280 0.9282 0.9283
3435.000000 0.9285 0.9287 0.9288 0.9290 0.9291
3430.000000 0.9293 0.9294 0.9296 0.9297 0.9298
3425.000000 0.9300 0.9301 0.9303 0.9304 0.9306
3420.000000 0.9307 0.9309 0.9311 0.9313 0.9314
3415.000000 0.9316 0.9317 0.9318 0.9320 0.9321
3410.000000 0.9323 0.9324 0.9325 0.9325 0.9325
3405.000000 0.9327 0.9327 0.9328 0.9328 0.9328
3400.000000 0.9328 0.9330 0.9330 0.9330 0.9331
3395.000000 0.9331 0.9332 0.9332 0.9333 0.9333
3390.000000 0.9333 0.9333 0.9333 0.9334 0.9334
3385.000000 0.9335 0.9335 0.9335 0.9336 0.9336
3380.000000 0.9337 0.9337 0.9338 0.9338 0.9338
3375.000000 0.9338 0.9338 0.9337 0.9337 0.9336
3370.000000 0.9336 0.9335 0.9335 0.9334 0.9334
3365.000000 0.9334 0.9333 0.9333 0.9332 0.9332
3360.000000 0.9331 0.9331 0.9331 0.9331 0.9331
3355.000000 0.9328 0.9328 0.9325 0.9325 0.9323
3350.000000 0.9321 0.9321 0.9318 0.9318 0.9316
3345.000000 0.9315 0.9313 0.9312 0.9310 0.9309
3340.000000 0.9307 0.9305 0.9304 0.9302 0.9301
3335.000000 0.9300 0.9298 0.9297 0.9295 0.9294
3330.000000 0.9292 0.9291 0.9289 0.9287 0.9285
3325.000000 0.9283 0.9282 0.9280 0.9278 0.9277
3320.000000 0.9275 0.9274 0.9271 0.9270 0.9268
3315.000000 0.9266 0.9264 0.9263 0.9261 0.9259
3310.000000 0.9257 0.9255 0.9254 0.9252 0.9250
3305.000000 0.9248 0.9246 0.9244 0.9243 0.9241
3300.000000 0.9239 0.9237 0.9235 0.9234 0.9232
3295.000000 0.9230 0.9228 0.9227 0.9225 0.9223
3290.000000 0.9221 0.9220 0.9218 0.9218 0.9216
3285.000000 0.9215 0.9214 0.9214 0.9213 0.9212
3280.000000 0.9211 0.9210 0.9209 0.9208 0.9207
3275.000000 0.9206 0.9205 0.9204 0.9203 0.9202
3270.000000 0.9201 0.9200 0.9200 0.9199 0.9198
3265.000000 0.9197 0.9197 0.9196 0.9195 0.9194
3260.000000 0.9193 0.9192 0.9191 0.9190 0.9189
3255.000000 0.9188 0.9187 0.9186 0.9185 0.9185
3250.000000 0.9184 0.9183 0.9182 0.9181 0.9180
3245.000000 0.9180 0.9178 0.9178 0.9178 0.9177
3240.000000 0.9177 0.9175 0.9175 0.9175 0.9174
3235.000000 0.9174 0.9173 0.9173 0.9171 0.9171
3230.000000 0.9171 0.9171 0.9170 0.9168 0.9168
3225.000000 0.9168 0.9168 0.9168 0.9168 0.9170
3220.000000 0.9170 0.9171 0.9171 0.9171 0.9171
3215.000000 0.9171 0.9171 0.9173 0.9173 0.9174
3210.000000 0.9174 0.9175 0.9175 0.9175 0.9175
3205.000000 0.9175 0.9175 0.9175 0.9175 0.9177
3200.000000 0.9177 0.9177 0.9178 0.9178 0.9178
3195.000000 0.9177 0.9175 0.9175 0.9175 0.9174
3190.000000 0.9173 0.9173 0.9171 0.9171 0.9170
3185.000000 0.9170 0.9168 0.9168 0.9167 0.9167
3180.000000 0.9165 0.9162 0.9159 0.9157 0.9154
3175.000000 0.9151 0.9148 0.9146 0.9143 0.9140
3170.000000 0.9137 0.9134 0.9131 0.9128 0.9125
3165.000000 0.9123 0.9120 0.9117 0.9114 0.9111
3160.000000 0.9108 0.9105 0.9102 0.9100 0.9097
3155.000000 0.9095 0.9092 0.9090 0.9088 0.9087
3150.000000 0.9086 0.9085 0.9084 0.9083 0.9082
3145.000000 0.9081 0.9080 0.9078 0.9078 0.9077
3140.000000 0.9075 0.9075 0.9074 0.9073 0.9071
3135.000000 0.9071 0.9071 0.9071 0.9071 0.9071
3130.000000 0.9071 0.9071 0.9071 0.9071 0.9071
3125.000000 0.9073 0.9073 0.9074 0.9074 0.9075
3120.000000 0.9075 0.9075 0.9077 0.9078 0.9078
3115.000000 0.9078 0.9080 0.9081 0.9082 0.9082
3110.000000 0.9083 0.9083 0.9082 0.9080 0.9078
3105.000000 0.9078 0.9075 0.9075 0.9074 0.9071
3100.000000 0.9071 0.9068 0.9068 0.9066 0.9065
3095.000000 0.9063 0.9061 0.9058 0.9054 0.9050
3090.000000 0.9047 0.9043 0.9039 0.9035 0.9031
3085.000000 0.9027 0.9023 0.9018 0.9015 0.9011
3080.000000 0.9007 0.9003 0.8999 0.8995 0.8991
3075.000000 0.8986 0.8982 0.8978 0.8974 0.8970
3070.000000 0.8966 0.8962 0.8958 0.8953 0.8949
3065.000000 0.8945 0.8941 0.8936 0.8932 0.8928
3060.000000 0.8924 0.8920 0.8916 0.8912 0.8907
3055.000000 0.8903 0.8898 0.8894 0.8889 0.8883
3050.000000 0.8877 0.8871 0.8866 0.8860 0.8855
3045.000000 0.8849 0.8843 0.8838 0.8832 0.8827
3040.000000 0.8821 0.8816 0.8810 0.8805 0.8799
3035.000000 0.8793 0.8788 0.8781 0.8774 0.8767
3030.000000 0.8760 0.8753 0.8745 0.8737 0.8730
3025.000000 0.8721 0.8714 0.8707 0.8699 0.8692
3020.000000 0.8685 0.8677 0.8668 0.8662 0.8654
3015.000000 0.8645 0.8636 0.8625 0.8617 0.8607
3010.000000 0.8597 0.8586 0.8575 0.8566 0.8556
3005.000000 0.8545 0.8535 0.8525 0.8515 0.8505
3000.000000 0.8494 0.8482 0.8471 0.8459 0.8447
2995.000000 0.8435 0.8423 0.8411 0.8399 0.8387
2990.000000 0.8375 0.8361 0.8348 0.8334 0.8318
2985.000000 0.8301 0.8284 0.8267 0.8250 0.8233
2980.000000 0.8216 0.8194 0.8169 0.8146 0.8118
2975.000000 0.8081 0.8043 0.8005 0.7971 0.7939
2970.000000 0.7907 0.7855 0.7661 0.7469 0.7276
2965.000000 0.7137 0.7032 0.6926 0.6822 0.6718
2960.000000 0.6612 0.6508 0.6403 0.6298 0.6193
2955.000000 0.6088 0.5983 0.5877 0.5772 0.5667
2950.000000 0.5560 0.5455 0.5350 0.5244 0.5138
2945.000000 0.5032 0.4927 0.4821 0.4715 0.4609
2940.000000 0.4502 0.4396 0.4289 0.4208 0.4136
2935.000000 0.4012 0.4010 0.4010 0.4009 0.4009
2930.000000 0.4009 0.4008 0.4008 0.4008 0.4012
2925.000000 0.4016 0.4018 0.4109 0.4201 0.4292
2920.000000 0.4384 0.4476 0.4568 0.4660 0.4752
2915.000000 0.4844 0.4937 0.5029 0.5121 0.5214
2910.000000 0.5306 0.5398 0.5491 0.5583 0.5676
2905.000000 0.5769 0.5860 0.5954 0.6048 0.6141
2900.000000 0.6234 0.6327 0.6419 0.6514 0.6607
2895.000000 0.6700 0.6794 0.6887 0.6981 0.7075
2890.000000 0.7168 0.7258 0.7350 0.7442 0.7488
2885.000000 0.7525 0.7564 0.7601 0.7636 0.7671
2880.000000 0.7708 0.7747 0.7785 0.7822 0.7861
2875.000000 0.7901 0.7942 0.7984 0.8026 0.8069
2870.000000 0.8114 0.8158 0.8205 0.8250 0.8296
2865.000000 0.8342 0.8387 0.8424 0.8456 0.8488
2860.000000 0.8515 0.8535 0.8554 0.8573 0.8592
2855.000000 0.8611 0.8630 0.8648 0.8667 0.8685
2850.000000 0.8699 0.8711 0.8723 0.8735 0.8747
2845.000000 0.8759 0.8771 0.8783 0.8795 0.8807
2840.000000 0.8818 0.8832 0.8844 0.8855 0.8867
2835.000000 0.8878 0.8890 0.8901 0.8912 0.8923
2830.000000 0.8935 0.8946 0.8957 0.8968 0.8978
2825.000000 0.8990 0.9000 0.9011 0.9021 0.9031
2820.000000 0.9042 0.9052 0.9062 0.9073 0.9083
2815.000000 0.9091 0.9098 0.9104 0.9110 0.9117
2810.000000 0.9124 0.9130 0.9137 0.9144 0.9150
2805.000000 0.9157 0.9164 0.9170 0.9177 0.9183
2800.000000 0.9189 0.9194 0.9197 0.9201 0.9205
2795.000000 0.9209 0.9213 0.9217 0.9220 0.9224
2790.000000 0.9228 0.9228 0.9230 0.9232 0.9233
2785.000000 0.9233 0.9234 0.9235 0.9236 0.9237
2780.000000 0.9238 0.9239 0.9239 0.9240 0.9241
2775.000000 0.9242 0.9244 0.9246 0.9249 0.9251
2770.000000 0.9253 0.9255 0.9258 0.9260 0.9262
2765.000000 0.9265 0.9267 0.9268 0.9274 0.9282
2760.000000 0.9290 0.9298 0.9305 0.9313 0.9321
2755.000000 0.9325 0.9332 0.9338 0.9344 0.9350
2750.000000 0.9356 0.9362 0.9368 0.9374 0.9380
2745.000000 0.9385 0.9391 0.9396 0.9401 0.9407
2740.000000 0.9412 0.9417 0.9421 0.9424 0.9427
2735.000000 0.9428 0.9432 0.9434 0.9437 0.9439
2730.000000 0.9442 0.9444 0.9446 0.9449 0.9451
2725.000000 0.9454 0.9456 0.9458 0.9459 0.9461
2720.000000 0.9462 0.9463 0.9465 0.9466 0.9467
2715.000000 0.9468 0.9470 0.9471 0.9473 0.9474
2710.000000 0.9475 0.9477 0.9478 0.9480 0.9481
2705.000000 0.9482 0.9483 0.9484 0.9485 0.9487
2700.000000 0.9488 0.9490 0.9491 0.9492 0.9494
2695.000000 0.9495 0.9496 0.9498 0.9499 0.9501
2690.000000 0.9504 0.9507 0.9510 0.9514 0.9517
2685.000000 0.9521 0.9524 0.9528 0.9532 0.9535
2680.000000 0.9539 0.9542 0.9546 0.9549 0.9552
2675.000000 0.9555 0.9558 0.9561 0.9564 0.9567
2670.000000 0.9570 0.9574 0.9577 0.9578 0.9581
2665.000000 0.9583 0.9583 0.9583 0.9582 0.9582
2660.000000 0.9582 0.9581 0.9581 0.9581 0.9580
2655.000000 0.9580 0.9578 0.9578 0.9578 0.9578
2650.000000 0.9575 0.9571 0.9568 0.9561 0.9553
2645.000000 0.9546 0.9539 0.9532 0.9524 0.9517
2640.000000 0.9509 0.9500 0.9491 0.9482 0.9473
2635.000000 0.9464 0.9454 0.9445 0.9435 0.9425
2630.000000 0.9417 0.9408 0.9401 0.9394 0.9387
2625.000000 0.9380 0.9373 0.9366 0.9360 0.9353
2620.000000 0.9346 0.9340 0.9335 0.9333 0.9332
2615.000000 0.9331 0.9330 0.9328 0.9328 0.9328
2610.000000 0.9327 0.9325 0.9325 0.9325 0.9324
2605.000000 0.9323 0.9321 0.9321 0.9321 0.9320
2600.000000 0.9318 0.9318 0.9320 0.9321 0.9324
2595.000000 0.9325 0.9328 0.9330 0.9333 0.9335
2590.000000 0.9337 0.9340 0.9342 0.9345 0.9347
2585.000000 0.9350 0.9353 0.9356 0.9361 0.9366
2580.000000 0.9371 0.9377 0.9382 0.9387 0.9393
2575.000000 0.9399 0.9404 0.9409 0.9415 0.9420
2570.000000 0.9425 0.9431 0.9437 0.9444 0.9451
2565.000000 0.9459 0.9467 0.9475 0.9483 0.9491
2560.000000 0.9499 0.9507 0.9512 0.9516 0.9520
2555.000000 0.9524 0.9527 0.9531 0.9535 0.9539
2550.000000 0.9542 0.9545 0.9549 0.9553 0.9557
2545.000000 0.9560 0.9564 0.9567 0.9571 0.9575
2540.000000 0.9577 0.9577 0.9578 0.9578 0.9578
2535.000000 0.9577 0.9577 0.9577 0.9575 0.9573
2530.000000 0.9571 0.9570 0.9568 0.9566 0.9565
2525.000000 0.9563 0.9563 0.9562 0.9561 0.9561
2520.000000 0.9560 0.9560 0.9560 0.9560 0.9560
2515.000000 0.9559 0.9559 0.9559 0.9559 0.9559
2510.000000 0.9559 0.9560 0.9562 0.9563 0.9565
2505.000000 0.9567 0.9568 0.9571 0.9571 0.9574
2500.000000 0.9575 0.9578 0.9583 0.9586 0.9589
2495.000000 0.9593 0.9596 0.9599 0.9602 0.9605
2490.000000 0.9609 0.9612 0.9616 0.9618 0.9623
2485.000000 0.9625 0.9628 0.9633 0.9637 0.9640
2480.000000 0.9644 0.9648 0.9651 0.9655 0.9659
2475.000000 0.9662 0.9666 0.9670 0.9673 0.9677
2470.000000 0.9681 0.9684 0.9687 0.9689 0.9691
2465.000000 0.9694 0.9696 0.9699 0.9701 0.9704
2460.000000 0.9706 0.9708 0.9710 0.9713 0.9715
2455.000000 0.9717 0.9718 0.9721 0.9721 0.9721
2450.000000 0.9723 0.9724 0.9725 0.9725 0.9727
2445.000000 0.9727 0.9728 0.9728 0.9730 0.9731
2440.000000 0.9732 0.9733 0.9733 0.9734 0.9735
2435.000000 0.9736 0.9737 0.9737 0.9737 0.9738
2430.000000 0.9739 0.9740 0.9740 0.9741 0.9742
2425.000000 0.9742 0.9743 0.9743 0.9744 0.9745
2420.000000 0.9746 0.9746 0.9746 0.9745 0.9744
2415.000000 0.9743 0.9742 0.9741 0.9741 0.9741
2410.000000 0.9740 0.9739 0.9738 0.9737 0.9736
2405.000000 0.9735 0.9735 0.9734 0.9733 0.9732
2400.000000 0.9731 0.9728 0.9725 0.9721 0.9716
2395.000000 0.9710 0.9702 0.9692 0.9681 0.9668
2390.000000 0.9655 0.9639 0.9623 0.9600 0.9574
2385.000000 0.9549 0.9524 0.9499 0.9475 0.9451
2380.000000 0.9425 0.9402 0.9375 0.9350 0.9323
2375.000000 0.9297 0.9271 0.9259 0.9246 0.9233
2370.000000 0.9220 0.9207 0.9195 0.9184 0.9173
2365.000000 0.9164 0.9159 0.9154 0.9149 0.9133
2360.000000 0.9143 0.9141 0.9141 0.9141 0.9142
2355.000000 0.9143 0.9145 0.9150 0.9156 0.9161
2350.000000 0.9166 0.9171 0.9178 0.9186 0.9193
2345.000000 0.9200 0.9207 0.9214 0.9221 0.9228
2340.000000 0.9239 0.9251 0.9263 0.9275 0.9287
2335.000000 0.9299 0.9310 0.9320 0.9328 0.9339
2330.000000 0.9349 0.9359 0.9368 0.9378 0.9389
2325.000000 0.9398 0.9407 0.9415 0.9423 0.9430
2320.000000 0.9437 0.9443 0.9449 0.9455 0.9461
2315.000000 0.9466 0.9468 0.9471 0.9474 0.9475
2310.000000 0.9477 0.9477 0.9478 0.9478 0.9478
2305.000000 0.9478 0.9477 0.9471 0.9467 0.9457
2300.000000 0.9446 0.9391 0.9331 0.9262 0.9190
2295.000000 0.9118 0.9047 0.8975 0.8903 0.8832
2290.000000 0.8760 0.8688 0.8616 0.8544 0.8471
2285.000000 0.8400 0.8327 0.8255 0.8182 0.8110
2280.000000 0.8038 0.7965 0.7893 0.7819 0.7747
2275.000000 0.7674 0.7601 0.7528 0.7456 0.7383
2270.000000 0.7321 0.7268 0.7244 0.7240 0.7237
2265.000000 0.7236 0.7235 0.7235 0.7275 0.7371
2260.000000 0.7465 0.7558 0.7653 0.7748 0.7842
2255.000000 0.7937 0.8031 0.8125 0.8221 0.8316
2250.000000 0.8411 0.8506 0.8602 0.8697 0.8792
2245.000000 0.8887 0.8982 0.9078 0.9175 0.9288
2240.000000 0.9389 0.9425 0.9460 0.9492 0.9521
2235.000000 0.9539 0.9557 0.9575 0.9593 0.9610
2230.000000 0.9625 0.9631 0.9637 0.9644 0.9649
2225.000000 0.9655 0.9661 0.9667 0.9673 0.9678
2220.000000 0.9683 0.9686 0.9689 0.9692 0.9695
2215.000000 0.9699 0.9702 0.9705 0.9708 0.9711
2210.000000 0.9714 0.9717 0.9720 0.9723 0.9725
2205.000000 0.9728 0.9732 0.9735 0.9737 0.9741
2200.000000 0.9743 0.9745 0.9747 0.9749 0.9751
2195.000000 0.9752 0.9754 0.9756 0.9759 0.9761
2190.000000 0.9763 0.9765 0.9766 0.9768 0.9770
2185.000000 0.9771 0.9774 0.9775 0.9778 0.9781
2180.000000 0.9783 0.9784 0.9786 0.9788 0.9790
2175.000000 0.9792 0.9794 0.9796 0.9799 0.9801
2170.000000 0.9803 0.9805 0.9807 0.9809 0.9810
2165.000000 0.9812 0.9815 0.9817 0.9818 0.9821
2160.000000 0.9823 0.9825 0.9827 0.9828 0.9831
2155.000000 0.9833 0.9835 0.9837 0.9838 0.9839
2150.000000 0.9840 0.9841 0.9841 0.9842 0.9843
2145.000000 0.9844 0.9845 0.9846 0.9847 0.9847
2140.000000 0.9848 0.9849 0.9850 0.9850 0.9851
2135.000000 0.9852 0.9853 0.9854 0.9855 0.9856
2130.000000 0.9856 0.9857 0.9858 0.9859 0.9859
2125.000000 0.9860 0.9862 0.9862 0.9863 0.9864
2120.000000 0.9865 0.9865 0.9866 0.9867 0.9868
2115.000000 0.9870 0.9870 0.9871 0.9871 0.9873
2110.000000 0.9873 0.9874 0.9874 0.9874 0.9874
2105.000000 0.9874 0.9874 0.9874 0.9875 0.9875
2100.000000 0.9875 0.9875 0.9875 0.9875 0.9875
2095.000000 0.9875 0.9875 0.9877 0.9878 0.9878
2090.000000 0.9878 0.9878 0.9880 0.9880 0.9881
2085.000000 0.9882 0.9882 0.9883 0.9883 0.9884
2080.000000 0.9884 0.9885 0.9886 0.9887 0.9888
2075.000000 0.9888 0.9889 0.9889 0.9890 0.9891
2070.000000 0.9891 0.9892 0.9892 0.9893 0.9894
2065.000000 0.9894 0.9895 0.9895 0.9895 0.9896
2060.000000 0.9896 0.9897 0.9897 0.9898 0.9898
2055.000000 0.9899 0.9899 0.9899 0.9900 0.9900
2050.000000 0.9901 0.9902 0.9902 0.9902 0.9902
2045.000000 0.9903 0.9903 0.9903 0.9903 0.9903
2040.000000 0.9903 0.9903 0.9903 0.9903 0.9903
2035.000000 0.9903 0.9903 0.9903 0.9903 0.9903
2030.000000 0.9903 0.9903 0.9903 0.9903 0.9903
2025.000000 0.9903 0.9903 0.9903 0.9903 0.9903
2020.000000 0.9903 0.9903 0.9903 0.9903 0.9902
2015.000000 0.9902 0.9902 0.9902 0.9902 0.9902
2010.000000 0.9902 0.9902 0.9901 0.9901 0.9901
2005.000000 0.9901 0.9901 0.9901 0.9901 0.9901
2000.000000 0.9901 0.9901 0.9900 0.9900 0.9900
1995.000000 0.9900 0.9900 0.9900 0.9900 0.9900
1990.000000 0.9899 0.9899 0.9899 0.9899 0.9899
1985.000000 0.9899 0.9899 0.9899 0.9898 0.9898
1980.000000 0.9898 0.9898 0.9898 0.9897 0.9896
