##TITLE=DIMETHOXYMETHANE
##JCAMP-DX=4.24
##DATA TYPE=INFRARED SPECTRUM
##CLASS=COBLENTZ
##ORIGIN=DOW CHEMICAL COMPANY
##OWNER=COBLENTZ SOCIETY
Collection (C) 2018 copyright by the U.S. Secretary of Commerce
on behalf of the United States of America. All rights reserved.
##DATE=1964
##NAMES=METHYLAL
##CAS REGISTRY NO=109-87-5
##MOLFORM=C3 H8 O2
##SOURCE REFERENCE=COBLENTZ NO. 8794
##$NIST SOURCE=COBLENTZ
##$NIST IMAGE=cob-r8794
##SPECTROMETER/DATA SYSTEM=DOW KBr FOREPRISM-GRATING
##INSTRUMENT PARAMETERS=GRATING CHANGED AT 5.0, 7.5, 15.0 MICRON
##STATE=GAS (50 mmHg, N2 ADDED, TOTAL PRESSURE 600 mmHg)
##PATH LENGTH=5 CM
##SAMPLING PROCEDURE=TRANSMISSION
##RESOLUTION=2
##DATA PROCESSING=DIGITIZED BY NIST FROM HARD COPY (FROM TWO SEGMENTS)
##XUNITS=1/CM
##YUNITS=TRANSMITTANCE
##XFACTOR=1.000000
##YFACTOR=1
##DELTAX=0.938967
##FIRSTX=402.817
##LASTX=3800
##FIRSTY=0.959
##MAXX=3800
##MINX=402.817
##MAXY=1.03
##MINY=0.002
##NPOINTS=3619
##XYDATA=(X++(Y..Y))
402.817000 0.9590 0.9570 0.9570 0.9560 0.9560
407.511837 0.9540 0.9540 0.9530 0.9530 0.9510
412.206674 0.9510 0.9500 0.9490 0.9470 0.9460
416.901511 0.9440 0.9430 0.9410 0.9400 0.9380
421.596348 0.9370 0.9350 0.9340 0.9330 0.9310
426.291185 0.9300 0.9270 0.9250 0.9240 0.9210
430.986022 0.9190 0.9180 0.9170 0.9150 0.9120
435.680858 0.9060 0.9030 0.9020 0.8990 0.8960
440.375695 0.8930 0.8890 0.8860 0.8830 0.8800
445.070532 0.8760 0.8730 0.8700 0.8680 0.8660
449.765369 0.8640 0.8610 0.8580 0.8580 0.8570
454.460206 0.8570 0.8570 0.8580 0.8610 0.8660
459.155043 0.8700 0.8730 0.8760 0.8800 0.8850
463.849880 0.8890 0.8900 0.8900 0.8930 0.8960
468.544717 0.9010 0.9080 0.9140 0.9170 0.9240
473.239554 0.9250 0.9270 0.9300 0.9330 0.9380
477.934391 0.9440 0.9500 0.9510 0.9540 0.9600
482.629228 0.9650 0.9690 0.9700 0.9720 0.9720
487.324065 0.9730 0.9730 0.9750 0.9760 0.9760
492.018901 0.9780 0.9780 0.9810 0.9810 0.9810
496.713738 0.9820 0.9830 0.9830 0.9850 0.9850
501.408575 0.9860 0.9860 0.9880 0.9880 0.9880
506.103412 0.9880 0.9880 0.9880 0.9880 0.9880
510.798249 0.9880 0.9880 0.9880 0.9880 0.9880
515.493086 0.9880 0.9880 0.9880 0.9890 0.9890
520.187923 0.9910 0.9920 0.9940 0.9920 0.9890
524.882760 0.9890 0.9890 0.9880 0.9880 0.9880
529.577597 0.9880 0.9860 0.9860 0.9860 0.9860
534.272434 0.9860 0.9860 0.9860 0.9860 0.9860
538.967271 0.9860 0.9860 0.9860 0.9860 0.9850
543.662108 0.9850 0.9850 0.9850 0.9850 0.9850
548.356944 0.9850 0.9850 0.9850 0.9850 0.9850
553.051781 0.9850 0.9850 0.9850 0.9850 0.9850
557.746618 0.9830 0.9830 0.9830 0.9820 0.9820
562.441455 0.9790 0.9790 0.9790 0.9790 0.9780
567.136292 0.9780 0.9780 0.9780 0.9750 0.9720
571.831129 0.9690 0.9670 0.9620 0.9560 0.9540
576.525966 0.9510 0.9470 0.9460 0.9440 0.9430
581.220803 0.9350 0.9300 0.9210 0.9170 0.9150
585.915640 0.9120 0.9090 0.9060 0.9030 0.9020
590.610477 0.9010 0.8990 0.8980 0.8960 0.8950
595.305314 0.8930 0.8930 0.8920 0.8920 0.8930
600.000151 0.8930 0.8950 0.8950 0.8960 0.8980
604.694987 0.8990 0.8990 0.9010 0.9010 0.9030
609.389824 0.9080 0.9110 0.9120 0.9150 0.9190
614.084661 0.9330 0.9340 0.9350 0.9370 0.9400
618.779498 0.9430 0.9490 0.9630 0.9690 0.9720
623.474335 0.9750 0.9760 0.9780 0.9780 0.9850
628.169172 0.9880 0.9890 0.9910 0.9950 0.9970
632.864009 1.0000 1.0000 1.0000 1.0010 1.0010
637.558846 1.0010 1.0010 1.0010 1.0010 1.0010
642.253683 1.0010 1.0010 1.0010 1.0010 1.0010
646.948520 1.0010 1.0010 1.0010 1.0010 1.0010
651.643357 1.0000 1.0000 1.0000 1.0000 1.0000
656.338194 1.0000 1.0000 1.0000 1.0000 1.0000
661.033030 1.0000 1.0000 1.0000 1.0000 1.0000
665.727867 1.0000 1.0000 1.0000 1.0000 1.0010
670.422704 1.0010 1.0010 1.0010 1.0010 1.0010
675.117541 1.0010 1.0010 1.0010 1.0010 1.0020
679.812378 1.0020 1.0020 1.0020 1.0020 1.0020
684.507215 1.0020 1.0020 1.0020 1.0040 1.0040
689.202052 1.0040 1.0040 1.0040 1.0040 1.0050
693.896889 1.0050 1.0050 1.0050 1.0050 1.0050
698.591726 1.0070 1.0070 1.0070 1.0070 1.0070
703.286563 1.0070 1.0070 1.0080 1.0080 1.0080
707.981400 1.0080 1.0080 1.0080 1.0080 1.0080
712.676237 1.0080 1.0080 1.0080 1.0080 1.0080
717.371073 1.0080 1.0080 1.0080 1.0080 1.0080
722.065910 1.0080 1.0080 1.0080 1.0080 1.0080
726.760747 1.0080 1.0080 1.0080 1.0080 1.0070
731.455584 1.0070 1.0070 1.0070 1.0070 1.0070
736.150421 1.0050 1.0050 1.0050 1.0020 1.0020
740.845258 1.0020 1.0040 1.0040 1.0040 1.0040
745.540095 1.0020 1.0010 0.9980 0.9940 1.0000
750.234932 1.0020 1.0020 1.0130 1.0050 1.0050
754.929769 1.0070 1.0070 1.0080 1.0080 1.0080
759.624606 1.0100 1.0100 1.0100 1.0100 1.0100
764.319443 1.0100 1.0100 1.0110 1.0110 1.0110
769.014280 1.0110 1.0110 1.0110 1.0110 1.0110
773.709117 1.0130 1.0130 1.0130 1.0130 1.0130
778.403953 1.0130 1.0130 1.0110 1.0110 1.0110
783.098790 1.0110 1.0110 1.0110 1.0110 1.0110
787.793627 1.0110 1.0110 1.0110 1.0110 1.0110
792.488464 1.0110 1.0110 1.0110 1.0110 1.0110
797.183301 1.0110 1.0130 1.0130 1.0140 1.0140
801.878138 1.0140 1.0140 1.0140 1.0140 1.0160
806.572975 1.0160 1.0160 1.0160 1.0160 1.0160
811.267812 1.0170 1.0160 1.0160 1.0160 1.0160
815.962649 1.0160 1.0160 1.0160 1.0160 1.0160
820.657486 1.0170 1.0170 1.0170 1.0170 1.0170
825.352323 1.0170 1.0180 1.0180 1.0180 1.0180
830.047160 1.0200 1.0200 1.0200 1.0210 1.0210
834.741996 1.0210 1.0210 1.0230 1.0230 1.0240
839.436833 1.0240 1.0260 1.0260 1.0270 1.0270
844.131670 1.0290 1.0290 1.0290 1.0290 1.0290
848.826507 1.0290 1.0290 1.0290 1.0290 1.0300
853.521344 1.0300 1.0300 1.0300 1.0300 1.0300
858.216181 1.0300 1.0300 1.0300 1.0300 1.0290
862.911018 1.0290 1.0270 1.0270 1.0270 1.0270
867.605855 1.0270 1.0260 1.0260 1.0260 1.0260
872.300692 1.0240 1.0240 1.0230 1.0230 1.0210
876.995529 1.0210 1.0200 1.0180 1.0170 1.0160
881.690366 1.0140 1.0130 1.0100 1.0070 1.0040
886.385203 1.0010 1.0010 1.0000 0.9980 0.9940
891.080039 0.9830 0.9790 0.9690 0.9650 0.9560
895.774876 0.9470 0.9350 0.9340 0.9270 0.9190
900.469713 0.8990 0.8800 0.8550 0.8310 0.8030
905.164550 0.7801 0.7581 0.7271 0.6941 0.6681
909.859387 0.6330 0.5860 0.5630 0.5380 0.4831
914.554224 0.4481 0.3792 0.3142 0.2941 0.2751
919.249061 0.2560 0.2370 0.2180 0.1890 0.1760
923.943898 0.1630 0.1510 0.1361 0.1320 0.1290
928.638735 0.1250 0.1220 0.1100 0.1040 0.1000
933.333572 0.0960 0.0751 0.0610 0.0580 0.0451
938.028409 0.0450 0.1380 0.1420 0.1440 0.1480
942.723246 0.1570 0.1630 0.1740 0.1919 0.2059
947.418082 0.2290 0.2440 0.2909 0.3200 0.3439
952.112919 0.3659 0.3909 0.4318 0.4420 0.4609
956.807756 0.5031 0.5660 0.5880 0.6200 0.6410
961.502593 0.6759 0.7169 0.7369 0.7559 0.7779
966.197430 0.8060 0.8320 0.8390 0.8520 0.8630
970.892267 0.8760 0.8900 0.9020 0.9139 0.9150
975.587104 0.9180 0.9220 0.9270 0.9310 0.9350
980.281941 0.9380 0.9410 0.9430 0.9440 0.9470
984.976778 0.9490 0.9500 0.9530 0.9540 0.9540
989.671615 0.9530 0.9510 0.9500 0.9490 0.9430
994.366452 0.9400 0.9380 0.9350 0.9280 0.9210
999.061289 0.9170 0.9140 0.9090 0.8931 0.8771
1003.756125 0.8730 0.8710 0.8600 0.8520 0.8440
1008.450962 0.8320 0.8101 0.7961 0.7641 0.7461
1013.145799 0.7300 0.7110 0.6940 0.6780 0.6590
1017.840636 0.6241 0.6041 0.5821 0.5571 0.5341
1022.535473 0.5100 0.4970 0.4730 0.4460 0.4101
1027.230310 0.3741 0.3401 0.3101 0.2761 0.2471
1031.925147 0.2050 0.1450 0.1360 0.1130 0.0970
1036.619984 0.0810 0.0401 0.0330 0.0270 0.0200
1041.314821 0.0140 0.0050 0.0040 0.0020 0.0020
1046.009658 0.0020 0.0020 0.0020 0.0020 0.0020
1050.704495 0.0020 0.0020 0.0020 0.0020 0.0020
1055.399332 0.0020 0.0020 0.0020 0.0020 0.0040
1060.094169 0.0040 0.0050 0.0050 0.0070 0.0080
1064.789005 0.0080 0.0100 0.0110 0.0130 0.0130
1069.483842 0.0140 0.0180 0.0290 0.1059 0.1160
1074.178679 0.1409 0.1828 0.2378 0.2629 0.2879
1078.873516 0.2910 0.3430 0.3950 0.4429 0.4430
1083.568353 0.4450 0.4450 0.4430 0.4410 0.4320
1088.263190 0.4250 0.4160 0.4010 0.3870 0.3740
1092.958027 0.3600 0.3460 0.3331 0.3201 0.2941
1097.652864 0.2880 0.2640 0.2400 0.2031 0.1761
1102.347701 0.1581 0.1470 0.1380 0.1310 0.1230
1107.042538 0.1120 0.1040 0.0970 0.0940 0.0880
1111.737375 0.0800 0.0720 0.0680 0.0660 0.0660
1116.432212 0.0660 0.0680 0.0690 0.0710 0.0680
1121.127048 0.0640 0.0620 0.0431 0.0370 0.0340
1125.821885 0.0330 0.0320 0.0290 0.0270 0.0260
1130.516722 0.0170 0.0130 0.0100 0.0080 0.0050
1135.211559 0.0050 0.0020 0.0020 0.0020 0.0020
1139.906396 0.0020 0.0020 0.0020 0.0020 0.0020
1144.601233 0.0020 0.0040 0.0040 0.0040 0.0040
1149.296070 0.0050 0.0050 0.0050 0.0050 0.0050
1153.990907 0.0070 0.0070 0.0070 0.0070 0.0070
1158.685744 0.0080 0.0080 0.0100 0.0110 0.0200
1163.380581 0.0320 0.0400 0.0520 0.1129 0.1330
1168.075418 0.1579 0.1889 0.2239 0.2658 0.3138
1172.770255 0.3260 0.3430 0.3470 0.3530 0.3550
1177.465091 0.3560 0.3560 0.3560 0.3560 0.3550
1182.159928 0.3460 0.3430 0.3390 0.3370 0.3370
1186.854765 0.3360 0.3360 0.3360 0.3370 0.3400
1191.549602 0.3520 0.3530 0.3520 0.3500 0.3500
1196.244439 0.3490 0.3490 0.3490 0.3500 0.3520
1200.939276 0.3560 0.3580 0.3590 0.3630 0.3650
1205.634113 0.3680 0.3750 0.3810 0.3880 0.3930
1210.328950 0.3950 0.3980 0.4040 0.4100 0.4170
1215.023787 0.4220 0.4270 0.4360 0.4460 0.4520
1219.718624 0.4540 0.4570 0.4700 0.4830 0.4840
1224.413461 0.4900 0.4910 0.5000 0.5030 0.5050
1229.108298 0.5120 0.5120 0.5150 0.5160 0.5150
1233.803134 0.5130 0.5150 0.5220 0.5698 0.6008
1238.497971 0.6120 0.6170 0.6270 0.6390 0.6530
1243.192808 0.6680 0.6730 0.6780 0.6909 0.7069
1247.887645 0.7190 0.7270 0.7370 0.7450 0.7650
1252.582482 0.7830 0.7930 0.8030 0.8130 0.8220
1257.277319 0.8340 0.8420 0.8510 0.8600 0.8680
1261.972156 0.8740 0.8860 0.8890 0.8920 0.8930
1266.666993 0.8980 0.9020 0.9050 0.9110 0.9110
1271.361830 0.9140 0.9190 0.9190 0.9210 0.9220
1276.056667 0.9250 0.9270 0.9300 0.9310 0.9330
1280.751504 0.9330 0.9340 0.9340 0.9350 0.9350
1285.446341 0.9370 0.9370 0.9380 0.9400 0.9400
1290.141177 0.9410 0.9410 0.9430 0.9440 0.9440
1294.836014 0.9460 0.9460 0.9470 0.9470 0.9490
1299.530851 0.9490 0.9490 0.9490 0.9500 0.9510
1304.225688 0.9510 0.9530 0.9530 0.9540 0.9540
1308.920525 0.9560 0.9560 0.9570 0.9570 0.9590
1313.615362 0.9590 0.9600 0.9600 0.9620 0.9620
1318.310199 0.9620 0.9630 0.9630 0.9630 0.9650
1323.005036 0.9650 0.9650 0.9660 0.9660 0.9660
1327.699873 0.9660 0.9660 0.9660 0.9660 0.9660
1332.394710 0.9660 0.9660 0.9650 0.9650 0.9650
1337.089547 0.9650 0.9650 0.9650 0.9650 0.9650
1341.784384 0.9650 0.9650 0.9650 0.9630 0.9630
1346.479220 0.9620 0.9620 0.9600 0.9590 0.9590
1351.174057 0.9570 0.9570 0.9560 0.9540 0.9540
1355.868894 0.9530 0.9490 0.9470 0.9470 0.9460
1360.563731 0.9440 0.9430 0.9430 0.9410 0.9410
1365.258568 0.9400 0.9380 0.9350 0.9350 0.9350
1369.953405 0.9340 0.9330 0.9300 0.9270 0.9220
1374.648242 0.9180 0.9140 0.9090 0.9020 0.8980
1379.343079 0.8900 0.8820 0.8630 0.8340 0.8091
1384.037916 0.7801 0.7611 0.7451 0.7231 0.7101
1388.732753 0.7100 0.7140 0.7190 0.7210 0.7400
1393.427590 0.7420 0.7420 0.7400 0.7400 0.7390
1398.122427 0.7190 0.7170 0.6970 0.5901 0.8056
1402.817264 0.7262 0.7051 0.6950 0.6940 0.6940
1407.512100 0.6940 0.6970 0.7100 0.7230 0.7669
1412.206937 0.7830 0.8288 0.8310 0.8569 0.8888
1416.901774 0.9110 0.9210 0.9280 0.9310 0.9330
1421.596611 0.9430 0.9500 0.9510 0.9500 0.9470
1426.291448 0.9410 0.9340 0.9310 0.9280 0.9250
1430.986285 0.9220 0.9150 0.9120 0.8921 0.8890
1435.681122 0.8760 0.8640 0.8310 0.8100 0.7960
1440.375959 0.7711 0.7431 0.7131 0.6841 0.6552
1445.070796 0.6270 0.6010 0.5790 0.5670 0.5640
1449.765633 0.5660 0.5670 0.6238 0.5742 0.5611
1454.460470 0.5480 0.5220 0.4960 0.4740 0.4640
1459.155307 0.4770 0.4890 0.5099 0.5120 0.5697
1463.850143 0.5770 0.5890 0.6020 0.6150 0.6300
1468.544980 0.6390 0.6430 0.6440 0.6460 0.6460
1473.239817 0.6490 0.6530 0.6600 0.6690 0.6760
1477.934654 0.6790 0.6840 0.6870 0.6910 0.6940
1482.629491 0.7080 0.7160 0.7230 0.7260 0.7330
1487.324328 0.7420 0.7609 0.7700 0.7800 0.7989
1492.019165 0.8150 0.8310 0.8350 0.8420 0.8500
1496.714002 0.8540 0.8630 0.8710 0.8760 0.8850
1501.408839 0.8960 0.9050 0.9110 0.9140 0.9150
1506.103676 0.9180 0.9240 0.9330 0.9380 0.9430
1510.798513 0.9470 0.9540 0.9560 0.9570 0.9590
1515.493350 0.9600 0.9600 0.9620 0.9620 0.9630
1520.188186 0.9630 0.9660 0.9690 0.9750 0.9750
1524.883023 0.9750 0.9760 0.9760 0.9760 0.9760
1529.577860 0.9760 0.9760 0.9760 0.9760 0.9750
1534.272697 0.9750 0.9720 0.9690 0.9690 0.9670
1538.967534 0.9690 0.9700 0.9720 0.9730 0.9760
1543.662371 0.9760 0.9750 0.9750 0.9750 0.9750
1548.357208 0.9760 0.9750 0.9750 0.9730 0.9730
1553.052045 0.9720 0.9700 0.9700 0.9690 0.9670
1557.746882 0.9650 0.9650 0.9650 0.9660 0.9670
1562.441719 0.9670 0.9690 0.9690 0.9670 0.9670
1567.136556 0.9670 0.9670 0.9690 0.9670 0.9670
1571.831393 0.9670 0.9670 0.9630 0.9630 0.9630
1576.526229 0.9630 0.9650 0.9660 0.9660 0.9660
1581.221066 0.9650 0.9650 0.9650 0.9650 0.9660
1585.915903 0.9660 0.9660 0.9670 0.9670 0.9670
1590.610740 0.9670 0.9670 0.9670 0.9670 0.9670
1595.305577 0.9690 0.9690 0.9700 0.9700 0.9700
1600.000414 0.9700 0.9700 0.9720 0.9730 0.9730
1604.695251 0.9730 0.9760 0.9760 0.9760 0.9780
1609.390088 0.9780 0.9780 0.9790 0.9790 0.9790
1614.084925 0.9790 0.9790 0.9790 0.9810 0.9810
1618.779762 0.9820 0.9820 0.9830 0.9850 0.9850
1623.474599 0.9850 0.9830 0.9850 0.9850 0.9850
1628.169436 0.9850 0.9830 0.9830 0.9830 0.9820
1632.864272 0.9790 0.9760 0.9760 0.9780 0.9780
1637.559109 0.9790 0.9790 0.9790 0.9790 0.9790
1642.253946 0.9780 0.9750 0.9750 0.9760 0.9780
1646.948783 0.9780 0.9780 0.9760 0.9760 0.9730
1651.643620 0.9700 0.9730 0.9750 0.9780 0.9790
1656.338457 0.9790 0.9810 0.9820 0.9820 0.9820
1661.033294 0.9820 0.9850 0.9860 0.9890 0.9910
1665.728131 0.9910 0.9910 0.9910 0.9920 0.9950
1670.422968 0.9970 1.0000 1.0000 1.0000 1.0000
1675.117805 1.0000 1.0010 1.0010 1.0010 1.0010
1679.812642 0.9980 0.9950 0.9940 1.0020 1.0020
1684.507479 1.0020 1.0020 1.0040 1.0040 1.0040
1689.202315 1.0040 1.0040 1.0040 1.0040 1.0020
1693.897152 1.0020 1.0010 1.0000 1.0000 0.9980
1698.591989 0.9940 0.9890 0.9830 1.0020 1.0040
1703.286826 1.0040 1.0040 1.0020 1.0010 1.0000
1707.981663 0.9980 0.9970 0.9950 0.9920 0.9890
1712.676500 0.9910 0.9920 0.9940 0.9940 0.9950
1717.371337 0.9950 0.9970 0.9980 0.9980 0.9950
1722.066174 0.9950 0.9950 0.9940 0.9920 0.9920
1726.761011 0.9910 0.9890 0.9890 0.9880 0.9850
1731.455848 0.9820 0.9810 0.9820 0.9830 0.9830
1736.150685 0.9850 0.9850 0.9850 0.9850 0.9850
1740.845522 0.9850 0.9850 0.9830 0.9820 0.9810
1745.540359 0.9810 0.9790 0.9780 0.9780 0.9790
1750.235195 0.9810 0.9830 0.9880 0.9910 0.9920
1754.930032 0.9890 0.9890 0.9910 0.9920 0.9970
1759.624869 0.9970 0.9980 0.9980 0.9970 0.9970
1764.319706 0.9970 1.0010 1.0010 1.0020 1.0040
1769.014543 1.0050 1.0070 1.0070 1.0070 1.0050
1773.709380 1.0020 1.0020 1.0020 1.0020 1.0040
1778.404217 1.0040 1.0040 1.0040 1.0040 1.0040
1783.099054 1.0040 1.0040 1.0040 1.0040 1.0040
1787.793891 1.0040 1.0040 1.0020 1.0010 1.0010
1792.488728 1.0020 1.0020 1.0020 1.0020 1.0020
1797.183565 1.0040 1.0040 1.0040 1.0050 1.0050
1801.878402 1.0070 1.0080 1.0080 1.0080 1.0070
1806.573238 1.0070 1.0050 1.0040 1.0020 1.0010
1811.268075 1.0010 1.0020 1.0020 1.0040 1.0040
1815.962912 1.0040 1.0040 1.0040 1.0040 1.0020
1820.657749 1.0020 1.0020 1.0000 1.0000 1.0000
1825.352586 1.0000 1.0000 0.9980 0.9980 0.9980
1830.047423 0.9980 0.9980 0.9980 0.9980 0.9970
1834.742260 0.9970 0.9970 0.9950 0.9950 0.9950
1839.437097 0.9940 0.9940 0.9940 0.9920 0.9920
1844.131934 0.9920 0.9920 0.9920 0.9920 0.9920
1848.826771 0.9940 0.9940 0.9940 0.9950 0.9950
1853.521608 0.9950 0.9950 0.9970 0.9970 0.9970
1858.216445 0.9980 0.9980 0.9980 0.9980 0.9980
1862.911281 1.0000 1.0000 1.0000 1.0000 1.0000
1867.606118 1.0000 1.0010 1.0010 1.0020 1.0020
1872.300955 1.0020 1.0040 1.0040 1.0040 1.0040
1876.995792 1.0040 1.0040 1.0040 1.0040 1.0040
1881.690629 1.0040 1.0040 1.0040 1.0040 1.0040
1886.385466 1.0040 1.0040 1.0040 1.0040 1.0040
1891.080303 1.0040 1.0050 1.0050 1.0050 1.0050
1895.775140 1.0050 1.0050 1.0050 1.0050 1.0050
1900.469977 1.0050 1.0050 1.0050 1.0050 1.0050
1905.164814 1.0050 1.0050 1.0050 1.0050 1.0070
1909.859651 1.0070 1.0070 1.0070 1.0050 1.0050
1914.554488 1.0040 1.0020 1.0020 1.0020 1.0010
1919.249324 1.0010 1.0000 1.0000 0.9980 0.9980
1923.944161 0.9970 0.9970 0.9980 0.9980 1.0000
1928.638998 1.0000 1.0000 0.9980 0.9980 0.9950
1933.333835 0.9920 0.9910 0.9890 0.9860 0.9850
1938.028672 0.9830 0.9820 0.9810 0.9790 0.9790
1942.723509 0.9780 0.9780 0.9760 0.9750 0.9720
1947.418346 0.9670 0.9650 0.9620 0.9590 0.9570
1952.113183 0.9560 0.9530 0.9470 0.9460 0.9440
1956.808020 0.9400 0.9370 0.9350 0.9340 0.9330
1961.502857 0.9310 0.9300 0.9280 0.9280 0.9270
1966.197694 0.9250 0.9240 0.9240 0.9220 0.9220
1970.892531 0.9210 0.9210 0.9210 0.9210 0.9210
1975.587367 0.9210 0.9210 0.9210 0.9210 0.9220
1980.282204 0.9240 0.9250 0.9250 0.9280 0.9330
1984.977041 0.9330 0.9350 0.9380 0.9410 0.9460
1989.671878 0.9470 0.9500 0.9510 0.9540 0.9540
1994.366715 0.9540 0.9560 0.9560 0.9570 0.9590
1999.061552 0.9620 0.9650 0.9655 0.9660 0.9660
2003.756389 0.9660 0.9665 0.9670 0.9670 0.9670
2008.451226 0.9670 0.9670 0.9670 0.9670 0.9670
2013.146063 0.9670 0.9670 0.9670 0.9670 0.9670
2017.840900 0.9670 0.9670 0.9665 0.9660 0.9660
2022.535737 0.9660 0.9660 0.9660 0.9655 0.9650
2027.230574 0.9640 0.9630 0.9586 0.9542 0.9487
2031.925410 0.9432 0.9387 0.9342 0.9268 0.9193
2036.620247 0.9103 0.9012 0.8995 0.8980 0.8980
2041.315084 0.8980 0.8917 0.8852 0.8783 0.8713
2046.009921 0.8691 0.8671 0.8641 0.8611 0.8577
2050.704758 0.8542 0.8531 0.8521 0.8515 0.8510
2055.399595 0.8515 0.8520 0.8530 0.8540 0.8573
2060.094432 0.8608 0.8639 0.8669 0.8684 0.8699
2064.789269 0.8728 0.8758 0.8788 0.8818 0.8839
2069.484106 0.8859 0.8921 0.8986 0.9060 0.9135
2074.178943 0.9173 0.9208 0.9215 0.9220 0.9244
2078.873780 0.9269 0.9284 0.9299 0.9300 0.9300
2083.568617 0.9333 0.9368 0.9435 0.9505 0.9533
2088.263454 0.9558 0.9565 0.9570 0.9584 0.9599
2092.958290 0.9614 0.9629 0.9644 0.9659 0.9665
2097.653127 0.9670 0.9670 0.9670 0.9670 0.9670
2102.347964 0.9670 0.9670 0.9665 0.9660 0.9655
2107.042801 0.9650 0.9641 0.9631 0.9630 0.9630
2111.737638 0.9616 0.9601 0.9586 0.9571 0.9556
2116.432475 0.9541 0.9522 0.9502 0.9495 0.9490
2121.127312 0.9481 0.9471 0.9470 0.9470 0.9470
2125.822149 0.9470 0.9470 0.9470 0.9470 0.9470
2130.516986 0.9479 0.9489 0.9495 0.9500 0.9505
2135.211823 0.9510 0.9532 0.9557 0.9560 0.9560
2139.906660 0.9564 0.9569 0.9583 0.9598 0.9622
2144.601497 0.9647 0.9659 0.9669 0.9679 0.9689
2149.296333 0.9694 0.9699 0.9709 0.9719 0.9720
2153.991170 0.9720 0.9724 0.9729 0.9739 0.9749
2158.686007 0.9750 0.9750 0.9750 0.9750 0.9750
2163.380844 0.9750 0.9754 0.9759 0.9760 0.9760
2168.075681 0.9760 0.9760 0.9760 0.9760 0.9769
2172.770518 0.9779 0.9784 0.9789 0.9790 0.9790
2177.465355 0.9799 0.9809 0.9810 0.9810 0.9814
2182.160192 0.9819 0.9824 0.9829 0.9851 0.9876
2186.855029 0.9897 0.9917 0.9929 0.9939 0.9944
2191.549866 0.9949 0.9971 0.9996 1.0000 1.0000
2196.244703 1.0004 1.0009 1.0010 1.0010 1.0010
2200.939540 1.0010 1.0014 1.0019 1.0020 1.0020
2205.634376 1.0020 1.0020 1.0020 1.0020 1.0020
2210.329213 1.0020 1.0020 1.0020 1.0020 1.0020
2215.024050 1.0020 1.0020 1.0020 1.0020 1.0020
2219.718887 1.0020 1.0028 1.0038 1.0040 1.0040
2224.413724 1.0040 1.0040 1.0040 1.0040 1.0040
2229.108561 1.0040 1.0040 1.0040 1.0040 1.0040
2233.803398 1.0044 1.0049 1.0050 1.0050 1.0050
2238.498235 1.0050 1.0050 1.0050 1.0050 1.0050
2243.193072 1.0058 1.0068 1.0070 1.0070 1.0070
2247.887909 1.0070 1.0074 1.0079 1.0080 1.0080
2252.582746 1.0088 1.0098 1.0100 1.0100 1.0100
2257.277583 1.0100 1.0104 1.0109 1.0110 1.0110
2261.972419 1.0118 1.0128 1.0134 1.0139 1.0140
2266.667256 1.0140 1.0148 1.0158 1.0160 1.0160
2271.362093 1.0164 1.0169 1.0182 1.0197 1.0204
2276.056930 1.0209 1.0218 1.0228 1.0234 1.0239
2280.751767 1.0240 1.0240 1.0240 1.0240 1.0248
2285.446604 1.0258 1.0260 1.0260 1.0260 1.0260
2290.141441 1.0260 1.0260 1.0260 1.0260 1.0264
2294.836278 1.0269 1.0270 1.0270 1.0270 1.0270
2299.531115 1.0270 1.0270 1.0270 1.0270 1.0270
2304.225952 1.0270 1.0270 1.0270 1.0270 1.0270
2308.920789 1.0270 1.0270 1.0270 1.0270 1.0270
