##TITLE=HYDRACRYLONITRILE
##JCAMP-DX=4.24
##DATA TYPE=INFRARED SPECTRUM
##CLASS=COBLENTZ III
##ORIGIN=SOUTHERN RESEARCH INSTITUTE
##OWNER=COBLENTZ SOCIETY
Collection (C) 2018 copyright by the U.S. Secretary of Commerce
on behalf of the United States of America. All rights reserved.
##DATE=1959/03/15
##NAMES=3-hydroxypropanenitrile
PROPIONITRILE, 3-HYDROXY-
##CAS REGISTRY NO=109-78-4
##MOLFORM=C3 H5 N O
##SOURCE REFERENCE=COBLENTZ NO. 7392
##$NIST SOURCE=COBLENTZ
##$NIST IMAGE=cob7392
##SPECTROMETER/DATA SYSTEM=PERKIN-ELMER 21 (GRATING)
##INSTRUMENT PARAMETERS=FILTER CHANGE AT ABOUT 1020 CM^-^1
##STATE=LIQUID (NEAT)
##PATH LENGTH=CAPILLARY
##SAMPLING PROCEDURE=TRANSMISSION
##RESOLUTION=2
##DATA PROCESSING=DIGITIZED BY NIST FROM HARD COPY (FROM TWO SEGMENTS)
##XUNITS=1/CM
##YUNITS=TRANSMITTANCE
##XFACTOR=1.000000
##YFACTOR=1
##DELTAX=1.292705
##FIRSTX=603.257
##LASTX=3803.99
##FIRSTY=0.691
##MAXX=3803.99
##MINX=603.257
##MAXY=0.907
##MINY=0.184
##NPOINTS=2477
##XYDATA=(X++(Y..Y))
603.257000 0.6910 0.6920 0.6920 0.6920 0.6920
609.720525 0.6920 0.6948 0.6950 0.6959 0.6988
616.184050 0.6990 0.6999 0.7000 0.6991 0.6990
622.647575 0.6990 0.6990 0.6999 0.7000 0.7000
629.111100 0.7000 0.7000 0.7008 0.7018 0.7036
635.574625 0.7040 0.7048 0.7050 0.7058 0.7060
642.038150 0.7075 0.7095 0.7115 0.7120 0.7135
648.501675 0.7147 0.7171 0.7187 0.7204 0.7210
654.965200 0.7210 0.7210 0.7217 0.7227 0.7243
661.428725 0.7269 0.7305 0.7332 0.7346 0.7356
667.892250 0.7360 0.7378 0.7402 0.7427 0.7446
674.355775 0.7461 0.7498 0.7531 0.7551 0.7560
680.819300 0.7560 0.7565 0.7585 0.7605 0.7615
687.282825 0.7625 0.7640 0.7655 0.7660 0.7674
693.746350 0.7708 0.7739 0.7763 0.7784 0.7802
700.209875 0.7828 0.7860 0.7902 0.7931 0.7969
706.673400 0.8004 0.8025 0.8054 0.8067 0.8083
713.136925 0.8093 0.8100 0.8103 0.8119 0.8149
719.600450 0.8173 0.8180 0.8183 0.8195 0.8213
726.063975 0.8223 0.8247 0.8302 0.8310 0.8312
732.527500 0.8320 0.8320 0.8322 0.8330 0.8330
738.991025 0.8333 0.8350 0.8350 0.8350 0.8350
745.454550 0.8350 0.8350 0.8350 0.8350 0.8350
751.918075 0.8352 0.8370 0.8370 0.8370 0.8371
758.381600 0.8390 0.8403 0.8461 0.8480 0.8490
764.845125 0.8500 0.8500 0.8500 0.8500 0.8500
771.308650 0.8490 0.8480 0.8480 0.8490 0.8490
777.772175 0.8490 0.8518 0.8529 0.8539 0.8567
784.235700 0.8615 0.8647 0.8659 0.8669 0.8670
790.699225 0.8687 0.8690 0.8690 0.8690 0.8690
797.162750 0.8690 0.8698 0.8700 0.8700 0.8700
803.626275 0.8700 0.8700 0.8700 0.8700 0.8700
810.089800 0.8700 0.8693 0.8690 0.8647 0.8623
816.553325 0.8613 0.8596 0.8583 0.8567 0.8520
823.016850 0.8474 0.8421 0.8355 0.8311 0.8281
829.480375 0.8233 0.8198 0.8208 0.8226 0.8236
835.943900 0.8252 0.8266 0.8264 0.8249 0.8229
842.407425 0.8182 0.8096 0.8008 0.7949 0.7843
848.870950 0.7735 0.7645 0.7481 0.7346 0.7263
855.334475 0.7201 0.7199 0.7241 0.7337 0.7475
861.798000 0.7691 0.8062 0.8396 0.8522 0.8590
868.261525 0.8651 0.8715 0.8762 0.8804 0.8824
874.725050 0.8857 0.8873 0.8883 0.8890 0.8890
881.188575 0.8887 0.8883 0.8890 0.8890 0.8890
887.652100 0.8890 0.8890 0.8890 0.8890 0.8890
894.115625 0.8890 0.8890 0.8890 0.8894 0.8906
900.579150 0.8890 0.8888 0.8880 0.8875 0.8847
907.042675 0.8830 0.8830 0.8827 0.8810 0.8810
913.506200 0.8810 0.8810 0.8810 0.8809 0.8800
919.969725 0.8800 0.8800 0.8800 0.8800 0.8790
926.433250 0.8780 0.8780 0.8760 0.8740 0.8710
932.896775 0.8690 0.8670 0.8660 0.8631 0.8630
939.360300 0.8630 0.8621 0.8629 0.8630 0.8658
945.823825 0.8688 0.8708 0.8719 0.8738 0.8749
952.287350 0.8759 0.8760 0.8760 0.8760 0.8760
958.750875 0.8752 0.8750 0.8742 0.8740 0.8724
965.214400 0.8720 0.8712 0.8702 0.8700 0.8692
971.677925 0.8667 0.8637 0.8623 0.8613 0.8588
978.141450 0.8566 0.8539 0.8509 0.8486 0.8452
984.604975 0.8406 0.8363 0.8323 0.8290 0.8274
991.068500 0.8238 0.8151 0.8054 0.7958 0.7914
997.532025 0.7916 0.7926 0.7930 0.7942 0.7950
1003.995550 0.7939 0.7908 0.7863 0.7829 0.7809
1010.459075 0.7795 0.7775 0.7745 0.7715 0.7680
1016.922600 0.7631 0.7581 0.7546 0.7516 0.7445
1023.386125 0.7349 0.7297 0.7259 0.7142 0.6962
1029.849650 0.6775 0.6581 0.6403 0.5969 0.5513
1036.313175 0.5328 0.5048 0.4700 0.4334 0.4000
1042.776700 0.3765 0.3606 0.3479 0.3364 0.3194
1049.240225 0.2976 0.2761 0.2561 0.2385 0.2224
1055.703750 0.2093 0.1986 0.1898 0.1855 0.1840
1062.167275 0.1844 0.1878 0.1958 0.1999 0.2052
1068.630800 0.2132 0.2281 0.2527 0.2724 0.2991
1075.094325 0.3143 0.3316 0.3531 0.3804 0.4128
1081.557850 0.4524 0.5027 0.5620 0.6286 0.6508
1088.021375 0.6804 0.7228 0.7404 0.7526 0.7754
1094.484900 0.7951 0.8050 0.8110 0.8229 0.8279
1100.948425 0.8329 0.8359 0.8427 0.8458 0.8498
1107.411950 0.8519 0.8538 0.8567 0.8579 0.8589
1113.875475 0.8590 0.8608 0.8610 0.8619 0.8629
1120.339000 0.8630 0.8647 0.8650 0.8650 0.8658
1126.802525 0.8660 0.8668 0.8670 0.8670 0.8670
1133.266050 0.8670 0.8670 0.8662 0.8660 0.8660
1139.729575 0.8660 0.8653 0.8650 0.8636 0.8630
1146.193100 0.8630 0.8623 0.8620 0.8613 0.8590
1152.656625 0.8567 0.8540 0.8524 0.8507 0.8494
1159.120150 0.8490 0.8484 0.8480 0.8468 0.8448
1165.583675 0.8422 0.8387 0.8364 0.8338 0.8309
1172.047200 0.8289 0.8232 0.8148 0.8084 0.8039
1178.510725 0.8010 0.7965 0.7906 0.7832 0.7709
1184.974250 0.7584 0.7507 0.7444 0.7365 0.7316
1191.437775 0.7310 0.7323 0.7356 0.7384 0.7394
1197.901300 0.7411 0.7449 0.7502 0.7565 0.7639
1204.364825 0.7714 0.7787 0.7863 0.7913 0.7923
1210.828350 0.7945 0.8013 0.8101 0.8133 0.8140
1217.291875 0.8140 0.8143 0.8150 0.8148 0.8140
1223.755400 0.8133 0.8110 0.8108 0.8098 0.8090
1230.218925 0.8088 0.8076 0.8057 0.8030 0.7972
1236.682450 0.7929 0.7916 0.7883 0.7838 0.7816
1243.145975 0.7783 0.7724 0.7669 0.7660 0.7659
1249.609500 0.7651 0.7660 0.7661 0.7673 0.7744
1256.073025 0.7842 0.7910 0.7921 0.7981 0.8100
1262.536550 0.8140 0.8169 0.8180 0.8190 0.8209
1269.000075 0.8210 0.8210 0.8210 0.8210 0.8210
1275.463600 0.8210 0.8210 0.8210 0.8210 0.8210
1281.927125 0.8210 0.8184 0.8137 0.8113 0.8102
1288.390650 0.8083 0.8055 0.8025 0.8004 0.7976
1294.854175 0.7938 0.7922 0.7912 0.7887 0.7880
1301.317700 0.7850 0.7810 0.7756 0.7711 0.7642
1307.781225 0.7613 0.7603 0.7579 0.7563 0.7498
1314.244750 0.7416 0.7383 0.7367 0.7334 0.7229
1320.708275 0.7161 0.7080 0.6996 0.6915 0.6880
1327.171800 0.6880 0.6892 0.6900 0.6911 0.6943
1333.635325 0.7016 0.7110 0.7194 0.7257 0.7349
1340.098850 0.7467 0.7525 0.7565 0.7610 0.7620
1346.562375 0.7620 0.7620 0.7620 0.7620 0.7620
1353.025900 0.7620 0.7616 0.7610 0.7606 0.7604
1359.489425 0.7606 0.7592 0.7572 0.7549 0.7511
1365.952950 0.7469 0.7446 0.7430 0.7407 0.7397
1372.416475 0.7347 0.7238 0.7162 0.7088 0.7019
1378.880000 0.6909 0.6874 0.6841 0.6774 0.6712
1385.343525 0.6657 0.6650 0.6648 0.6635 0.6618
1391.807050 0.6608 0.6596 0.6572 0.6538 0.6521
1398.270575 0.6473 0.6433 0.6397 0.6368 0.6290
1404.734100 0.6227 0.6202 0.6133 0.6071 0.5983
1411.197625 0.5914 0.5835 0.5568 0.5550 0.5550
1417.661150 0.5550 0.5550 0.5562 0.5614 0.5773
1424.124675 0.5960 0.5990 0.5990 0.5990 0.6029
1430.588200 0.6117 0.6168 0.6285 0.6432 0.6552
1437.051725 0.6635 0.6733 0.6823 0.6948 0.7113
1443.515250 0.7237 0.7347 0.7430 0.7466 0.7521
1449.978775 0.7530 0.7564 0.7654 0.7770 0.7839
1456.442300 0.7874 0.7912 0.7928 0.7969 0.8003
1462.905825 0.8010 0.8010 0.8002 0.7985 0.7965
1469.369350 0.7960 0.7938 0.7930 0.7923 0.7920
1475.832875 0.7913 0.7896 0.7904 0.7910 0.7917
1482.296400 0.7927 0.7949 0.7986 0.8006 0.8016
1488.759925 0.8045 0.8103 0.8197 0.8330 0.8455
1495.223450 0.8541 0.8581 0.8590 0.8601 0.8637
1501.686975 0.8665 0.8691 0.8710 0.8715 0.8720
1508.150500 0.8735 0.8765 0.8785 0.8795 0.8800
1514.614025 0.8805 0.8819 0.8835 0.8840 0.8840
1521.077550 0.8840 0.8840 0.8840 0.8840 0.8840
1527.541075 0.8840 0.8844 0.8850 0.8850 0.8857
1534.004600 0.8870 0.8870 0.8870 0.8873 0.8880
1540.468125 0.8880 0.8880 0.8880 0.8880 0.8880
1546.931650 0.8880 0.8880 0.8880 0.8878 0.8872
1553.395175 0.8880 0.8880 0.8880 0.8880 0.8882
1559.858700 0.8890 0.8890 0.8890 0.8890 0.8893
1566.322225 0.8910 0.8910 0.8910 0.8910 0.8910
1572.785750 0.8910 0.8910 0.8910 0.8910 0.8910
1579.249275 0.8910 0.8910 0.8910 0.8910 0.8910
1585.712800 0.8910 0.8910 0.8910 0.8890 0.8910
1592.176325 0.8910 0.8910 0.8910 0.8910 0.8910
1598.639850 0.8910 0.8910 0.8910 0.8910 0.8910
1605.103375 0.8910 0.8910 0.8910 0.8910 0.8910
1611.566900 0.8893 0.8890 0.8890 0.8890 0.8890
1618.030425 0.8882 0.8880 0.8880 0.8880 0.8872
1624.493950 0.8870 0.8870 0.8870 0.8855 0.8850
1630.957475 0.8842 0.8848 0.8850 0.8850 0.8850
1637.421000 0.8850 0.8850 0.8850 0.8864 0.8870
1643.884525 0.8870 0.8870 0.8877 0.8880 0.8880
1650.348050 0.8880 0.8880 0.8880 0.8880 0.8880
1656.811575 0.8880 0.8880 0.8880 0.8880 0.8880
1663.275100 0.8880 0.8880 0.8880 0.8880 0.8880
1669.738625 0.8885 0.8890 0.8890 0.8885 0.8885
1676.202150 0.8890 0.8890 0.8890 0.8890 0.8890
1682.665675 0.8890 0.8890 0.8899 0.8910 0.8910
1689.129200 0.8910 0.8910 0.8910 0.8910 0.8910
1695.592725 0.8914 0.8920 0.8920 0.8923 0.8930
1702.056250 0.8930 0.8933 0.8940 0.8940 0.8940
1708.519775 0.8946 0.8963 0.8973 0.8985 0.9003
1714.983300 0.9012 0.9025 0.9042 0.9050 0.9050
1721.446825 0.9050 0.9050 0.9050 0.9050 0.9052
1727.910350 0.9060 0.9060 0.9060 0.9061 0.9070
1734.373875 0.9070 0.9070 0.9070 0.9070 0.9070
1740.837400 0.9070 0.9070 0.9070 0.9070 0.9070
1747.300925 0.9070 0.9070 0.9070 0.9070 0.9070
1753.764450 0.9070 0.9070 0.9070 0.9070 0.9060
1760.227975 0.9060 0.9060 0.9060 0.9050 0.9050
1766.691500 0.9050 0.9050 0.9041 0.9040 0.9040
1773.155025 0.9022 0.9020 0.9020 0.9020 0.9003
1779.618550 0.9000 0.9000 0.9000 0.9000 0.9000
1786.082075 0.9000 0.9000 0.9000 0.9000 0.9000
1792.545600 0.9000 0.8985 0.8980 0.8980 0.8980
1799.009125 0.8980 0.8980 0.8994 0.9000 0.9000
1805.472650 0.9000 0.8986 0.8980 0.8980 0.8980
1811.936175 0.8980 0.8980 0.8980 0.8980 0.8980
1818.399700 0.8980 0.8980 0.8980 0.8980 0.8992
1824.863225 0.9006 0.9010 0.9010 0.9010 0.9015
1831.326750 0.9020 0.9020 0.9030 0.9040 0.9030
1837.790275 0.9020 0.9015 0.9010 0.9010 0.9015
1844.253800 0.9020 0.9020 0.9020 0.9020 0.9020
1850.717325 0.9020 0.9020 0.9020 0.9032 0.9050
1857.180850 0.9046 0.9040 0.9040 0.9040 0.9040
1863.644375 0.9033 0.9020 0.9017 0.9010 0.9010
1870.107900 0.9010 0.9010 0.9010 0.9010 0.9010
1876.571425 0.9007 0.9000 0.9000 0.9002 0.9008
1883.034950 0.9000 0.9000 0.8996 0.8980 0.8980
1889.498475 0.8978 0.8968 0.8960 0.8957 0.8940
1895.962000 0.8940 0.8940 0.8940 0.8940 0.8940
1902.425525 0.8940 0.8940 0.8940 0.8940 0.8940
1908.889050 0.8940 0.8940 0.8940 0.8940 0.8941
1915.352575 0.8960 0.8960 0.8960 0.8960 0.8970
1921.816100 0.8970 0.8970 0.8980 0.8980 0.8980
1928.279625 0.8980 0.8980 0.8980 0.8980 0.8980
1934.743150 0.8980 0.8980 0.8980 0.8998 0.9000
1941.206675 0.9000 0.9009 0.9010 0.9010 0.9018
1947.670200 0.9020 0.9020 0.9020 0.9020 0.9020
1954.133725 0.9020 0.9020 0.9020 0.9012 0.9010
1960.597250 0.9002 0.9000 0.9000 0.9000 0.8986
1967.060775 0.8980 0.8980 0.8980 0.8980 0.8980
1973.524300 0.8980 0.8980 0.8980 0.8980 0.8980
1979.987825 0.8980 0.8980 0.8980 0.8980 0.8980
1986.451350 0.8980 0.8992 0.8988 0.8980 0.8980
1992.914875 0.8980 0.8980 0.8980 0.8980 0.8980
1999.378400 0.8980 0.8980 0.8980 0.8980 0.8975
2005.841925 0.8970 0.8970 0.8970 0.8970 0.8970
2012.305450 0.8970 0.8970 0.8970 0.8970 0.8970
2018.768975 0.8965 0.8960 0.8960 0.8960 0.8960
2025.232500 0.8960 0.8960 0.8960 0.8960 0.8960
2031.696025 0.8960 0.8960 0.8960 0.8960 0.8960
2038.159550 0.8960 0.8960 0.8960 0.8960 0.8960
2044.623075 0.8960 0.8960 0.8960 0.8960 0.8960
2051.086600 0.8960 0.8960 0.8960 0.8950 0.8940
2057.550125 0.8940 0.8940 0.8940 0.8940 0.8940
2064.013650 0.8940 0.8940 0.8940 0.8940 0.8935
2070.477175 0.8930 0.8930 0.8930 0.8930 0.8930
2076.940700 0.8930 0.8930 0.8930 0.8930 0.8925
2083.404225 0.8920 0.8920 0.8920 0.8920 0.8920
2089.867750 0.8920 0.8920 0.8915 0.8910 0.8910
2096.331275 0.8910 0.8910 0.8910 0.8910 0.8900
2102.794800 0.8890 0.8900 0.8910 0.8910 0.8910
2109.258325 0.8910 0.8910 0.8900 0.8900 0.8910
2115.721850 0.8910 0.8910 0.8910 0.8910 0.8910
2122.185375 0.8910 0.8910 0.8910 0.8910 0.8910
2128.648900 0.8910 0.8910 0.8910 0.8910 0.8915
2135.112425 0.8920 0.8920 0.8920 0.8920 0.8925
2141.575950 0.8930 0.8930 0.8930 0.8930 0.8935
2148.039475 0.8940 0.8940 0.8940 0.8940 0.8940
2154.503000 0.8940 0.8940 0.8940 0.8940 0.8940
2160.966525 0.8940 0.8940 0.8940 0.8940 0.8940
2167.430050 0.8940 0.8940 0.8940 0.8940 0.8940
2173.893575 0.8940 0.8940 0.8940 0.8935 0.8930
2180.357100 0.8930 0.8930 0.8930 0.8930 0.8925
2186.820625 0.8920 0.8920 0.8920 0.8915 0.8910
2193.284150 0.8910 0.8910 0.8910 0.8900 0.8900
2199.747675 0.8910 0.8900 0.8890 0.8885 0.8880
2206.211200 0.8875 0.8870 0.8870 0.8860 0.8845
2212.674725 0.8835 0.8830 0.8830 0.8830 0.8820
2219.138250 0.8810 0.8810 0.8805 0.8800 0.8800
2225.601775 0.8800 0.8795 0.8790 0.8785 0.8765
2232.065300 0.8729 0.8700 0.8680 0.8649 0.8625
2238.528825 0.8605 0.8575 0.8539 0.8499 0.8398
2244.992350 0.8253 0.8180 0.8123 0.8013 0.7862
2251.455875 0.7672 0.7462 0.7242 0.7002 0.6757
2257.919400 0.6511 0.6307 0.6173 0.6063 0.6005
2264.382925 0.6005 0.6072 0.6176 0.6287 0.6468
2270.846450 0.6678 0.6900 0.7186 0.7464 0.7626
2277.309975 0.7773 0.7968 0.8142 0.8287 0.8442
2283.773500 0.8571 0.8636 0.8676 0.8706 0.8735
2290.237025 0.8776 0.8815 0.8830 0.8830 0.8835
2296.700550 0.8840 0.8845 0.8850 0.8860 0.8870
2303.164075 0.8870 0.8870 0.8870 0.8870 0.8870
2309.627600 0.8870 0.8860 0.8850 0.8845 0.8840
2316.091125 0.8840 0.8835 0.8830 0.8830 0.8820
2322.554650 0.8810 0.8810 0.8810 0.8810 0.8810
2329.018175 0.8810 0.8810 0.8810 0.8810 0.8810
2335.481700 0.8810 0.8810 0.8810 0.8810 0.8810
2341.945225 0.8810 0.8810 0.8810 0.8810 0.8810
2348.408750 0.8810 0.8810 0.8810 0.8810 0.8810
2354.872275 0.8810 0.8810 0.8810 0.8810 0.8810
2361.335800 0.8810 0.8810 0.8810 0.8810 0.8820
2367.799325 0.8830 0.8840 0.8860 0.8870 0.8870
2374.262850 0.8870 0.8870 0.8870 0.8870 0.8870
2380.726375 0.8870 0.8870 0.8860 0.8845 0.8840
2387.189900 0.8835 0.8820 0.8810 0.8810 0.8820
2393.653425 0.8820 0.8810 0.8810 0.8810 0.8810
2400.116950 0.8805 0.8800 0.8800 0.8800 0.8800
2406.580475 0.8795 0.8790 0.8790 0.8790 0.8790
2413.044000 0.8790 0.8790 0.8790 0.8790 0.8790
2419.507525 0.8795 0.8795 0.8790 0.8785 0.8780
2425.971050 0.8780 0.8770 0.8755 0.8755 0.8760
2432.434575 0.8760 0.8760 0.8760 0.8760 0.8760
2438.898100 0.8760 0.8760 0.8760 0.8760 0.8755
2445.361625 0.8750 0.8750 0.8750 0.8750 0.8750
2451.825150 0.8750 0.8750 0.8750 0.8750 0.8750
2458.288675 0.8750 0.8750 0.8750 0.8750 0.8750
2464.752200 0.8750 0.8750 0.8750 0.8750 0.8750
2471.215725 0.8750 0.8750 0.8750 0.8750 0.8750
2477.679250 0.8750 0.8750 0.8750 0.8750 0.8750
2484.142775 0.8750 0.8755 0.8760 0.8770 0.8780
2490.606300 0.8780 0.8780 0.8780 0.8780 0.8780
2497.069825 0.8780 0.8780 0.8780 0.8780 0.8780
2503.533350 0.8780 0.8780 0.8770 0.8760 0.8760
2509.996875 0.8760 0.8760 0.8755 0.8750 0.8745
2516.460400 0.8740 0.8740 0.8740 0.8745 0.8755
2522.923925 0.8760 0.8760 0.8760 0.8750 0.8745
2529.387450 0.8750 0.8755 0.8760 0.8760 0.8760
2535.850975 0.8760 0.8760 0.8760 0.8760 0.8760
2542.314500 0.8760 0.8760 0.8760 0.8760 0.8760
2548.778025 0.8760 0.8760 0.8760 0.8760 0.8750
2555.241550 0.8730 0.8715 0.8700 0.8680 0.8670
2561.705075 0.8670 0.8670 0.8670 0.8670 0.8670
2568.168600 0.8670 0.8670 0.8670 0.8680 0.8695
2574.632125 0.8700 0.8700 0.8700 0.8705 0.8710
2581.095650 0.8715 0.8720 0.8715 0.8710 0.8710
2587.559175 0.8710 0.8710 0.8710 0.8705 0.8695
2594.022700 0.8690 0.8690 0.8680 0.8680 0.8680
2600.486225 0.8665 0.8660 0.8660 0.8655 0.8640
2606.949750 0.8625 0.8620 0.8620 0.8620 0.8615
2613.413275 0.8610 0.8610 0.8600 0.8590 0.8590
2619.876800 0.8590 0.8590 0.8590 0.8590 0.8590
2626.340325 0.8590 0.8590 0.8590 0.8590 0.8590
2632.803850 0.8590 0.8590 0.8590 0.8600 0.8610
2639.267375 0.8610 0.8610 0.8600 0.8590 0.8590
2645.730900 0.8590 0.8590 0.8585 0.8575 0.8570
2652.194425 0.8570 0.8575 0.8580 0.8580 0.8580
2658.657950 0.8580 0.8575 0.8565 0.8560 0.8560
2665.121475 0.8560 0.8565 0.8570 0.8565 0.8565
2671.585000 0.8570 0.8565 0.8560 0.8560 0.8560
2678.048525 0.8560 0.8560 0.8560 0.8560 0.8560
2684.512050 0.8560 0.8560 0.8560 0.8560 0.8560
2690.975575 0.8550 0.8540 0.8540 0.8540 0.8540
2697.439100 0.8540 0.8540 0.8535 0.8535 0.8535
2703.902625 0.8530 0.8530 0.8530 0.8530 0.8530
2710.366150 0.8515 0.8495 0.8490 0.8474 0.8460
2716.829675 0.8460 0.8460 0.8455 0.8445 0.8440
2723.293200 0.8440 0.8440 0.8440 0.8440 0.8440
2729.756725 0.8440 0.8440 0.8440 0.8440 0.8440
2736.220250 0.8440 0.8440 0.8445 0.8445 0.8440
2742.683775 0.8435 0.8430 0.8430 0.8430 0.8430
2749.147300 0.8430 0.8430 0.8430 0.8420 0.8405
2755.610825 0.8400 0.8395 0.8390 0.8375 0.8355
2762.074350 0.8350 0.8350 0.8350 0.8340 0.8325
2768.537875 0.8320 0.8310 0.8300 0.8300 0.8290
2775.001400 0.8280 0.8280 0.8275 0.8265 0.8245
2781.464925 0.8225 0.8215 0.8210 0.8200 0.8190
2787.928450 0.8185 0.8175 0.8170 0.8160 0.8145
2794.391975 0.8135 0.8130 0.8130 0.8120 0.8110
2800.855500 0.8105 0.8100 0.8095 0.8090 0.8090
2807.319025 0.8085 0.8080 0.8059 0.8025 0.8005
2813.782550 0.7985 0.7960 0.7940 0.7925 0.7925
2820.246075 0.7925 0.7915 0.7910 0.7900 0.7890
2826.709600 0.7880 0.7870 0.7854 0.7835 0.7825
2833.173125 0.7805 0.7775 0.7755 0.7750 0.7750
2839.636650 0.7745 0.7740 0.7735 0.7720 0.7710
2846.100175 0.7710 0.7710 0.7689 0.7660 0.7630
2852.563700 0.7610 0.7605 0.7590 0.7575 0.7570
2859.027225 0.7565 0.7550 0.7540 0.7530 0.7510
2865.490750 0.7495 0.7490 0.7480 0.7439 0.7395
2871.954275 0.7349 0.7299 0.7265 0.7229 0.7200
2878.417800 0.7138 0.7017 0.6883 0.6753 0.6675
2884.881325 0.6639 0.6610 0.6569 0.6509 0.6465
2891.344850 0.6450 0.6440 0.6425 0.6420 0.6410
2897.808375 0.6395 0.6390 0.6390 0.6395 0.6400
2904.271900 0.6410 0.6425 0.6430 0.6435 0.6445
2910.735425 0.6465 0.6480 0.6495 0.6515 0.6541
2917.198950 0.6570 0.6580 0.6590 0.6600 0.6600
2923.662475 0.6600 0.6590 0.6580 0.6559 0.6525
2930.126000 0.6510 0.6500 0.6490 0.6490 0.6485
2936.589525 0.6475 0.6460 0.6450 0.6450 0.6450
2943.053050 0.6450 0.6450 0.6450 0.6450 0.6450
2949.516575 0.6450 0.6450 0.6450 0.6450 0.6450
2955.980100 0.6450 0.6450 0.6450 0.6450 0.6450
2962.443625 0.6450 0.6460 0.6470 0.6475 0.6480
2968.907150 0.6485 0.6500 0.6515 0.6546 0.6585
2975.370675 0.6621 0.6655 0.6701 0.6751 0.6816
2981.834200 0.6881 0.6973 0.7050 0.7091 0.7156
2988.297725 0.7278 0.7406 0.7471 0.7505 0.7530
2994.761250 0.7555 0.7596 0.7667 0.7746 0.7811
3001.224775 0.7876 0.7931 0.7960 0.7970 0.7996
3007.688300 0.8051 0.8085 0.8095 0.8105 0.8110
3014.151825 0.8110 0.8110 0.8110 0.8110 0.8110
3020.615350 0.8110 0.8110 0.8110 0.8110 0.8110
3027.078875 0.8110 0.8120 0.8130 0.8120 0.8110
3033.542400 0.8105 0.8100 0.8100 0.8100 0.8100
3040.005925 0.8100 0.8100 0.8100 0.8100 0.8100
3046.469450 0.8100 0.8100 0.8100 0.8095 0.8090
3052.932975 0.8090 0.8090 0.8090 0.8090 0.8090
3059.396500 0.8090 0.8090 0.8085 0.8070 0.8055
3065.860025 0.8045 0.8030 0.8010 0.7990 0.7980
3072.323550 0.7980 0.7980 0.7980 0.7980 0.7975
3078.787075 0.7960 0.7950 0.7940 0.7925 0.7915
3085.250600 0.7900 0.7890 0.7885 0.7865 0.7845
3091.714125 0.7835 0.7825 0.7820 0.7820 0.7820
3098.177650 0.7810 0.7795 0.7785 0.7765 0.7745
3104.641175 0.7740 0.7740 0.7740 0.7740 0.7740
3111.104700 0.7740 0.7740 0.7740 0.7740 0.7735
3117.568225 0.7730 0.7730 0.7730 0.7715 0.7700
3124.031750 0.7700 0.7695 0.7690 0.7680 0.7670
3130.495275 0.7670 0.7665 0.7655 0.7635 0.7620
3136.958800 0.7620 0.7610 0.7579 0.7539 0.7510
3143.422325 0.7500 0.7495 0.7490 0.7485 0.7475
3149.885850 0.7455 0.7435 0.7420 0.7405 0.7400
3156.349375 0.7400 0.7395 0.7385 0.7380 0.7365
3162.812900 0.7345 0.7324 0.7294 0.7280 0.7265
3169.276425 0.7209 0.7129 0.7085 0.7065 0.7019
3175.739950 0.6980 0.6960 0.6914 0.6828 0.6759
3182.203475 0.6740 0.6735 0.6730 0.6720 0.6705
3188.667000 0.6695 0.6680 0.6670 0.6660 0.6629
3195.130525 0.6605 0.6569 0.6525 0.6479 0.6440
3201.594050 0.6430 0.6425 0.6404 0.6385 0.6370
3208.057575 0.6350 0.6340 0.6325 0.6305 0.6300
3214.521100 0.6285 0.6239 0.6200 0.6180 0.6155
