##TITLE=FORMIC ACID, ETHYL ESTER
##JCAMP-DX=4.24
##DATA TYPE=INFRARED SPECTRUM
##CLASS=COBLENTZ
##ORIGIN=DOW CHEMICAL COMPANY
##OWNER=COBLENTZ SOCIETY
Collection (C) 2018 copyright by the U.S. Secretary of Commerce
on behalf of the United States of America. All rights reserved.
##DATE=1964
##NAMES=ethyl formate
ETHYL FORMATE
##CAS REGISTRY NO=109-94-4
##MOLFORM=C3 H6 O2
##SOURCE REFERENCE=COBLENTZ NO. 8776
##$NIST SOURCE=COBLENTZ
##$NIST IMAGE=cob-r8776
##SPECTROMETER/DATA SYSTEM=DOW KBr FOREPRISM-GRATING
##INSTRUMENT PARAMETERS=GRATING CHANGED AT 5.0, 7.5, 15.0 MICRON
##STATE=GAS (50 mmHg, N2 ADDED, TOTAL PRESSURE 600 mmHg)
##PATH LENGTH=5 CM
##SAMPLING PROCEDURE=TRANSMISSION
##RESOLUTION=2
##DATA PROCESSING=DIGITIZED BY NIST FROM HARD COPY (FROM TWO SEGMENTS)
##XUNITS=1/CM
##YUNITS=TRANSMITTANCE
##XFACTOR=1.000000
##YFACTOR=1
##DELTAX=0.935310
##FIRSTX=392.206
##LASTX=3783.64
##FIRSTY=0.92
##MAXX=3783.64
##MINX=392.206
##MAXY=1.026
##MINY=0.001
##NPOINTS=3627
##XYDATA=(X++(Y..Y))
392.206000 0.9200 0.9200 0.9200 0.9200 0.9200
396.882552 0.9200 0.9200 0.9200 0.9200 0.9200
401.559105 0.9200 0.9200 0.9200 0.9200 0.9200
406.235657 0.9190 0.9190 0.9190 0.9190 0.9190
410.912209 0.9190 0.9160 0.9160 0.9160 0.9170
415.588761 0.9170 0.9170 0.9170 0.9170 0.9170
420.265314 0.9160 0.9160 0.9160 0.9160 0.9140
424.941866 0.9140 0.9130 0.9130 0.9130 0.9110
429.618418 0.9080 0.9060 0.9010 0.8980 0.8950
434.294970 0.8940 0.8920 0.8920 0.8880 0.8850
438.971523 0.8820 0.8810 0.8780 0.8760 0.8730
443.648075 0.8720 0.8690 0.8670 0.8640 0.8630
448.324627 0.8600 0.8590 0.8560 0.8560 0.8540
453.001180 0.8540 0.8540 0.8530 0.8530 0.8540
457.677732 0.8540 0.8560 0.8560 0.8570 0.8600
462.354284 0.8630 0.8660 0.8690 0.8700 0.8750
467.030836 0.8790 0.8820 0.8850 0.8910 0.8940
471.707389 0.9000 0.9060 0.9110 0.9140 0.9200
476.383941 0.9260 0.9330 0.9350 0.9380 0.9440
481.060493 0.9500 0.9550 0.9580 0.9610 0.9640
485.737045 0.9690 0.9720 0.9770 0.9790 0.9800
490.413598 0.9850 0.9880 0.9890 0.9910 0.9920
495.090150 0.9950 0.9950 0.9970 0.9970 0.9970
499.766702 0.9980 1.0000 1.0000 1.0010 1.0010
504.443254 1.0020 1.0020 1.0020 1.0020 1.0020
509.119807 1.0020 1.0020 1.0040 1.0040 1.0040
513.796359 1.0040 1.0040 1.0040 1.0050 1.0050
518.472911 1.0050 1.0050 1.0050 1.0050 1.0050
523.149464 1.0050 1.0050 1.0050 1.0070 1.0080
527.826016 1.0080 1.0100 1.0100 1.0100 1.0100
532.502568 1.0110 1.0110 1.0110 1.0110 1.0110
537.179120 1.0130 1.0130 1.0130 1.0110 1.0100
541.855673 1.0100 1.0100 1.0100 1.0100 1.0110
546.532225 1.0110 1.0110 1.0110 1.0110 1.0130
551.208777 1.0130 1.0130 1.0140 1.0140 1.0140
555.885329 1.0130 1.0130 1.0110 1.0110 1.0130
560.561882 1.0130 1.0130 1.0130 1.0110 1.0110
565.238434 1.0100 1.0100 1.0100 1.0100 1.0100
569.914986 1.0100 1.0100 1.0100 1.0100 1.0080
574.591539 1.0080 1.0080 1.0080 1.0080 1.0100
579.268091 1.0100 1.0110 1.0110 1.0110 1.0100
583.944643 1.0100 1.0100 1.0100 1.0100 1.0100
588.621195 1.0080 1.0080 1.0070 1.0040 1.0020
593.297748 1.0010 1.0010 1.0010 1.0010 1.0010
597.974300 1.0010 1.0010 1.0000 1.0000 0.9980
602.650852 0.9970 0.9950 0.9920 0.9910 0.9910
607.327404 0.9890 0.9890 0.9880 0.9860 0.9860
612.003957 0.9880 0.9880 0.9880 0.9880 0.9880
616.680509 0.9860 0.9860 0.9860 0.9880 0.9890
621.357061 0.9910 0.9910 0.9910 0.9910 0.9910
626.033614 0.9890 0.9860 0.9800 0.9750 0.9630
630.710166 0.9530 0.9440 0.9420 0.9420 0.9470
635.386718 0.9500 0.9540 0.9540 0.9550 0.9550
640.063270 0.9600 0.9690 0.9790 0.9820 0.9880
644.739823 0.9890 0.9910 0.9920 0.9920 0.9920
649.416375 0.9940 0.9940 0.9980 0.9980 0.9980
654.092927 0.9970 0.9970 0.9970 0.9950 0.9950
658.769479 0.9950 1.0020 1.0020 1.0040 1.0050
663.446032 1.0050 1.0070 1.0070 1.0080 1.0080
668.122584 1.0100 1.0100 1.0110 1.0110 1.0130
672.799136 1.0130 1.0140 1.0140 1.0160 1.0160
677.475688 1.0160 1.0170 1.0170 1.0190 1.0190
682.152241 1.0200 1.0200 1.0200 1.0200 1.0220
686.828793 1.0220 1.0220 1.0230 1.0230 1.0230
691.505345 1.0240 1.0240 1.0240 1.0240 1.0240
696.181898 1.0240 1.0260 1.0260 1.0260 1.0260
700.858450 1.0260 1.0260 1.0260 1.0260 1.0260
705.535002 1.0260 1.0260 1.0260 1.0260 1.0260
710.211554 1.0260 1.0260 1.0260 1.0260 1.0260
714.888107 1.0240 1.0240 1.0240 1.0230 1.0220
719.564659 1.0190 1.0160 1.0110 1.0100 1.0080
724.241211 1.0040 1.0020 1.0010 1.0010 1.0000
728.917763 0.9980 0.9970 0.9910 0.9860 0.9800
733.594316 0.9800 0.9770 0.9770 0.9690 0.9660
738.270868 0.9640 0.9640 0.9630 0.9630 0.9630
742.947420 0.9630 0.9630 0.9630 0.9630 0.9630
747.623973 0.9610 0.9610 0.9600 0.9600 0.9580
752.300525 0.9580 0.9580 0.9600 0.9600 0.9630
756.977077 0.9630 0.9660 0.9690 0.9700 0.9720
761.653629 0.9760 0.9770 0.9790 0.9820 0.9830
766.330182 0.9880 0.9890 0.9910 0.9920 0.9950
771.006734 1.0000 1.0010 1.0020 1.0040 1.0050
775.683286 1.0050 1.0070 1.0080 1.0100 1.0100
780.359838 1.0110 1.0110 1.0100 1.0100 1.0080
785.036391 1.0080 1.0080 1.0070 1.0070 1.0050
789.712943 1.0040 1.0020 1.0010 1.0000 1.0000
794.389495 0.9980 0.9970 0.9950 0.9920 0.9890
799.066048 0.9890 0.9880 0.9830 0.9800 0.9750
803.742600 0.9720 0.9690 0.9640 0.9630 0.9600
808.419152 0.9570 0.9540 0.9510 0.9500 0.9470
813.095704 0.9440 0.9410 0.9380 0.9360 0.9260
817.772257 0.9230 0.9170 0.9100 0.8980 0.8920
822.448809 0.8860 0.8810 0.8750 0.8720 0.8630
827.125361 0.8540 0.8500 0.8390 0.8310 0.8121
831.801913 0.8000 0.7910 0.7840 0.7780 0.7750
836.478466 0.7730 0.7700 0.7690 0.7660 0.7650
841.155018 0.7630 0.7630 0.7620 0.7620 0.7630
845.831570 0.7790 0.7780 0.7760 0.7750 0.7750
850.508122 0.7750 0.7760 0.7760 0.7790 0.7840
855.184675 0.7900 0.7970 0.8060 0.8140 0.8190
859.861227 0.8320 0.8420 0.8560 0.8670 0.8730
864.537779 0.8790 0.8910 0.8940 0.8970 0.9060
869.214332 0.9110 0.9230 0.9350 0.9420 0.9480
873.890884 0.9570 0.9570 0.9580 0.9580 0.9580
878.567436 0.9630 0.9700 0.9790 0.9820 0.9830
883.243988 0.9850 0.9880 0.9890 0.9890 0.9890
887.920541 0.9880 0.9880 0.9880 0.9890 0.9920
892.597093 0.9950 0.9970 0.9970 0.9970 1.0000
897.273645 1.0010 1.0020 1.0020 1.0040 1.0050
901.950197 1.0070 1.0080 1.0080 1.0100 1.0130
906.626750 1.0140 1.0160 1.0170 1.0190 1.0190
911.303302 1.0200 1.0200 1.0220 1.0220 1.0220
915.979854 1.0220 1.0230 1.0230 1.0230 1.0230
920.656407 1.0230 1.0220 1.0220 1.0220 1.0200
925.332959 1.0200 1.0200 1.0200 1.0200 1.0220
930.009511 1.0220 1.0230 1.0230 1.0230 1.0230
934.686063 1.0230 1.0230 1.0230 1.0230 1.0240
939.362616 1.0240 1.0240 1.0240 1.0240 1.0240
944.039168 1.0240 1.0240 1.0240 1.0240 1.0240
948.715720 1.0240 1.0240 1.0230 1.0230 1.0230
953.392272 1.0230 1.0230 1.0230 1.0220 1.0220
958.068825 1.0200 1.0200 1.0190 1.0170 1.0170
962.745377 1.0160 1.0160 1.0160 1.0140 1.0130
967.421929 1.0100 1.0050 1.0040 1.0020 1.0000
972.098482 0.9970 0.9940 0.9910 0.9860 0.9820
976.775034 0.9790 0.9690 0.9610 0.9570 0.9500
981.451586 0.9420 0.9350 0.9250 0.9160 0.9060
986.128138 0.8980 0.8860 0.8750 0.8690 0.8560
990.804691 0.8370 0.8170 0.7970 0.7810 0.7670
995.481243 0.7410 0.7230 0.7130 0.7100 0.6931
1000.157795 0.6720 0.6660 0.6590 0.6490 0.6460
1004.834347 0.6460 0.6460 0.6430 0.6380 0.6340
1009.510900 0.6290 0.6240 0.6210 0.6210 0.6220
1014.187452 0.6270 0.6310 0.6350 0.6400 0.6440
1018.864004 0.6460 0.6510 0.6570 0.6600 0.6570
1023.540556 0.6540 0.6540 0.6570 0.6899 0.7179
1028.217109 0.7280 0.7380 0.7470 0.7540 0.7570
1032.893661 0.7600 0.7620 0.7620 0.7620 0.7620
1037.570213 0.7620 0.7600 0.7600 0.7590 0.7590
1042.246766 0.7590 0.7590 0.7570 0.7570 0.7570
1046.923318 0.7560 0.7560 0.7560 0.7560 0.7560
1051.599870 0.7560 0.7570 0.7570 0.7570 0.7590
1056.276422 0.7590 0.7620 0.7650 0.7660 0.7700
1060.952975 0.7570 0.7480 0.7380 0.7260 0.7350
1065.629527 0.7440 0.7440 0.7430 0.7410 0.7310
1070.306079 0.7190 0.7130 0.7090 0.7070 0.7010
1074.982631 0.6980 0.6960 0.6930 0.6910 0.6910
1079.659184 0.6880 0.6880 0.6880 0.6850 0.6840
1084.335736 0.6840 0.6840 0.6820 0.6820 0.6840
1089.012288 0.6840 0.6870 0.6940 0.6980 0.6980
1093.688841 0.7000 0.7010 0.7010 0.7030 0.7030
1098.365393 0.7010 0.6980 0.6940 0.6850 0.6840
1103.041945 0.6790 0.6599 0.6041 0.6690 0.6710
1107.718497 0.6710 0.6650 0.6560 0.6490 0.6460
1112.395050 0.6410 0.6340 0.6310 0.6280 0.6210
1117.071602 0.6150 0.6070 0.6060 0.6020 0.5821
1121.748154 0.5780 0.5620 0.5530 0.5500 0.5490
1126.424706 0.5470 0.5400 0.5370 0.5300 0.5250
1131.101259 0.5080 0.4910 0.4840 0.4680 0.4520
1135.777811 0.4220 0.4020 0.3750 0.3521 0.2732
1140.454363 0.2169 0.1800 0.1550 0.1380 0.1230
1145.130916 0.1050 0.0930 0.0820 0.0730 0.0640
1149.807468 0.0580 0.0510 0.0450 0.0420 0.0420
1154.484020 0.0410 0.0390 0.0320 0.0220 0.0200
1159.160572 0.0190 0.0170 0.0160 0.0140 0.0130
1163.837125 0.0110 0.0100 0.0080 0.0070 0.0050
1168.513677 0.0050 0.0040 0.0040 0.0040 0.0040
1173.190229 0.0040 0.0040 0.0040 0.0040 0.0040
1177.866781 0.0040 0.0050 0.0050 0.0050 0.0050
1182.543334 0.0050 0.0050 0.0050 0.0050 0.0070
1187.219886 0.0070 0.0070 0.0070 0.0070 0.0070
1191.896438 0.0080 0.0100 0.0100 0.0100 0.0100
1196.572990 0.0100 0.0110 0.0130 0.0140 0.0140
1201.249543 0.0160 0.0170 0.0200 0.0220 0.0270
1205.926095 0.0350 0.0451 0.1020 0.1100 0.1550
1210.602647 0.1960 0.2330 0.2669 0.2979 0.3249
1215.279200 0.3501 0.3720 0.3930 0.4120 0.4280
1219.955752 0.4430 0.4840 0.5130 0.5250 0.5499
1224.632304 0.5650 0.5820 0.6020 0.6070 0.6180
1229.308856 0.6270 0.6380 0.6490 0.6600 0.6680
1233.985409 0.6791 0.7060 0.7200 0.7290 0.7430
1238.661961 0.7570 0.7660 0.7780 0.7940 0.8120
1243.338513 0.8200 0.8320 0.8350 0.8390 0.8420
1248.015065 0.8500 0.8510 0.8510 0.8560 0.8660
1252.691618 0.8700 0.8720 0.8720 0.8730 0.8750
1257.368170 0.8780 0.8790 0.8810 0.8810 0.8850
1262.044722 0.8860 0.8860 0.8880 0.8880 0.8890
1266.721275 0.8890 0.8890 0.8890 0.8880 0.8880
1271.397827 0.8860 0.8860 0.8860 0.8860 0.8860
1276.074379 0.8850 0.8830 0.8820 0.8810 0.8790
1280.750931 0.8780 0.8760 0.8730 0.8730 0.8720
1285.427484 0.8660 0.8610 0.8590 0.8560 0.8540
1290.104036 0.8450 0.8350 0.8200 0.8010 0.7950
1294.780588 0.7790 0.7720 0.7590 0.7500 0.7480
1299.457140 0.7500 0.7510 0.7530 0.7530 0.7510
1304.133693 0.7510 0.7450 0.7370 0.7310 0.7230
1308.810245 0.7011 0.7232 0.7790 0.7810 0.7790
1313.486797 0.7790 0.7780 0.7780 0.7790 0.7810
1318.163350 0.7940 0.7980 0.8160 0.8310 0.8450
1322.839902 0.8590 0.8730 0.8830 0.8850 0.8920
1327.516454 0.9000 0.9130 0.9140 0.9190 0.9230
1332.193006 0.9300 0.9320 0.9330 0.9330 0.9330
1336.869559 0.9330 0.9320 0.9320 0.9300 0.9290
1341.546111 0.9280 0.9250 0.9230 0.9200 0.9170
1346.222663 0.9140 0.9130 0.9110 0.9100 0.9080
1350.899215 0.9010 0.8970 0.8920 0.8850 0.8820
1355.575768 0.8780 0.8750 0.8750 0.8720 0.8700
1360.252320 0.8640 0.8600 0.8570 0.8530 0.8510
1364.928872 0.8440 0.8370 0.8340 0.8320 0.8230
1369.605424 0.8200 0.8120 0.7920 0.7820 0.7780
1374.281977 0.7630 0.7510 0.7440 0.7230 0.7150
1378.958529 0.7040 0.6940 0.6780 0.6750 0.6740
1383.635081 0.6710 0.6710 0.6690 0.6690 0.6690
1388.311634 0.6660 0.6530 0.6350 0.6190 0.6280
1392.988186 0.6320 0.6460 0.6470 0.6500 0.6510
1397.664738 0.6530 0.6560 0.6570 0.6590 0.6630
1402.341290 0.6650 0.6660 0.6710 0.6740 0.6960
1407.017843 0.7100 0.7220 0.7290 0.7440 0.7730
1411.694395 0.7881 0.8060 0.8140 0.8260 0.8370
1416.370947 0.8470 0.8570 0.8690 0.8730 0.8750
1421.047499 0.8760 0.8760 0.8760 0.8760 0.8750
1425.724052 0.8750 0.8730 0.8720 0.8700 0.8690
1430.400604 0.8640 0.8610 0.8590 0.8540 0.8500
1435.077156 0.8450 0.8440 0.8380 0.8310 0.8290
1439.753709 0.8250 0.8190 0.8120 0.8070 0.8010
1444.430261 0.7970 0.7920 0.7850 0.7690 0.7650
1449.106813 0.7570 0.7500 0.7430 0.7350 0.7320
1453.783365 0.7350 0.7380 0.7400 0.7430 0.7440
1458.459918 0.7440 0.7450 0.7450 0.7470 0.7480
1463.136470 0.7500 0.7500 0.7500 0.7500 0.7500
1467.813022 0.7480 0.7480 0.7450 0.7450 0.7380
1472.489574 0.7280 0.6970 0.6970 0.7369 0.7450
1477.166127 0.7480 0.7510 0.7510 0.7530 0.7750
1481.842679 0.7820 0.7880 0.7940 0.7980 0.8040
1486.519231 0.8090 0.8120 0.8120 0.8130 0.8140
1491.195784 0.8220 0.8280 0.8380 0.8420 0.8450
1495.872336 0.8540 0.8630 0.8720 0.8760 0.8860
1500.548888 0.8920 0.9040 0.9130 0.9130 0.9140
1505.225440 0.9160 0.9170 0.9200 0.9280 0.9440
1509.901993 0.9480 0.9540 0.9580 0.9580 0.9600
1514.578545 0.9610 0.9630 0.9630 0.9640 0.9660
1519.255097 0.9660 0.9660 0.9690 0.9730 0.9760
1523.931649 0.9770 0.9790 0.9790 0.9800 0.9800
1528.608202 0.9800 0.9820 0.9820 0.9820 0.9820
1533.284754 0.9820 0.9800 0.9800 0.9790 0.9790
1537.961306 0.9760 0.9750 0.9770 0.9800 0.9830
1542.637858 0.9860 0.9880 0.9890 0.9890 0.9910
1547.314411 0.9910 0.9910 0.9910 0.9890 0.9890
1551.990963 0.9880 0.9860 0.9860 0.9850 0.9830
1556.667515 0.9800 0.9790 0.9790 0.9800 0.9830
1561.344068 0.9850 0.9880 0.9890 0.9890 0.9890
1566.020620 0.9890 0.9880 0.9880 0.9880 0.9880
1570.697172 0.9860 0.9860 0.9860 0.9860 0.9880
1575.373724 0.9890 0.9910 0.9910 0.9910 0.9910
1580.050277 0.9910 0.9890 0.9880 0.9880 0.9880
1584.726829 0.9880 0.9880 0.9880 0.9880 0.9860
1589.403381 0.9860 0.9850 0.9850 0.9850 0.9850
1594.079933 0.9850 0.9850 0.9850 0.9850 0.9850
1598.756486 0.9850 0.9830 0.9830 0.9820 0.9800
1603.433038 0.9800 0.9790 0.9800 0.9790 0.9790
1608.109590 0.9770 0.9770 0.9760 0.9750 0.9730
1612.786143 0.9690 0.9660 0.9640 0.9610 0.9610
1617.462695 0.9610 0.9610 0.9610 0.9600 0.9570
1622.139247 0.9570 0.9580 0.9580 0.9570 0.9570
1626.815799 0.9570 0.9570 0.9550 0.9550 0.9530
1631.492352 0.9510 0.9500 0.9480 0.9480 0.9510
1636.168904 0.9550 0.9570 0.9570 0.9580 0.9580
1640.845456 0.9580 0.9580 0.9570 0.9570 0.9570
1645.522008 0.9550 0.9550 0.9550 0.9550 0.9540
1650.198561 0.9500 0.9450 0.9480 0.9500 0.9510
1654.875113 0.9510 0.9510 0.9510 0.9510 0.9510
1659.551665 0.9500 0.9500 0.9480 0.9470 0.9470
1664.228218 0.9470 0.9440 0.9420 0.9410 0.9410
1668.904770 0.9410 0.9410 0.9410 0.9410 0.9390
1673.581322 0.9390 0.9390 0.9390 0.9390 0.9360
1678.257874 0.9350 0.9330 0.9290 0.9250 0.9190
1682.934427 0.9160 0.9160 0.9190 0.9190 0.9160
1687.610979 0.9140 0.9130 0.9110 0.9070 0.9010
1692.287531 0.8940 0.8830 0.8730 0.8660 0.8590
1696.964083 0.8540 0.8500 0.8310 0.8120 0.7940
1701.640636 0.7780 0.7660 0.7570 0.7500 0.7430
1706.317188 0.7370 0.7280 0.7150 0.6940 0.6820
1710.993740 0.6679 0.6399 0.6249 0.5909 0.5630
1715.670293 0.5350 0.5020 0.4770 0.4180 0.3970
1720.346845 0.3768 0.3198 0.2710 0.2550 0.2360
1725.023397 0.2169 0.1520 0.1230 0.0920 0.0850
1729.699949 0.0509 0.0220 0.0140 0.0080 0.0040
1734.376502 0.0020 0.0020 0.0010 0.0010 0.0020
1739.053054 0.0020 0.0040 0.0040 0.0040 0.0040
1743.729606 0.0050 0.0050 0.0070 0.0070 0.0070
1748.406158 0.0070 0.0070 0.0080 0.0100 0.0100
1753.082711 0.0100 0.0100 0.0100 0.0110 0.0110
1757.759263 0.0110 0.0110 0.0130 0.0130 0.0160
1762.435815 0.0220 0.0230 0.0300 0.0360 0.0520
1767.112367 0.1080 0.1171 0.1431 0.1761 0.2020
1771.788920 0.2210 0.2360 0.2420 0.2730 0.3230
1776.465472 0.3871 0.4152 0.4651 0.4863 0.5691
1781.142024 0.5970 0.6180 0.6290 0.6400 0.6500
1785.818577 0.6651 0.6811 0.6941 0.7161 0.7350
1790.495129 0.7480 0.7700 0.7810 0.7970 0.8120
1795.171681 0.8201 0.8340 0.8380 0.8500 0.8560
1799.848233 0.8690 0.8810 0.8940 0.9040 0.9140
1804.524786 0.9170 0.9250 0.9300 0.9320 0.9350
1809.201338 0.9350 0.9380 0.9410 0.9450 0.9480
1813.877890 0.9500 0.9500 0.9530 0.9550 0.9570
1818.554442 0.9580 0.9580 0.9580 0.9600 0.9610
1823.230995 0.9630 0.9630 0.9640 0.9640 0.9660
1827.907547 0.9670 0.9670 0.9690 0.9690 0.9700
1832.584099 0.9720 0.9730 0.9750 0.9750 0.9760
1837.260652 0.9770 0.9790 0.9790 0.9790 0.9800
1841.937204 0.9800 0.9800 0.9820 0.9820 0.9820
1846.613756 0.9830 0.9830 0.9830 0.9850 0.9850
1851.290308 0.9850 0.9860 0.9860 0.9860 0.9880
1855.966861 0.9880 0.9880 0.9890 0.9890 0.9890
1860.643413 0.9890 0.9890 0.9890 0.9890 0.9890
1865.319965 0.9890 0.9890 0.9890 0.9890 0.9890
1869.996517 0.9890 0.9890 0.9890 0.9890 0.9890
1874.673070 0.9890 0.9890 0.9890 0.9890 0.9890
1879.349622 0.9890 0.9880 0.9880 0.9880 0.9860
1884.026174 0.9860 0.9860 0.9850 0.9850 0.9850
1888.702727 0.9850 0.9850 0.9850 0.9850 0.9850
1893.379279 0.9830 0.9830 0.9830 0.9830 0.9830
1898.055831 0.9830 0.9830 0.9820 0.9820 0.9820
1902.732383 0.9820 0.9800 0.9800 0.9800 0.9800
1907.408936 0.9800 0.9800 0.9800 0.9800 0.9790
1912.085488 0.9790 0.9770 0.9770 0.9760 0.9760
1916.762040 0.9760 0.9760 0.9760 0.9760 0.9760
1921.438592 0.9750 0.9750 0.9750 0.9750 0.9750
1926.115145 0.9750 0.9750 0.9720 0.9720 0.9720
1930.791697 0.9720 0.9720 0.9720 0.9700 0.9700
1935.468249 0.9700 0.9700 0.9700 0.9700 0.9720
1940.144801 0.9720 0.9720 0.9720 0.9720 0.9720
1944.821354 0.9720 0.9720 0.9720 0.9720 0.9720
1949.497906 0.9720 0.9720 0.9700 0.9700 0.9690
1954.174458 0.9690 0.9670 0.9670 0.9660 0.9660
1958.851011 0.9640 0.9640 0.9640 0.9630 0.9630
1963.527563 0.9630 0.9600 0.9580 0.9570 0.9570
1968.204115 0.9550 0.9550 0.9530 0.9500 0.9470
1972.880667 0.9450 0.9440 0.9420 0.9410 0.9410
1977.557220 0.9390 0.9390 0.9390 0.9380 0.9360
1982.233772 0.9350 0.9320 0.9290 0.9290 0.9280
1986.910324 0.9280 0.9260 0.9260 0.9260 0.9260
1991.586876 0.9260 0.9260 0.9260 0.9260 0.9260
1996.263429 0.9280 0.9280 0.9280 0.9280 0.9280
2000.939981 0.9270 0.9260 0.9260 0.9260 0.9255
2005.616533 0.9250 0.9240 0.9230 0.9230 0.9230
2010.293086 0.9225 0.9220 0.9220 0.9220 0.9210
2014.969638 0.9200 0.9185 0.9170 0.9170 0.9170
2019.646190 0.9165 0.9160 0.9150 0.9140 0.9135
2024.322742 0.9130 0.9101 0.9071 0.9070 0.9070
2028.999295 0.9036 0.9001 0.8976 0.8951 0.8935
2033.675847 0.8920 0.8930 0.8940 0.8974 0.9009
2038.352399 0.9020 0.9030 0.9035 0.9040 0.9055
2043.028951 0.9070 0.9089 0.9109 0.9134 0.9159
2047.705504 0.9228 0.9297 0.9358 0.9418 0.9506
2052.382056 0.9596 0.9662 0.9727 0.9740 0.9750
2057.058608 0.9755 0.9760 0.9760 0.9760 0.9765
2061.735161 0.9770 0.9770 0.9770 0.9780 0.9790
2066.411713 0.9790 0.9790 0.9795 0.9800 0.9800
2071.088265 0.9800 0.9809 0.9819 0.9820 0.9820
2075.764817 0.9825 0.9830 0.9840 0.9850 0.9850
2080.441370 0.9850 0.9850 0.9850 0.9855 0.9860
2085.117922 0.9860 0.9860 0.9860 0.9860 0.9860
2089.794474 0.9860 0.9860 0.9860 0.9869 0.9879
2094.471026 0.9880 0.9880 0.9885 0.9890 0.9899
2099.147579 0.9909 0.9910 0.9910 0.9901 0.9891
2103.824131 0.9890 0.9890 0.9890 0.9890 0.9890
2108.500683 0.9890 0.9890 0.9890 0.9890 0.9890
2113.177235 0.9890 0.9890 0.9890 0.9890 0.9890
2117.853788 0.9890 0.9890 0.9890 0.9885 0.9880
2122.530340 0.9880 0.9880 0.9880 0.9880 0.9880
2127.206892 0.9880 0.9880 0.9880 0.9880 0.9880
2131.883445 0.9880 0.9880 0.9880 0.9880 0.9871
2136.559997 0.9861 0.9860 0.9860 0.9860 0.9860
2141.236549 0.9860 0.9860 0.9860 0.9860 0.9855
2145.913101 0.9850 0.9850 0.9850 0.9850 0.9850
2150.589654 0.9850 0.9850 0.9850 0.9850 0.9841
2155.266206 0.9831 0.9830 0.9830 0.9830 0.9830
2159.942758 0.9830 0.9830 0.9826 0.9821 0.9820
2164.619310 0.9820 0.9811 0.9801 0.9800 0.9800
2169.295863 0.9795 0.9790 0.9790 0.9790 0.9781
2173.972415 0.9771 0.9766 0.9761 0.9760 0.9760
2178.648967 0.9756 0.9751 0.9741 0.9731 0.9730
2183.325520 0.9730 0.9726 0.9721 0.9711 0.9701
2188.002072 0.9700 0.9700 0.9700 0.9700 0.9700
2192.678624 0.9700 0.9700 0.9700 0.9709 0.9719
2197.355176 0.9720 0.9720 0.9720 0.9720 0.9720
2202.031729 0.9720 0.9724 0.9729 0.9730 0.9730
2206.708281 0.9730 0.9730 0.9730 0.9730 0.9739
2211.384833 0.9749 0.9759 0.9769 0.9779 0.9789
2216.061385 0.9790 0.9790 0.9794 0.9799 0.9809
2220.737938 0.9819 0.9824 0.9829 0.9839 0.9849
2225.414490 0.9850 0.9850 0.9850 0.9850 0.9850
2230.091042 0.9850 0.9850 0.9850 0.9854 0.9859
2234.767595 0.9860 0.9860 0.9860 0.9860 0.9860
2239.444147 0.9860 0.9860 0.9860 0.9860 0.9860
2244.120699 0.9860 0.9860 0.9860 0.9860 0.9860
2248.797251 0.9860 0.9860 0.9860 0.9856 0.9851
2253.473804 0.9850 0.9850 0.9850 0.9850 0.9850
2258.150356 0.9850 0.9842 0.9832 0.9830 0.9830
2262.826908 0.9830 0.9830 0.9830 0.9830 0.9826
2267.503460 0.9821 0.9820 0.9820 0.9820 0.9820
2272.180013 0.9812 0.9802 0.9800 0.9800 0.9800
2276.856565 0.9800 0.9800 0.9800 0.9800 0.9800
2281.533117 0.9800 0.9800 0.9796 0.9791 0.9790
2286.209669 0.9790 0.9782 0.9772 0.9766 0.9761
2290.886222 0.9760 0.9760 0.9760 0.9760 0.9760
