##TITLE=Cyclohexene
##JCAMP-DX=4.24
##DATA TYPE=INFRARED SPECTRUM
##CLASS=COBLENTZ
##ORIGIN=DOW CHEMICAL COMPANY
##OWNER=Copyright (C) 1987 by the Coblentz Society
Collection (C) 2018 copyright by the U.S. Secretary of Commerce
on behalf of the United States of America. All rights reserved.
##DATE=1964
##NAMES=1-cyclohexene
##CAS REGISTRY NO=110-83-8
##MOLFORM=C6 H10
##SOURCE REFERENCE=COBLENTZ NO. 8866
##$NIST SOURCE=COBLENTZ
##$NIST IMAGE=cob8866
##SPECTROMETER/DATA SYSTEM=DOW KBr FOREPRISM-GRATING
##INSTRUMENT PARAMETERS=GRATING CHANGED AT 5.0, 7.5, 15.0 MICRON
##STATE=GAS (60 mmHg, N2 ADDED, TOTAL PRESSURE 600 mmHg)
##PATH LENGTH=5 CM
##SAMPLING PROCEDURE=TRANSMISSION
##RESOLUTION=2
##DATA PROCESSING=DIGITIZED BY COBLENTZ SOCIETY (BATCH II) FROM HARD COPY
##XUNITS=1/CM
##YUNITS=TRANSMITTANCE
##XFACTOR=1.0
##YFACTOR=1
##FIRSTX=385
##LASTX=3786
##FIRSTY=0.8728
##MAXX=3786
##MINX=385
##MAXY=0.8961
##MINY=0.0114
##NPOINTS=3402
##XYDATA=(X++(Y..Y))
385.000000 0.8728 0.8728 0.8728 0.8727 0.8726
390.000000 0.8724 0.8721 0.8717 0.8714 0.8710
395.000000 0.8707 0.8704 0.8700 0.8697 0.8693
400.000000 0.8690 0.8687 0.8683 0.8679 0.8675
405.000000 0.8671 0.8666 0.8662 0.8658 0.8653
410.000000 0.8649 0.8645 0.8640 0.8636 0.8633
415.000000 0.8629 0.8625 0.8621 0.8617 0.8613
420.000000 0.8609 0.8605 0.8601 0.8597 0.8594
425.000000 0.8590 0.8586 0.8582 0.8578 0.8574
430.000000 0.8570 0.8566 0.8562 0.8558 0.8554
435.000000 0.8550 0.8546 0.8542 0.8538 0.8534
440.000000 0.8529 0.8525 0.8521 0.8517 0.8513
445.000000 0.8508 0.8504 0.8500 0.8498 0.8501
450.000000 0.8504 0.8534 0.8571 0.8608 0.8643
455.000000 0.8677 0.8699 0.8706 0.8712 0.8718
460.000000 0.8722 0.8727 0.8732 0.8737 0.8742
465.000000 0.8748 0.8753 0.8758 0.8764 0.8770
470.000000 0.8776 0.8782 0.8788 0.8797 0.8807
475.000000 0.8816 0.8826 0.8834 0.8839 0.8845
480.000000 0.8850 0.8856 0.8859 0.8859 0.8859
485.000000 0.8859 0.8859 0.8859 0.8858 0.8857
490.000000 0.8857 0.8856 0.8855 0.8853 0.8852
495.000000 0.8850 0.8848 0.8847 0.8845 0.8843
500.000000 0.8842 0.8840 0.8836 0.8833 0.8830
505.000000 0.8826 0.8823 0.8820 0.8816 0.8811
510.000000 0.8806 0.8801 0.8796 0.8775 0.8785
515.000000 0.8780 0.8775 0.8770 0.8765 0.8759
520.000000 0.8754 0.8749 0.8744 0.8738 0.8732
525.000000 0.8725 0.8718 0.8712 0.8705 0.8698
530.000000 0.8692 0.8685 0.8678 0.8672 0.8666
535.000000 0.8662 0.8658 0.8655 0.8651 0.8647
540.000000 0.8644 0.8643 0.8643 0.8642 0.8641
545.000000 0.8641 0.8640 0.8641 0.8643 0.8644
550.000000 0.8646 0.8647 0.8651 0.8659 0.8665
555.000000 0.8672 0.8678 0.8685 0.8691 0.8697
560.000000 0.8703 0.8709 0.8715 0.8721 0.8728
565.000000 0.8735 0.8741 0.8748 0.8754 0.8758
570.000000 0.8762 0.8766 0.8769 0.8768 0.8766
575.000000 0.8765 0.8764 0.8763 0.8761 0.8758
580.000000 0.8755 0.8752 0.8749 0.8745 0.8742
585.000000 0.8736 0.8729 0.8723 0.8716 0.8710
590.000000 0.8703 0.8696 0.8688 0.8680 0.8672
595.000000 0.8664 0.8649 0.8631 0.8600 0.8564
600.000000 0.8524 0.8477 0.8431 0.8386 0.8343
605.000000 0.8303 0.8266 0.8229 0.8192 0.8083
610.000000 0.7938 0.7793 0.7648 0.7503 0.7358
615.000000 0.7213 0.7068 0.6923 0.6778 0.6633
620.000000 0.6506 0.6262 0.6190 0.6126 0.6091
625.000000 0.6069 0.6054 0.6043 0.6025 0.5997
630.000000 0.5778 0.5371 0.4965 0.4668 0.4469
635.000000 0.4043 0.3524 0.3005 0.2754 0.3696
640.000000 0.4577 0.5459 0.5765 0.5670 0.5540
645.000000 0.5410 0.5280 0.5150 0.5029 0.4963
650.000000 0.4911 0.5053 0.5253 0.5328 0.5230
655.000000 0.5131 0.4993 0.5184 0.5768 0.5445
660.000000 0.4188 0.4575 0.5064 0.5553 0.6042
665.000000 0.6532 0.6968 0.7112 0.7177 0.7229
670.000000 0.7253 0.7277 0.7300 0.7321 0.7342
675.000000 0.7365 0.7387 0.7410 0.7454 0.7732
680.000000 0.7858 0.7981 0.8093 0.8178 0.8260
685.000000 0.8337 0.8381 0.8408 0.8434 0.8451
690.000000 0.8446 0.8442 0.8421 0.8392 0.8349
695.000000 0.8285 0.8162 0.8040 0.7918 0.7796
700.000000 0.7674 0.7552 0.7430 0.7312 0.7265
705.000000 0.7245 0.7249 0.7252 0.7336 0.7432
710.000000 0.7528 0.7623 0.7719 0.7792 0.7782
715.000000 0.7038 0.5812 0.4586 0.2082 0.2134
720.000000 0.2279 0.4375 0.8157 0.8103 0.8103
725.000000 0.7972 0.7812 0.7651 0.7490 0.7330
730.000000 0.7171 0.7119 0.7102 0.7095 0.7260
735.000000 0.7440 0.7620 0.7800 0.7997 0.8231
740.000000 0.8303 0.8376 0.8445 0.8513 0.8574
745.000000 0.8611 0.8648 0.8685 0.8713 0.8739
750.000000 0.8765 0.8777 0.8790 0.8803 0.8812
755.000000 0.8818 0.8824 0.8830 0.8835 0.8841
760.000000 0.8846 0.8848 0.8850 0.8852 0.8854
765.000000 0.8856 0.8858 0.8888 0.8859 0.8860
770.000000 0.8861 0.8864 0.8868 0.8872 0.8876
775.000000 0.8888 0.8900 0.8913 0.8927 0.8941
780.000000 0.8951 0.8961 0.8953 0.8947 0.8941
785.000000 0.8935 0.8926 0.8917 0.8906 0.8893
790.000000 0.8879 0.8865 0.8850 0.8833 0.8816
795.000000 0.8798 0.8781 0.8763 0.8744 0.8725
800.000000 0.8709 0.8693 0.8677 0.8662 0.8646
805.000000 0.8632 0.8626 0.8621 0.8615 0.8613
810.000000 0.8612 0.8611 0.8622 0.8613 0.8616
815.000000 0.8620 0.8624 0.8632 0.8639 0.8647
820.000000 0.8655 0.8663 0.8676 0.8688 0.8700
825.000000 0.8712 0.8728 0.8749 0.8770 0.8791
830.000000 0.8808 0.8825 0.8842 0.8857 0.8871
835.000000 0.8885 0.8896 0.8899 0.8903 0.8905
840.000000 0.8902 0.8900 0.8918 0.8891 0.8880
845.000000 0.8868 0.8856 0.8845 0.8833 0.8813
850.000000 0.8789 0.8765 0.8741 0.8714 0.8666
855.000000 0.8619 0.8552 0.8474 0.8395 0.8307
860.000000 0.8215 0.8124 0.8008 0.7877 0.7649
865.000000 0.7481 0.7368 0.7326 0.7304 0.7299
870.000000 0.7296 0.7294 0.7285 0.7165 0.7010
875.000000 0.6856 0.6702 0.6630 0.6665 0.6839
880.000000 0.7014 0.7189 0.7325 0.7330 0.7336
885.000000 0.7344 0.7374 0.7403 0.7563 0.7795
890.000000 0.7966 0.8064 0.8087 0.8085 0.8093
895.000000 0.8081 0.8043 0.7986 0.7919 0.7833
900.000000 0.7753 0.7667 0.7572 0.7486 0.7405
905.000000 0.7351 0.7333 0.7319 0.7303 0.7286
910.000000 0.7260 0.7210 0.7136 0.7042 0.6184
915.000000 0.5274 0.4365 0.3361 0.3384 0.5284
920.000000 0.7614 0.7633 0.7628 0.7614 0.7590
925.000000 0.7562 0.7546 0.7544 0.7545 0.7576
930.000000 0.7621 0.7660 0.7726 0.7771 0.7819
935.000000 0.7875 0.7933 0.8010 0.8088 0.8169
940.000000 0.8252 0.8336 0.8421 0.8485 0.8541
945.000000 0.8567 0.8589 0.8604 0.8619 0.8634
950.000000 0.8644 0.8654 0.8664 0.8669 0.8672
955.000000 0.8676 0.8677 0.8677 0.8677 0.8670
960.000000 0.8677 0.8678 0.8676 0.8674 0.8673
965.000000 0.8671 0.8669 0.8668 0.8667 0.8666
970.000000 0.8663 0.8658 0.8654 0.8647 0.8637
975.000000 0.8627 0.8616 0.8602 0.8587 0.8572
980.000000 0.8557 0.8541 0.8524 0.8508 0.8492
985.000000 0.8474 0.8455 0.8435 0.8415 0.8399
990.000000 0.8384 0.8369 0.8355 0.8342 0.8334
995.000000 0.8329 0.8324 0.8315 0.8306 0.8296
1000.000000 0.8271 0.8240 0.8204 0.8143 0.8072
1005.000000 0.7965 0.7891 0.7977 0.8130 0.8283
1010.000000 0.8319 0.8334 0.8291 0.8270 0.8247
1015.000000 0.8222 0.8190 0.8156 0.8112 0.8061
1020.000000 0.8004 0.7937 0.7867 0.7795 0.7730
1025.000000 0.7672 0.7616 0.7564 0.7536 0.7521
1030.000000 0.7516 0.7514 0.7508 0.7497 0.7483
1035.000000 0.7246 0.6968 0.6880 0.6996 0.7338
1040.000000 0.7598 0.7593 0.7585 0.7569 0.7546
1045.000000 0.7520 0.7506 0.7508 0.7517 0.7567
1050.000000 0.7645 0.7724 0.7865 0.8000 0.8168
1055.000000 0.8334 0.8390 0.8434 0.8460 0.8478
1060.000000 0.8495 0.8507 0.8515 0.8523 0.8530
1065.000000 0.8533 0.8535 0.8538 0.8541 0.8546
1070.000000 0.8552 0.8559 0.8567 0.8575 0.8583
1075.000000 0.8589 0.8594 0.8599 0.8604 0.8606
1080.000000 0.8609 0.8611 0.8613 0.8615 0.8616
1085.000000 0.8616 0.8618 0.8619 0.8619 0.8616
1090.000000 0.8613 0.8610 0.8607 0.8604 0.8598
1095.000000 0.8591 0.8584 0.8577 0.8570 0.8563
1100.000000 0.8556 0.8545 0.8534 0.8523 0.8512
1105.000000 0.8501 0.8490 0.8478 0.8463 0.8448
1110.000000 0.8431 0.8398 0.8365 0.8332 0.8299
1115.000000 0.8266 0.8207 0.8138 0.8068 0.8009
1120.000000 0.7951 0.7893 0.7834 0.7770 0.7707
1125.000000 0.7657 0.7616 0.7594 0.7593 0.7605
1130.000000 0.7628 0.7660 0.7690 0.7713 0.7713
1135.000000 0.7705 0.7238 0.6011 0.4784 0.4152
1140.000000 0.4160 0.6480 0.7494 0.7489 0.7478
1145.000000 0.7461 0.7447 0.7430 0.7434 0.7447
1150.000000 0.7458 0.7475 0.7505 0.7550 0.7609
1155.000000 0.7675 0.7750 0.7836 0.7889 0.7942
1160.000000 0.7994 0.8047 0.8100 0.8153 0.8206
1165.000000 0.8259 0.8299 0.8325 0.8351 0.8376
1170.000000 0.8400 0.8425 0.8450 0.8475 0.8486
1175.000000 0.8495 0.8537 0.8512 0.8518 0.8519
1180.000000 0.8520 0.8520 0.8521 0.8522 0.8518
1185.000000 0.8512 0.8506 0.8500 0.8494 0.8489
1190.000000 0.8483 0.8477 0.8471 0.8465 0.8459
1195.000000 0.8453 0.8447 0.8441 0.8435 0.8431
1200.000000 0.8428 0.8425 0.8422 0.8419 0.8416
1205.000000 0.8413 0.8409 0.8404 0.8398 0.8393
1210.000000 0.8387 0.8382 0.8374 0.8364 0.8354
1215.000000 0.8344 0.8335 0.8325 0.8303 0.8276
1220.000000 0.8249 0.8222 0.8204 0.8187 0.8170
1225.000000 0.8153 0.8136 0.8119 0.8102 0.8084
1230.000000 0.8066 0.8047 0.8024 0.8025 0.8026
1235.000000 0.8030 0.8035 0.8041 0.8050 0.8055
1240.000000 0.8053 0.8037 0.8022 0.8005 0.7989
1245.000000 0.7971 0.7953 0.7934 0.7915 0.7898
1250.000000 0.7880 0.7863 0.7844 0.7824 0.7803
1255.000000 0.7783 0.7764 0.7749 0.7734 0.7722
1260.000000 0.7722 0.7722 0.7722 0.7717 0.7708
1265.000000 0.7693 0.7628 0.7509 0.7299 0.7307
1270.000000 0.7443 0.7633 0.7772 0.7772 0.7773
1275.000000 0.7773 0.7774 0.7779 0.7783 0.7797
1280.000000 0.7816 0.7848 0.7884 0.7922 0.7961
1285.000000 0.7999 0.8037 0.8076 0.8105 0.8128
1290.000000 0.8151 0.8174 0.8193 0.8205 0.8239
1295.000000 0.8218 0.8217 0.8216 0.8208 0.8199
1300.000000 0.8190 0.8180 0.8171 0.8162 0.8151
1305.000000 0.8139 0.8127 0.8116 0.8098 0.8076
1310.000000 0.8054 0.8032 0.8010 0.7984 0.7958
1315.000000 0.7932 0.7905 0.7877 0.7848 0.7820
1320.000000 0.7791 0.7762 0.7734 0.7700 0.7663
1325.000000 0.7627 0.7590 0.7551 0.7508 0.7464
1330.000000 0.7421 0.7383 0.7373 0.7367 0.7367
1335.000000 0.7367 0.7366 0.7364 0.7352 0.7330
1340.000000 0.7299 0.7316 0.7350 0.7379 0.7382
1345.000000 0.7378 0.7364 0.7333 0.7299 0.7208
1350.000000 0.7076 0.6956 0.6861 0.6815 0.6770
1355.000000 0.6733 0.6710 0.6687 0.6673 0.6665
1360.000000 0.6657 0.6651 0.6654 0.6658 0.6616
1365.000000 0.6665 0.6669 0.6675 0.6690 0.6706
1370.000000 0.6726 0.6747 0.6769 0.6791 0.6819
1375.000000 0.6847 0.6874 0.6907 0.6944 0.6982
1380.000000 0.7019 0.7057 0.7100 0.7143 0.7186
1385.000000 0.7229 0.7272 0.7313 0.7351 0.7389
1390.000000 0.7427 0.7465 0.7505 0.7545 0.7585
1395.000000 0.7623 0.7656 0.7689 0.7723 0.7769
1400.000000 0.7816 0.7851 0.7874 0.7897 0.7921
1405.000000 0.7944 0.7954 0.7964 0.7974 0.7973
1410.000000 0.7972 0.7963 0.7969 0.7966 0.7955
1415.000000 0.7945 0.7935 0.7913 0.7888 0.7846
1420.000000 0.7791 0.7699 0.7539 0.7379 0.7219
1425.000000 0.7059 0.6900 0.6740 0.6580 0.6420
1430.000000 0.6260 0.6100 0.5940 0.5781 0.5621
1435.000000 0.5461 0.5301 0.5260 0.5236 0.5218
1440.000000 0.5196 0.5148 0.5068 0.4892 0.4627
1445.000000 0.4570 0.4530 0.4508 0.4479 0.4447
1450.000000 0.4414 0.4340 0.4243 0.4040 0.3642
1455.000000 0.3244 0.3240 0.5300 0.5550 0.5609
1460.000000 0.5668 0.5721 0.5774 0.5826 0.5879
1465.000000 0.5931 0.5983 0.6039 0.6095 0.6155
1470.000000 0.6242 0.6348 0.6513 0.6820 0.7127
1475.000000 0.7239 0.7316 0.7453 0.7558 0.7639
1480.000000 0.7717 0.7794 0.7950 0.8003 0.8040
1485.000000 0.8077 0.8125 0.8142 0.8153 0.8165
1490.000000 0.8176 0.8188 0.8200 0.8211 0.8222
1495.000000 0.8235 0.8249 0.8268 0.8262 0.8256
1500.000000 0.8249 0.8235 0.8221 0.8197 0.8175
1505.000000 0.8170 0.8184 0.8203 0.8221 0.8230
1510.000000 0.8228 0.8214 0.8196 0.8174 0.8153
1515.000000 0.8138 0.8123 0.8111 0.8102 0.8114
1520.000000 0.8110 0.8116 0.8123 0.8128 0.8133
1525.000000 0.8139 0.8144 0.8149 0.8154 0.8154
1530.000000 0.8154 0.8154 0.8154 0.8145 0.8135
1535.000000 0.8126 0.8114 0.8099 0.8084 0.8076
1540.000000 0.8082 0.8103 0.8124 0.8146 0.8170
1545.000000 0.8195 0.8217 0.8239 0.8251 0.8261
1550.000000 0.8263 0.8263 0.8261 0.8254 0.8247
1555.000000 0.8230 0.8214 0.8198 0.8186 0.8174
1560.000000 0.8204 0.8232 0.8260 0.8278 0.8290
1565.000000 0.8295 0.8297 0.8298 0.8291 0.8284
1570.000000 0.8277 0.8266 0.8253 0.8240 0.8228
1575.000000 0.8214 0.8223 0.8244 0.8268 0.8271
1580.000000 0.8260 0.8245 0.8228 0.8207 0.8186
1585.000000 0.8166 0.8146 0.8126 0.8106 0.8087
1590.000000 0.8067 0.8049 0.8030 0.8011 0.7992
1595.000000 0.7975 0.7962 0.7950 0.7938 0.7925
1600.000000 0.7913 0.7905 0.7902 0.7898 0.7894
1605.000000 0.7890 0.7887 0.7885 0.7882 0.7880
1610.000000 0.7878 0.7869 0.7858 0.7847 0.7821
1615.000000 0.7808 0.7844 0.7877 0.7912 0.7947
1620.000000 0.7950 0.7951 0.7951 0.7949 0.7945
1625.000000 0.7941 0.7937 0.7932 0.7922 0.7911
1630.000000 0.7900 0.7886 0.7857 0.7819 0.7781
1635.000000 0.7743 0.7716 0.7696 0.7658 0.7601
1640.000000 0.7544 0.7462 0.7376 0.7300 0.7232
1645.000000 0.7163 0.7079 0.7061 0.7056 0.7007
1650.000000 0.6882 0.6826 0.6792 0.6838 0.6881
1655.000000 0.6923 0.6976 0.7028 0.7099 0.7082
1660.000000 0.7073 0.7048 0.7003 0.6959 0.6940
1665.000000 0.6944 0.6965 0.6987 0.7009 0.7296
1670.000000 0.7401 0.7483 0.7556 0.7620 0.7681
1675.000000 0.7727 0.7770 0.7804 0.7833 0.7856
1680.000000 0.7859 0.7840 0.7736 0.7678 0.7714
1685.000000 0.7819 0.7908 0.7914 0.7917 0.7914
1690.000000 0.7910 0.7904 0.7897 0.7884 0.7860
1695.000000 0.7823 0.7811 0.7833 0.7861 0.7892
1700.000000 0.7930 0.7968 0.7999 0.8027 0.8047
1705.000000 0.8056 0.8061 0.8063 0.8066 0.8065
1710.000000 0.8063 0.8060 0.8054 0.8033 0.8007
1715.000000 0.7981 0.7986 0.8010 0.8033 0.8047
1720.000000 0.8061 0.8068 0.8071 0.8073 0.8074
1725.000000 0.8072 0.8070 0.8068 0.8057 0.8036
1730.000000 0.8015 0.7995 0.7960 0.7962 0.7984
1735.000000 0.8003 0.8014 0.8024 0.8033 0.8042
1740.000000 0.8045 0.8046 0.8048 0.8050 0.8055
1745.000000 0.8060 0.8065 0.8070 0.8075 0.8080
1750.000000 0.8085 0.8090 0.8095 0.8100 0.8105
1755.000000 0.8110 0.8115 0.8119 0.8123 0.8128
1760.000000 0.8133 0.8137 0.8142 0.8146 0.8150
1765.000000 0.8154 0.8159 0.8163 0.8166 0.8212
1770.000000 0.8171 0.8174 0.8176 0.8177 0.8177
1775.000000 0.8177 0.8177 0.8178 0.8178 0.8178
1780.000000 0.8176 0.8174 0.8172 0.8171 0.8169
1785.000000 0.8167 0.8166 0.8166 0.8166 0.8166
1790.000000 0.8166 0.8185 0.8207 0.8217 0.8217
1795.000000 0.8216 0.8216 0.8215 0.8215 0.8214
1800.000000 0.8213 0.8215 0.8219 0.8223 0.8234
1805.000000 0.8236 0.8235 0.8234 0.8233 0.8233
1810.000000 0.8232 0.8232 0.8231 0.8231 0.8230
1815.000000 0.8230 0.8230 0.8231 0.8232 0.8233
1820.000000 0.8234 0.8235 0.8236 0.8237 0.8240
1825.000000 0.8243 0.8246 0.8249 0.8252 0.8255
1830.000000 0.8258 0.8262 0.8270 0.8279 0.8288
1835.000000 0.8296 0.8294 0.8292 0.8290 0.8288
1840.000000 0.8286 0.8284 0.8282 0.8280 0.8278
1845.000000 0.8275 0.8273 0.8269 0.8263 0.8258
1850.000000 0.8253 0.8248 0.8243 0.8238 0.8233
1855.000000 0.8227 0.8222 0.8216 0.8210 0.8205
1860.000000 0.8199 0.8194 0.8186 0.8176 0.8167
1865.000000 0.8157 0.8148 0.8139 0.8129 0.8120
1870.000000 0.8111 0.8102 0.8093 0.8085 0.8078
1875.000000 0.8072 0.8065 0.8059 0.8052 0.8045
1880.000000 0.8038 0.8031 0.8024 0.8017 0.8010
1885.000000 0.8010 0.8010 0.8009 0.8009 0.8008
1890.000000 0.8008 0.8007 0.8007 0.8007 0.8008
1895.000000 0.8009 0.8010 0.8011 0.8019 0.8031
1900.000000 0.8043 0.8055 0.8070 0.8095 0.8120
1905.000000 0.8144 0.8152 0.8160 0.8168 0.8174
1910.000000 0.8175 0.8175 0.8176 0.8177 0.8177
1915.000000 0.8178 0.8178 0.8178 0.8178 0.8178
1920.000000 0.8178 0.8179 0.8179 0.8179 0.8179
1925.000000 0.8179 0.8179 0.8180 0.8186 0.8193
1930.000000 0.8199 0.8206 0.8214 0.8219 0.8220
1935.000000 0.8222 0.8223 0.8225 0.8226 0.8229
1940.000000 0.8232 0.8235 0.8238 0.8241 0.8244
1945.000000 0.8246 0.8249 0.8251 0.8253 0.8254
1950.000000 0.8256 0.8257 0.8256 0.8256 0.8255
1955.000000 0.8254 0.8254 0.8254 0.8254 0.8254
1960.000000 0.8254 0.8255 0.8255 0.8255 0.8255
1965.000000 0.8256 0.8256 0.8256 0.8257 0.8257
1970.000000 0.8257 0.8257 0.8258 0.8258 0.8259
1975.000000 0.8261 0.8262 0.8263 0.8264 0.8265
1980.000000 0.8266 0.8267 0.8269 0.8270 0.8271
1985.000000 0.8272 0.8273 0.8274 0.8275 0.8277
1990.000000 0.8278 0.8283 0.8290 0.8296 0.8302
1995.000000 0.8308 0.8314 0.8320 0.8323 0.8326
2000.000000 0.8329 0.8332 0.8335 0.8335 0.8335
2005.000000 0.8334 0.8333 0.8332 0.8331 0.8330
2010.000000 0.8329 0.8328 0.8327 0.8326 0.8325
2015.000000 0.8324 0.8323 0.8322 0.8321 0.8320
2020.000000 0.8319 0.8318 0.8317 0.8315 0.8314
2025.000000 0.8313 0.8312 0.8311 0.8310 0.8309
2030.000000 0.8308 0.8307 0.8306 0.8305 0.8304
2035.000000 0.8303 0.8302 0.8301 0.8300 0.8299
2040.000000 0.8298 0.8297 0.8296 0.8295 0.8294
2045.000000 0.8293 0.8292 0.8291 0.8290 0.8289
2050.000000 0.8289 0.8288 0.8287 0.8286 0.8285
2055.000000 0.8284 0.8283 0.8282 0.8281 0.8280
2060.000000 0.8279 0.8278 0.8278 0.8277 0.8276
2065.000000 0.8275 0.8274 0.8273 0.8272 0.8271
2070.000000 0.8270 0.8269 0.8268 0.8267 0.8267
2075.000000 0.8266 0.8265 0.8264 0.8263 0.8262
2080.000000 0.8261 0.8260 0.8259 0.8257 0.8255
2085.000000 0.8253 0.8252 0.8250 0.8249 0.8247
2090.000000 0.8246 0.8244 0.8242 0.8240 0.8239
2095.000000 0.8237 0.8236 0.8234 0.8233 0.8231
2100.000000 0.8229 0.8227 0.8226 0.8224 0.8223
2105.000000 0.8221 0.8220 0.8219 0.8218 0.8217
2110.000000 0.8217 0.8216 0.8216 0.8216 0.8216
2115.000000 0.8215 0.8215 0.8216 0.8218 0.8230
2120.000000 0.8243 0.8255 0.8267 0.8272 0.8277
2125.000000 0.8280 0.8284 0.8284 0.8284 0.8284
2130.000000 0.8284 0.8284 0.8284 0.8284 0.8284
2135.000000 0.8284 0.8284 0.8284 0.8284 0.8284
2140.000000 0.8284 0.8284 0.8285 0.8285 0.8285
2145.000000 0.8285 0.8285 0.8285 0.8285 0.8285
2150.000000 0.8285 0.8285 0.8285 0.8285 0.8285
2155.000000 0.8285 0.8285 0.8285 0.8285 0.8285
2160.000000 0.8285 0.8285 0.8285 0.8285 0.8285
2165.000000 0.8285 0.8285 0.8284 0.8284 0.8284
2170.000000 0.8284 0.8283 0.8283 0.8283 0.8283
2175.000000 0.8282 0.8282 0.8282 0.8282 0.8282
2180.000000 0.8282 0.8280 0.8279 0.8276 0.8273
2185.000000 0.8270 0.8268 0.8265 0.8262 0.8259
2190.000000 0.8256 0.8253 0.8250 0.8247 0.8245
2195.000000 0.8243 0.8241 0.8239 0.8238 0.8236
2200.000000 0.8235 0.8233 0.8232 0.8230 0.8229
2205.000000 0.8227 0.8226 0.8224 0.8223 0.8221
2210.000000 0.8220 0.8222 0.8224 0.8226 0.8229
2215.000000 0.8232 0.8235 0.8237 0.8240 0.8242
2220.000000 0.8245 0.8248 0.8251 0.8253 0.8256
2225.000000 0.8259 0.8262 0.8264 0.8267 0.8270
2230.000000 0.8274 0.8277 0.8281 0.8282 0.8284
2235.000000 0.8285 0.8286 0.8287 0.8288 0.8289
2240.000000 0.8291 0.8292 0.8293 0.8293 0.8293
2245.000000 0.8292 0.8292 0.8291 0.8291 0.8290
2250.000000 0.8290 0.8289 0.8289 0.8288 0.8287
2255.000000 0.8286 0.8286 0.8285 0.8285 0.8284
2260.000000 0.8284 0.8283 0.8283 0.8282 0.8281
2265.000000 0.8280 0.8280 0.8279 0.8279 0.8276
2270.000000 0.8274 0.8271 0.8268 0.8265 0.8262
2275.000000 0.8259 0.8257 0.8254 0.8251 0.8248
2280.000000 0.8245 0.8242 0.8239 0.8238 0.8237
2285.000000 0.8238 0.8239 0.8240 0.8241 0.8241
2290.000000 0.8242 0.8243 0.8244 0.8244 0.8245
2295.000000 0.8245 0.8245 0.8245 0.8246 0.8246
2300.000000 0.8247 0.8247 0.8247 0.8247 0.8248
2305.000000 0.8248 0.8248 0.8248 0.8249 0.8249
2310.000000 0.8249 0.8249 0.8250 0.8250 0.8250
2315.000000 0.8250 0.8250 0.8250 0.8251 0.8251
2320.000000 0.8251 0.8251 0.8252 0.8252 0.8252
2325.000000 0.8252 0.8252 0.8252 0.8253 0.8254
2330.000000 0.8255 0.8255 0.8256 0.8256 0.8257
2335.000000 0.8258 0.8259 0.8259 0.8260 0.8261
2340.000000 0.8262 0.8262 0.8263 0.8263 0.8264
2345.000000 0.8264 0.8264 0.8263 0.8263 0.8263
2350.000000 0.8263 0.8262 0.8262 0.8261 0.8261
2355.000000 0.8261 0.8261 0.8260 0.8260 0.8259
2360.000000 0.8259 0.8259 0.8259 0.8258 0.8258
2365.000000 0.8257 0.8257 0.8258 0.8259 0.8259
2370.000000 0.8260 0.8261 0.8262 0.8263 0.8264
2375.000000 0.8264 0.8265 0.8266 0.8267 0.8268
2380.000000 0.8269 0.8269 0.8270 0.8271 0.8272
2385.000000 0.8273 0.8274 0.8274 0.8275 0.8276
2390.000000 0.8277 0.8278 0.8279 0.8279 0.8280
2395.000000 0.8280 0.8280 0.8279 0.8279 0.8278
2400.000000 0.8277 0.8276 0.8276 0.8275 0.8274
2405.000000 0.8277 0.8280 0.8286 0.8292 0.8298
2410.000000 0.8305 0.8311 0.8318 0.8326 0.8334
2415.000000 0.8342 0.8351 0.8359 0.8367 0.8374
