##TITLE=1-PENTANETHIOL
##JCAMP-DX=4.24
$$ By DXEDIT 1.05 (RS McDonald)
##DATA TYPE=INFRARED SPECTRUM
##CLASS=COBLENTZ III
##ORIGIN=WYANDOTTE CHEMICALS CORP.
##OWNER=COBLENTZ SOC.
Collection (C) 2018 copyright by the U.S. Secretary of Commerce
on behalf of the United States of America. All rights reserved.
##DATE=1956/10/09
##NAMES=pentyl hydrosulfide
##CAS REGISTRY NO=110-66-7
##MOLFORM=C5 H12 S
##BP=124 C
##SOURCE REFERENCE=COBLENTZ NO. 06000
##$NIST SOURCE=COBLENTZ
##$NIST IMAGE=cob6000
##SPECTROMETER/DATA SYSTEM=BAIRD (GRATING)
##INSTRUMENT PARAMETERS=NaCl PRISM
##STATE=LIQUID
##PATH LENGTH=0.005 CM
##SAMPLING PROCEDURE=TRANSMISSION
##RESOLUTION=2
##DATA PROCESSING=DIGITIZED BY COBLENTZ SOCIETY (BATCH I) FROM HARD COPY
##XUNITS=1/CM
##YUNITS=TRANSMITTANCE
##XLABEL=Wavenumbers (cm-1)
##YLABEL=Transmittance
##XFACTOR=1
##YFACTOR=1
##DELTAX=1
##FIRSTX=4000
##LASTX=626
##FIRSTY=0.9128
##MAXX=4000
##MINX=626
##MAXY=0.9125
##MINY=0.0245
##NPOINTS=3375
##XYDATA=(X++(Y..Y))
4000.000000 0.9128 0.9127 0.9125 0.9124 0.9123
3995.000000 0.9121 0.9120 0.9118 0.9117 0.9116
3990.000000 0.9115 0.9114 0.9112 0.9111 0.9110
3985.000000 0.9108 0.9107 0.9105 0.9104 0.9103
3980.000000 0.9102 0.9101 0.9100 0.9099 0.9099
3975.000000 0.9098 0.9097 0.9097 0.9096 0.9095
3970.000000 0.9095 0.9094 0.9093 0.9093 0.9092
3965.000000 0.9091 0.9091 0.9090 0.9090 0.9089
3960.000000 0.9088 0.9088 0.9087 0.9086 0.9086
3955.000000 0.9085 0.9084 0.9084 0.9083 0.9082
3950.000000 0.9082 0.9081 0.9081 0.9080 0.9078
3945.000000 0.9078 0.9078 0.9077 0.9077 0.9075
3940.000000 0.9075 0.9075 0.9074 0.9073 0.9073
3935.000000 0.9073 0.9071 0.9071 0.9071 0.9071
3930.000000 0.9070 0.9070 0.9070 0.9070 0.9070
3925.000000 0.9070 0.9068 0.9068 0.9068 0.9068
3920.000000 0.9068 0.9068 0.9068 0.9068 0.9068
3915.000000 0.9068 0.9068 0.9068 0.9067 0.9067
3910.000000 0.9067 0.9067 0.9067 0.9067 0.9067
3905.000000 0.9067 0.9067 0.9067 0.9067 0.9067
3900.000000 0.9068 0.9068 0.9070 0.9071 0.9071
3895.000000 0.9073 0.9075 0.9075 0.9077 0.9078
3890.000000 0.9078 0.9080 0.9082 0.9083 0.9084
3885.000000 0.9085 0.9086 0.9087 0.9088 0.9089
3880.000000 0.9090 0.9091 0.9092 0.9093 0.9094
3875.000000 0.9095 0.9096 0.9097 0.9098 0.9099
3870.000000 0.9099 0.9100 0.9101 0.9101 0.9102
3865.000000 0.9103 0.9103 0.9104 0.9105 0.9106
3860.000000 0.9107 0.9108 0.9109 0.9109 0.9110
3855.000000 0.9111 0.9111 0.9112 0.9113 0.9113
3850.000000 0.9114 0.9115 0.9116 0.9117 0.9118
3845.000000 0.9118 0.9118 0.9120 0.9120 0.9121
3840.000000 0.9121 0.9121 0.9121 0.9121 0.9121
3835.000000 0.9121 0.9123 0.9123 0.9123 0.9123
3830.000000 0.9123 0.9123 0.9124 0.9124 0.9124
3825.000000 0.9124 0.9124 0.9124 0.9124 0.9124
3820.000000 0.9124 0.9124 0.9124 0.9124 0.9124
3815.000000 0.9124 0.9124 0.9124 0.9124 0.9124
3810.000000 0.9125 0.9125 0.9125 0.9125 0.9125
3805.000000 0.9124 0.9124 0.9124 0.9123 0.9123
3800.000000 0.9123 0.9121 0.9121 0.9121 0.9121
3795.000000 0.9121 0.9121 0.9120 0.9120 0.9118
3790.000000 0.9118 0.9118 0.9118 0.9117 0.9117
3785.000000 0.9116 0.9115 0.9115 0.9114 0.9114
3780.000000 0.9113 0.9113 0.9112 0.9112 0.9111
3775.000000 0.9111 0.9111 0.9110 0.9110 0.9110
3770.000000 0.9109 0.9109 0.9108 0.9108 0.9107
3765.000000 0.9106 0.9106 0.9105 0.9105 0.9104
3760.000000 0.9104 0.9103 0.9103 0.9103 0.9102
3755.000000 0.9102 0.9102 0.9101 0.9101 0.9100
3750.000000 0.9099 0.9099 0.9098 0.9098 0.9098
3745.000000 0.9097 0.9097 0.9097 0.9096 0.9096
3740.000000 0.9095 0.9095 0.9094 0.9094 0.9093
3735.000000 0.9093 0.9092 0.9092 0.9092 0.9091
3730.000000 0.9091 0.9091 0.9090 0.9090 0.9090
3725.000000 0.9089 0.9089 0.9088 0.9087 0.9087
3720.000000 0.9086 0.9086 0.9086 0.9085 0.9085
3715.000000 0.9085 0.9084 0.9084 0.9084 0.9083
3710.000000 0.9083 0.9082 0.9082 0.9082 0.9081
3705.000000 0.9081 0.9081 0.9080 0.9080 0.9078
3700.000000 0.9078 0.9078 0.9077 0.9077 0.9077
3695.000000 0.9075 0.9075 0.9075 0.9075 0.9075
3690.000000 0.9074 0.9074 0.9074 0.9073 0.9073
3685.000000 0.9071 0.9071 0.9071 0.9071 0.9071
3680.000000 0.9071 0.9071 0.9071 0.9071 0.9071
3675.000000 0.9071 0.9071 0.9071 0.9071 0.9070
3670.000000 0.9070 0.9070 0.9070 0.9070 0.9070
3665.000000 0.9070 0.9070 0.9070 0.9070 0.9070
3660.000000 0.9070 0.9070 0.9070 0.9070 0.9070
3655.000000 0.9070 0.9070 0.9070 0.9070 0.9070
3650.000000 0.9070 0.9070 0.9070 0.9070 0.9070
3645.000000 0.9070 0.9070 0.9070 0.9070 0.9070
3640.000000 0.9070 0.9070 0.9070 0.9071 0.9071
3635.000000 0.9071 0.9071 0.9073 0.9073 0.9074
3630.000000 0.9075 0.9075 0.9075 0.9075 0.9075
3625.000000 0.9077 0.9077 0.9078 0.9078 0.9078
3620.000000 0.9078 0.9080 0.9080 0.9081 0.9082
3615.000000 0.9082 0.9083 0.9083 0.9084 0.9084
3610.000000 0.9085 0.9086 0.9086 0.9087 0.9087
3605.000000 0.9087 0.9088 0.9088 0.9089 0.9089
3600.000000 0.9090 0.9090 0.9091 0.9092 0.9092
3595.000000 0.9093 0.9093 0.9094 0.9094 0.9095
3590.000000 0.9096 0.9097 0.9098 0.9098 0.9099
3585.000000 0.9100 0.9100 0.9101 0.9101 0.9102
3580.000000 0.9102 0.9103 0.9104 0.9104 0.9105
3575.000000 0.9106 0.9106 0.9107 0.9108 0.9109
3570.000000 0.9109 0.9110 0.9111 0.9111 0.9112
3565.000000 0.9113 0.9113 0.9114 0.9115 0.9116
3560.000000 0.9116 0.9117 0.9117 0.9118 0.9118
3555.000000 0.9118 0.9120 0.9120 0.9121 0.9121
3550.000000 0.9121 0.9121 0.9123 0.9123 0.9124
3545.000000 0.9124 0.9124 0.9124 0.9124 0.9124
3540.000000 0.9124 0.9124 0.9124 0.9124 0.9124
3535.000000 0.9124 0.9124 0.9124 0.9124 0.9124
3530.000000 0.9124 0.9124 0.9124 0.9124 0.9123
3525.000000 0.9123 0.9123 0.9123 0.9123 0.9121
3520.000000 0.9121 0.9121 0.9121 0.9120 0.9118
3515.000000 0.9118 0.9118 0.9118 0.9118 0.9117
3510.000000 0.9117 0.9117 0.9116 0.9116 0.9115
3505.000000 0.9115 0.9114 0.9113 0.9113 0.9112
3500.000000 0.9112 0.9112 0.9111 0.9111 0.9110
3495.000000 0.9110 0.9109 0.9108 0.9108 0.9107
3490.000000 0.9106 0.9105 0.9105 0.9104 0.9103
3485.000000 0.9102 0.9101 0.9100 0.9100 0.9099
3480.000000 0.9098 0.9097 0.9095 0.9094 0.9093
3475.000000 0.9092 0.9091 0.9090 0.9089 0.9088
3470.000000 0.9088 0.9087 0.9086 0.9085 0.9084
3465.000000 0.9083 0.9082 0.9081 0.9080 0.9078
3460.000000 0.9078 0.9077 0.9077 0.9075 0.9075
3455.000000 0.9074 0.9073 0.9071 0.9070 0.9068
3450.000000 0.9068 0.9067 0.9066 0.9065 0.9063
3445.000000 0.9062 0.9060 0.9059 0.9057 0.9055
3440.000000 0.9054 0.9052 0.9050 0.9049 0.9047
3435.000000 0.9046 0.9044 0.9043 0.9041 0.9039
3430.000000 0.9038 0.9036 0.9034 0.9033 0.9032
3425.000000 0.9030 0.9028 0.9027 0.9025 0.9024
3420.000000 0.9023 0.9021 0.9020 0.9018 0.9017
3415.000000 0.9015 0.9014 0.9013 0.9011 0.9010
3410.000000 0.9009 0.9007 0.9006 0.9004 0.9003
3405.000000 0.9001 0.9000 0.8999 0.8997 0.8996
3400.000000 0.8994 0.8993 0.8991 0.8990 0.8989
3395.000000 0.8988 0.8987 0.8985 0.8984 0.8983
3390.000000 0.8982 0.8981 0.8980 0.8978 0.8978
3385.000000 0.8977 0.8975 0.8975 0.8973 0.8971
3380.000000 0.8971 0.8970 0.8968 0.8968 0.8967
3375.000000 0.8966 0.8965 0.8964 0.8963 0.8962
3370.000000 0.8961 0.8960 0.8959 0.8958 0.8958
3365.000000 0.8957 0.8956 0.8955 0.8955 0.8954
3360.000000 0.8953 0.8952 0.8952 0.8951 0.8950
3355.000000 0.8949 0.8948 0.8948 0.8947 0.8947
3350.000000 0.8947 0.8947 0.8947 0.8947 0.8947
3345.000000 0.8947 0.8947 0.8947 0.8947 0.8947
3340.000000 0.8947 0.8947 0.8947 0.8946 0.8946
3335.000000 0.8946 0.8946 0.8946 0.8946 0.8946
3330.000000 0.8946 0.8946 0.8945 0.8945 0.8945
3325.000000 0.8945 0.8944 0.8944 0.8944 0.8944
3320.000000 0.8943 0.8943 0.8943 0.8943 0.8943
3315.000000 0.8942 0.8942 0.8941 0.8941 0.8940
3310.000000 0.8939 0.8938 0.8938 0.8937 0.8936
3305.000000 0.8935 0.8935 0.8934 0.8933 0.8932
3300.000000 0.8931 0.8928 0.8928 0.8925 0.8923
3295.000000 0.8920 0.8917 0.8914 0.8911 0.8909
3290.000000 0.8906 0.8902 0.8898 0.8894 0.8889
3285.000000 0.8884 0.8875 0.8868 0.8860 0.8852
3280.000000 0.8843 0.8835 0.8827 0.8818 0.8809
3275.000000 0.8798 0.8788 0.8777 0.8767 0.8756
3270.000000 0.8746 0.8735 0.8725 0.8714 0.8703
3265.000000 0.8692 0.8682 0.8671 0.8661 0.8651
3260.000000 0.8641 0.8631 0.8621 0.8611 0.8601
3255.000000 0.8590 0.8580 0.8570 0.8560 0.8550
3250.000000 0.8536 0.8521 0.8508 0.8494 0.8478
3245.000000 0.8461 0.8443 0.8425 0.8409 0.8392
3240.000000 0.8375 0.8358 0.8342 0.8328 0.8315
3235.000000 0.8302 0.8288 0.8275 0.8262 0.8249
3230.000000 0.8236 0.8223 0.8210 0.8197 0.8184
3225.000000 0.8171 0.8158 0.8146 0.8134 0.8121
3220.000000 0.8108 0.8096 0.8084 0.8074 0.8067
3215.000000 0.8061 0.8054 0.8048 0.8044 0.8040
3210.000000 0.8036 0.8032 0.8028 0.8024 0.8019
3205.000000 0.8015 0.8012 0.8011 0.8008 0.8005
3200.000000 0.8004 0.8003 0.8001 0.8000 0.7998
3195.000000 0.7997 0.7995 0.7994 0.7992 0.7991
3190.000000 0.7989 0.7988 0.7986 0.7985 0.7983
3185.000000 0.7982 0.7981 0.7980 0.7978 0.7978
3180.000000 0.7976 0.7975 0.7974 0.7972 0.7971
3175.000000 0.7969 0.7968 0.7968 0.7967 0.7965
3170.000000 0.7964 0.7962 0.7961 0.7960 0.7958
3165.000000 0.7956 0.7955 0.7953 0.7951 0.7950
3160.000000 0.7949 0.7947 0.7945 0.7943 0.7942
3155.000000 0.7940 0.7939 0.7937 0.7935 0.7934
3150.000000 0.7932 0.7930 0.7928 0.7925 0.7922
3145.000000 0.7919 0.7917 0.7914 0.7910 0.7907
3140.000000 0.7903 0.7899 0.7896 0.7892 0.7889
3135.000000 0.7885 0.7881 0.7876 0.7871 0.7865
3130.000000 0.7858 0.7853 0.7845 0.7837 0.7828
3125.000000 0.7821 0.7812 0.7805 0.7797 0.7789
3120.000000 0.7781 0.7772 0.7765 0.7757 0.7749
3115.000000 0.7741 0.7733 0.7722 0.7708 0.7696
3110.000000 0.7682 0.7665 0.7646 0.7625 0.7606
3105.000000 0.7586 0.7565 0.7546 0.7525 0.7504
3100.000000 0.7483 0.7461 0.7439 0.7417 0.7395
3095.000000 0.7371 0.7350 0.7328 0.7306 0.7284
3090.000000 0.7234 0.7094 0.6954 0.6814 0.6718
3085.000000 0.6687 0.6656 0.6624 0.6596 0.6571
3080.000000 0.6545 0.6519 0.6493 0.6465 0.6439
3075.000000 0.6410 0.6334 0.6258 0.6181 0.6120
3070.000000 0.6103 0.6086 0.6069 0.6028 0.5960
3065.000000 0.5892 0.5824 0.5753 0.5682 0.5610
3060.000000 0.5538 0.5467 0.5395 0.5323 0.5252
3055.000000 0.5180 0.5107 0.5035 0.4962 0.4891
3050.000000 0.4819 0.4746 0.4674 0.4602 0.4529
3045.000000 0.4457 0.4384 0.4312 0.4240 0.4167
3040.000000 0.4094 0.4022 0.3949 0.3876 0.3803
3035.000000 0.3730 0.3657 0.3584 0.3510 0.3438
3030.000000 0.3364 0.3292 0.3218 0.3145 0.3072
3025.000000 0.2998 0.2925 0.2851 0.2778 0.2704
3020.000000 0.2630 0.2557 0.2483 0.2410 0.2335
3015.000000 0.2262 0.2188 0.2114 0.2040 0.1966
3010.000000 0.1891 0.1817 0.1743 0.1669 0.1594
3005.000000 0.1520 0.1445 0.1371 0.1296 0.1223
3000.000000 0.1148 0.1073 0.0997 0.0922 0.0847
2995.000000 0.0774 0.0699 0.0624 0.0549 0.0473
2990.000000 0.0413 0.0368 0.0325 0.0282 0.0273
2985.000000 0.0271 0.0267 0.0266 0.0264 0.0262
2980.000000 0.0260 0.0259 0.0258 0.0257 0.0256
2975.000000 0.0255 0.0255 0.0254 0.0253 0.0252
2970.000000 0.0251 0.0250 0.0250 0.0249 0.0249
2965.000000 0.0248 0.0248 0.0248 0.0248 0.0248
2960.000000 0.0248 0.0248 0.0247 0.0247 0.0247
2955.000000 0.0246 0.0246 0.0246 0.0246 0.0245
2950.000000 0.0245 0.0245 0.0245 0.0245 0.0245
2945.000000 0.0245 0.0245 0.0245 0.0245 0.0246
2940.000000 0.0246 0.0246 0.0246 0.0246 0.0246
2935.000000 0.0246 0.0247 0.0247 0.0247 0.0247
2930.000000 0.0247 0.0247 0.0247 0.0248 0.0248
2925.000000 0.0248 0.0248 0.0248 0.0248 0.0248
2920.000000 0.0249 0.0249 0.0249 0.0250 0.0250
2915.000000 0.0250 0.0250 0.0250 0.0250 0.0250
2910.000000 0.0251 0.0251 0.0251 0.0251 0.0252
2905.000000 0.0252 0.0252 0.0253 0.0253 0.0253
2900.000000 0.0254 0.0254 0.0254 0.0254 0.0255
2895.000000 0.0255 0.0255 0.0256 0.0257 0.0258
2890.000000 0.0259 0.0260 0.0260 0.0261 0.0262
2885.000000 0.0263 0.0264 0.0265 0.0266 0.0266
2880.000000 0.0267 0.0270 0.0271 0.0273 0.0277
2875.000000 0.0282 0.0287 0.0291 0.0296 0.0301
2870.000000 0.0306 0.0310 0.0315 0.0318 0.0331
2865.000000 0.0344 0.0356 0.0367 0.0381 0.0394
2860.000000 0.0408 0.0423 0.0439 0.0456 0.0484
2855.000000 0.0511 0.0538 0.0567 0.0596 0.0626
2850.000000 0.0673 0.0732 0.0791 0.0849 0.0907
2845.000000 0.0965 0.1046 0.1271 0.1496 0.1722
2840.000000 0.2034 0.2354 0.2674 0.2995 0.3316
2835.000000 0.3637 0.3958 0.4279 0.4601 0.4854
2830.000000 0.4909 0.4964 0.5022 0.5114 0.5207
2825.000000 0.5299 0.5348 0.5389 0.5431 0.5479
2820.000000 0.5530 0.5581 0.5641 0.5710 0.5779
2815.000000 0.5842 0.5891 0.5941 0.5986 0.6012
2810.000000 0.6039 0.6065 0.6092 0.6118 0.6145
2805.000000 0.6176 0.6207 0.6238 0.6271 0.6306
2800.000000 0.6340 0.6376 0.6414 0.6451 0.6489
2795.000000 0.6526 0.6564 0.6601 0.6635 0.6668
2790.000000 0.6701 0.6724 0.6747 0.6769 0.6800
2785.000000 0.6828 0.6858 0.6865 0.6872 0.6880
2780.000000 0.6883 0.6887 0.6890 0.6892 0.6893
2775.000000 0.6894 0.6895 0.6897 0.6898 0.6899
2770.000000 0.6900 0.6900 0.6900 0.6900 0.6900
2765.000000 0.6896 0.6887 0.6878 0.6867 0.6849
2760.000000 0.6831 0.6812 0.6795 0.6775 0.6758
2755.000000 0.6740 0.6721 0.6705 0.6689 0.6674
2750.000000 0.6661 0.6660 0.6658 0.6656 0.6656
2745.000000 0.6656 0.6656 0.6668 0.6680 0.6694
2740.000000 0.6714 0.6733 0.6753 0.6772 0.6792
2735.000000 0.6811 0.6831 0.6851 0.6869 0.6890
2730.000000 0.6910 0.6930 0.6949 0.6968 0.6989
2725.000000 0.7008 0.7028 0.7049 0.7068 0.7088
2720.000000 0.7107 0.7126 0.7147 0.7167 0.7187
2715.000000 0.7264 0.7226 0.7247 0.7267 0.7278
2710.000000 0.7283 0.7287 0.7285 0.7278 0.7271
2705.000000 0.7258 0.7240 0.7221 0.7204 0.7185
2700.000000 0.7165 0.7148 0.7128 0.7111 0.7093
2695.000000 0.7074 0.7056 0.7038 0.7018 0.7001
2690.000000 0.6990 0.6978 0.6969 0.6971 0.6972
2685.000000 0.6976 0.6984 0.6991 0.7001 0.7015
2680.000000 0.7028 0.7042 0.7055 0.7067 0.7078
2675.000000 0.7090 0.7101 0.7108 0.7114 0.7119
2670.000000 0.7125 0.7131 0.7136 0.7139 0.7143
2665.000000 0.7146 0.7148 0.7149 0.7149 0.7149
2660.000000 0.7147 0.7146 0.7145 0.7144 0.7142
2655.000000 0.7141 0.7140 0.7139 0.7137 0.7136
2650.000000 0.7135 0.7135 0.7134 0.7139 0.7143
2645.000000 0.7148 0.7151 0.7156 0.7162 0.7169
2640.000000 0.7176 0.7187 0.7197 0.7207 0.7214
2635.000000 0.7221 0.7226 0.7233 0.7238 0.7242
2630.000000 0.7245 0.7248 0.7251 0.7254 0.7258
2625.000000 0.7261 0.7262 0.7265 0.7265 0.7264
2620.000000 0.7262 0.7261 0.7261 0.7257 0.7251
2615.000000 0.7245 0.7224 0.7203 0.7175 0.7140
2610.000000 0.7103 0.7067 0.7030 0.6994 0.6957
2605.000000 0.6919 0.6883 0.6847 0.6810 0.6774
2600.000000 0.6737 0.6700 0.6662 0.6625 0.6589
2595.000000 0.6551 0.6515 0.6478 0.6441 0.6404
2590.000000 0.6367 0.6330 0.6293 0.6255 0.6218
2585.000000 0.6181 0.6143 0.6106 0.6069 0.6031
2580.000000 0.5994 0.5957 0.5919 0.5888 0.5870
2575.000000 0.5852 0.5844 0.5830 0.5838 0.5837
2570.000000 0.5836 0.5835 0.5834 0.5833 0.5855
2565.000000 0.5885 0.5915 0.5953 0.5992 0.6029
2560.000000 0.6067 0.6105 0.6143 0.6181 0.6220
2555.000000 0.6258 0.6296 0.6335 0.6373 0.6411
2550.000000 0.6450 0.6488 0.6526 0.6565 0.6603
2545.000000 0.6641 0.6680 0.6718 0.6757 0.6796
2540.000000 0.6835 0.6872 0.6911 0.6951 0.6990
2535.000000 0.7026 0.7061 0.7096 0.7125 0.7155
2530.000000 0.7184 0.7214 0.7244 0.7274 0.7305
2525.000000 0.7337 0.7368 0.7401 0.7433 0.7465
2520.000000 0.7497 0.7521 0.7547 0.7568 0.7590
2515.000000 0.7610 0.7631 0.7651 0.7671 0.7692
2510.000000 0.7712 0.7739 0.7765 0.7791 0.7817
2505.000000 0.7843 0.7855 0.7868 0.7881 0.7893
2500.000000 0.7905 0.7917 0.7928 0.7942 0.7954
2495.000000 0.7965 0.7976 0.7988 0.8000 0.8011
2490.000000 0.8022 0.8034 0.8046 0.8057 0.8068
2485.000000 0.8078 0.8086 0.8093 0.8100 0.8106
2480.000000 0.8112 0.8118 0.8125 0.8132 0.8139
2475.000000 0.8146 0.8153 0.8158 0.8165 0.8171
2470.000000 0.8178 0.8182 0.8186 0.8190 0.8194
2465.000000 0.8198 0.8203 0.8207 0.8211 0.8216
2460.000000 0.8220 0.8224 0.8228 0.8233 0.8237
2455.000000 0.8241 0.8245 0.8249 0.8253 0.8257
2450.000000 0.8259 0.8261 0.8262 0.8263 0.8264
2445.000000 0.8265 0.8266 0.8267 0.8268 0.8270
2440.000000 0.8271 0.8273 0.8274 0.8275 0.8275
2435.000000 0.8275 0.8274 0.8274 0.8274 0.8274
2430.000000 0.8274 0.8273 0.8273 0.8271 0.8271
2425.000000 0.8271 0.8271 0.8271 0.8271 0.8271
2420.000000 0.8270 0.8270 0.8270 0.8268 0.8268
2415.000000 0.8268 0.8267 0.8266 0.8266 0.8266
2410.000000 0.8265 0.8265 0.8264 0.8264 0.8263
2405.000000 0.8263 0.8263 0.8263 0.8263 0.8263
2400.000000 0.8263 0.8264 0.8265 0.8265 0.8266
2395.000000 0.8266 0.8267 0.8267 0.8268 0.8268
2390.000000 0.8268 0.8268 0.8268 0.8270 0.8270
2385.000000 0.8271 0.8271 0.8273 0.8275 0.8277
2380.000000 0.8278 0.8281 0.8283 0.8285 0.8287
2375.000000 0.8289 0.8291 0.8293 0.8294 0.8297
2370.000000 0.8299 0.8301 0.8302 0.8305 0.8307
2365.000000 0.8310 0.8314 0.8318 0.8321 0.8325
2360.000000 0.8330 0.8334 0.8338 0.8343 0.8347
2355.000000 0.8351 0.8355 0.8360 0.8365 0.8370
2350.000000 0.8375 0.8382 0.8388 0.8394 0.8400
2345.000000 0.8406 0.8412 0.8418 0.8423 0.8428
2340.000000 0.8435 0.8441 0.8447 0.8453 0.8459
2335.000000 0.8466 0.8471 0.8478 0.8485 0.8491
2330.000000 0.8497 0.8502 0.8507 0.8511 0.8514
2325.000000 0.8517 0.8521 0.8523 0.8523 0.8523
2320.000000 0.8521 0.8521 0.8521 0.8521 0.8520
2315.000000 0.8518 0.8518 0.8518 0.8517 0.8516
2310.000000 0.8515 0.8515 0.8514 0.8513 0.8512
2305.000000 0.8512 0.8512 0.8512 0.8512 0.8512
2300.000000 0.8512 0.8512 0.8512 0.8512 0.8512
2295.000000 0.8512 0.8512 0.8511 0.8511 0.8511
2290.000000 0.8511 0.8511 0.8511 0.8511 0.8511
2285.000000 0.8511 0.8511 0.8512 0.8512 0.8512
2280.000000 0.8512 0.8512 0.8512 0.8512 0.8512
2275.000000 0.8512 0.8512 0.8512 0.8513 0.8513
2270.000000 0.8513 0.8513 0.8513 0.8513 0.8514
2265.000000 0.8514 0.8514 0.8514 0.8515 0.8515
2260.000000 0.8515 0.8515 0.8516 0.8516 0.8516
2255.000000 0.8516 0.8517 0.8517 0.8517 0.8517
2250.000000 0.8518 0.8518 0.8518 0.8518 0.8518
2245.000000 0.8520 0.8521 0.8521 0.8523 0.8524
2240.000000 0.8525 0.8525 0.8528 0.8528 0.8530
2235.000000 0.8531 0.8532 0.8533 0.8535 0.8536
2230.000000 0.8537 0.8538 0.8539 0.8540 0.8542
2225.000000 0.8544 0.8546 0.8547 0.8549 0.8550
2220.000000 0.8552 0.8553 0.8555 0.8556 0.8558
2215.000000 0.8561 0.8564 0.8567 0.8570 0.8573
2210.000000 0.8575 0.8578 0.8582 0.8585 0.8588
2205.000000 0.8591 0.8594 0.8597 0.8600 0.8603
2200.000000 0.8607 0.8610 0.8613 0.8616 0.8618
2195.000000 0.8621 0.8621 0.8618 0.8617 0.8615
2190.000000 0.8613 0.8611 0.8607 0.8604 0.8599
2185.000000 0.8595 0.8590 0.8586 0.8581 0.8575
2180.000000 0.8568 0.8563 0.8556 0.8551 0.8546
2175.000000 0.8542 0.8537 0.8532 0.8527 0.8523
2170.000000 0.8518 0.8515 0.8511 0.8507 0.8503
2165.000000 0.8499 0.8497 0.8497 0.8497 0.8497
2160.000000 0.8496 0.8496 0.8496 0.8496 0.8497
2155.000000 0.8498 0.8501 0.8504 0.8507 0.8510
2150.000000 0.8512 0.8515 0.8518 0.8521 0.8525
2145.000000 0.8528 0.8531 0.8534 0.8537 0.8541
2140.000000 0.8544 0.8546 0.8549 0.8553 0.8556
2135.000000 0.8559 0.8563 0.8566 0.8568 0.8571
2130.000000 0.8575 0.8578 0.8581 0.8584 0.8587
2125.000000 0.8590 0.8594 0.8597 0.8600 0.8603
2120.000000 0.8606 0.8609 0.8613 0.8616 0.8618
2115.000000 0.8621 0.8624 0.8627 0.8630 0.8633
2110.000000 0.8635 0.8637 0.8640 0.8643 0.8645
2105.000000 0.8647 0.8650 0.8652 0.8655 0.8657
2100.000000 0.8660 0.8663 0.8664 0.8665 0.8665
2095.000000 0.8666 0.8666 0.8666 0.8667 0.8667
2090.000000 0.8668 0.8668 0.8668 0.8668 0.8668
2085.000000 0.8670 0.8670 0.8670 0.8670 0.8670
2080.000000 0.8670 0.8670 0.8670 0.8670 0.8670
2075.000000 0.8670 0.8670 0.8670 0.8668 0.8668
2070.000000 0.8668 0.8668 0.8668 0.8668 0.8668
2065.000000 0.8668 0.8668 0.8668 0.8670 0.8671
2060.000000 0.8671 0.8671 0.8671 0.8673 0.8673
2055.000000 0.8673 0.8674 0.8674 0.8674 0.8671
2050.000000 0.8670 0.8668 0.8668 0.8667 0.8665
2045.000000 0.8664 0.8662 0.8661 0.8660 0.8658
2040.000000 0.8657 0.8655 0.8654 0.8653 0.8651
2035.000000 0.8651 0.8652 0.8652 0.8652 0.8652
2030.000000 0.8652 0.8652 0.8652 0.8652 0.8652
2025.000000 0.8652 0.8653 0.8653 0.8653 0.8653
2020.000000 0.8653 0.8653 0.8653 0.8653 0.8654
2015.000000 0.8654 0.8654 0.8654 0.8654 0.8654
2010.000000 0.8654 0.8655 0.8655 0.8655 0.8655
2005.000000 0.8655 0.8656 0.8656 0.8656 0.8656
2000.000000 0.8657 0.8657 0.8657 0.8657 0.8657
1995.000000 0.8658 0.8658 0.8658 0.8658 0.8658
1990.000000 0.8658 0.8658 0.8658 0.8658 0.8658
1985.000000 0.8658 0.8658 0.8658 0.8658 0.8658
