##TITLE=2-METHYL-1,3-PENTADIENE
##JCAMP-DX=4.24
##DATA TYPE=INFRARED SPECTRUM
##CLASS=COBLENTZ III
##ORIGIN=BUSH BOAKE ALLEN LTD. VIA SCIENTIFIC DOC. CENTRE LTD.
##OWNER=COBLENTZ SOCIETY
Collection (C) 2018 copyright by the U.S. Secretary of Commerce
on behalf of the United States of America. All rights reserved.
##DATE=Not specified, most likely prior to 1982
##NAMES=(3E)-2-methyl-1,3-pentadiene
##CAS REGISTRY NO=1118-58-7
##MOLFORM=C6 H10
##BP=77 C
##SOURCE REFERENCE=COBLENTZ NO. 10331
##$NIST SOURCE=COBLENTZ
##$NIST IMAGE=cob10331
##SPECTROMETER/DATA SYSTEM=UNICAM SP-200
##STATE=LIQUID (NEAT)
##PATH LENGTH=CAPILLARY
##SAMPLING PROCEDURE=TRANSMISSION
##RESOLUTION=4
##DATA PROCESSING=DIGITIZED BY NIST FROM HARD COPY (FROM TWO SEGMENTS)
##XUNITS=1/CM
##YUNITS=TRANSMITTANCE
##XFACTOR=1.000000
##YFACTOR=1
##DELTAX=0.794915
##FIRSTX=658.506
##LASTX=4993.18
##FIRSTY=0.623
##MAXX=4993.18
##MINX=658.506
##MAXY=0.853
##MINY=0.098
##NPOINTS=5454
##XYDATA=(X++(Y..Y))
658.506000 0.6230 0.6250 0.6260 0.6270 0.6280
662.480575 0.6300 0.6320 0.6370 0.6420 0.6500
666.455149 0.6630 0.6750 0.6790 0.6820 0.6860
670.429724 0.6890 0.6900 0.6940 0.6950 0.6980
674.404298 0.6990 0.6990 0.7000 0.7020 0.7030
678.378873 0.7040 0.7030 0.7010 0.7000 0.7010
682.353447 0.7020 0.7040 0.7050 0.7070 0.7110
686.328022 0.7160 0.7220 0.7280 0.7340 0.7390
690.302596 0.7430 0.7470 0.7490 0.7540 0.7570
694.277171 0.7590 0.7620 0.7640 0.7710 0.7780
698.251745 0.7810 0.7830 0.7850 0.7850 0.7860
702.226320 0.7890 0.7910 0.7940 0.7950 0.7960
706.200894 0.7970 0.7980 0.8000 0.8000 0.8010
710.175469 0.8020 0.8020 0.8040 0.8040 0.8060
714.150043 0.8070 0.8080 0.8090 0.8100 0.8120
718.124618 0.8120 0.8120 0.8130 0.8140 0.8150
722.099193 0.8150 0.8150 0.8160 0.8160 0.8170
726.073767 0.8170 0.8180 0.8190 0.8210 0.8210
730.048342 0.8220 0.8220 0.8230 0.8230 0.8240
734.022916 0.8240 0.8250 0.8260 0.8270 0.8290
737.997491 0.8290 0.8290 0.8300 0.8310 0.8310
741.972065 0.8330 0.8340 0.8350 0.8350 0.8360
745.946640 0.8360 0.8350 0.8350 0.8300 0.8290
749.921214 0.8280 0.8270 0.8270 0.8280 0.8290
753.895789 0.8300 0.8300 0.8310 0.8310 0.8310
757.870363 0.8310 0.8310 0.8320 0.8320 0.8330
761.844938 0.8330 0.8330 0.8340 0.8350 0.8360
765.819512 0.8350 0.8340 0.8330 0.8330 0.8350
769.794087 0.8370 0.8380 0.8390 0.8390 0.8390
773.768661 0.8390 0.8400 0.8400 0.8400 0.8400
777.743236 0.8390 0.8370 0.8350 0.8350 0.8340
781.717811 0.8340 0.8330 0.8330 0.8310 0.8290
785.692385 0.8270 0.8240 0.8220 0.8210 0.8190
789.666960 0.8150 0.8130 0.8120 0.8100 0.8060
793.641534 0.7990 0.7950 0.7920 0.7890 0.7850
797.616109 0.7790 0.7680 0.7630 0.7570 0.7540
801.590683 0.7520 0.7420 0.7330 0.7250 0.7130
805.565258 0.6990 0.6810 0.6700 0.6580 0.6281
809.539832 0.6090 0.5890 0.5290 0.4690 0.4450
813.514407 0.4021 0.3591 0.3550 0.3610 0.3690
817.488981 0.3920 0.4310 0.4710 0.5120 0.5440
821.463556 0.5590 0.5959 0.6100 0.6180 0.6300
825.438130 0.6380 0.6400 0.6460 0.6640 0.6800
829.412705 0.6900 0.7070 0.7160 0.7260 0.7360
833.387279 0.7420 0.7470 0.7550 0.7570 0.7590
837.361854 0.7610 0.7620 0.7640 0.7660 0.7680
841.336429 0.7690 0.7690 0.7700 0.7710 0.7710
845.311003 0.7730 0.7730 0.7710 0.7700 0.7660
849.285578 0.7640 0.7610 0.7570 0.7550 0.7520
853.260152 0.7470 0.7410 0.7340 0.7300 0.7250
857.234727 0.7070 0.6940 0.6880 0.6750 0.6660
861.209301 0.6580 0.6470 0.6261 0.6111 0.5941
865.183876 0.5850 0.5770 0.5590 0.5300 0.5180
869.158450 0.5050 0.4501 0.4281 0.4061 0.3602
873.133025 0.3330 0.3050 0.2810 0.2570 0.2320
877.107599 0.1941 0.1830 0.1710 0.1590 0.1490
881.082174 0.1410 0.1350 0.1310 0.1280 0.1270
885.056748 0.1260 0.1250 0.1250 0.1240 0.1250
889.031323 0.1260 0.1270 0.1340 0.1420 0.1510
893.005897 0.1600 0.1680 0.1730 0.1820 0.1910
896.980472 0.1960 0.2050 0.2170 0.2360 0.2690
900.955047 0.2880 0.3100 0.3529 0.3690 0.3879
904.929621 0.4271 0.4540 0.4610 0.4860 0.5210
908.904196 0.5290 0.5420 0.5510 0.5640 0.5730
912.878770 0.5990 0.6120 0.6210 0.6300 0.6320
916.853345 0.6350 0.6390 0.6400 0.6420 0.6420
920.827919 0.6420 0.6420 0.6420 0.6420 0.6400
924.802494 0.6280 0.6200 0.6030 0.5881 0.5721
928.777068 0.5420 0.5150 0.4810 0.4450 0.4310
932.751643 0.4150 0.3801 0.3451 0.3131 0.3120
936.726217 0.3160 0.3470 0.3670 0.4300 0.4540
940.700792 0.4690 0.4830 0.4970 0.5090 0.5120
944.675366 0.5130 0.5140 0.5130 0.5100 0.5030
948.649941 0.4960 0.4810 0.4581 0.4391 0.4191
952.624515 0.3669 0.3360 0.3040 0.2710 0.2380
956.599090 0.1990 0.1850 0.1710 0.1540 0.1420
960.573665 0.1350 0.1300 0.1270 0.1220 0.1200
964.548239 0.1180 0.1160 0.1160 0.1180 0.1200
968.522814 0.1260 0.1361 0.1870 0.2060 0.2210
972.497388 0.2690 0.2850 0.3100 0.3519 0.3739
976.471963 0.3950 0.4340 0.4470 0.4590 0.4770
980.446537 0.4920 0.5030 0.5100 0.5200 0.5220
984.421112 0.5220 0.5170 0.5090 0.5000 0.4890
988.395686 0.4580 0.4350 0.4230 0.4110 0.3761
992.370261 0.3580 0.3550 0.3550 0.3600 0.3710
996.344835 0.3910 0.4309 0.4529 0.4789 0.5109
1000.319410 0.5300 0.5490 0.5640 0.5740 0.5840
1004.293984 0.5920 0.5940 0.5920 0.5910 0.5890
1008.268559 0.5880 0.5729 0.5340 0.4960 0.4570
1012.243133 0.4370 0.4280 0.4190 0.4110 0.4339
1016.217708 0.4571 0.4811 0.5170 0.5550 0.5940
1020.192283 0.6110 0.6220 0.6400 0.6520 0.6590
1024.166857 0.6630 0.6680 0.6780 0.6850 0.6890
1028.141432 0.6920 0.6940 0.6990 0.7020 0.7020
1032.116006 0.7030 0.7040 0.7040 0.7060 0.7070
1036.090581 0.7070 0.7070 0.7070 0.7070 0.7080
1040.065155 0.7090 0.7110 0.7110 0.7100 0.7090
1044.039730 0.7090 0.7080 0.7060 0.7040 0.7020
1048.014304 0.7010 0.7000 0.6970 0.6940 0.6860
1051.988879 0.6730 0.6690 0.6640 0.6590 0.6510
1055.963453 0.6430 0.6420 0.6420 0.6420 0.6450
1059.938028 0.6510 0.6730 0.6850 0.6970 0.7070
1063.912602 0.7120 0.7170 0.7220 0.7280 0.7300
1067.887177 0.7310 0.7350 0.7400 0.7410 0.7450
1071.861751 0.7470 0.7490 0.7500 0.7510 0.7520
1075.836326 0.7540 0.7550 0.7560 0.7560 0.7560
1079.810901 0.7570 0.7580 0.7590 0.7590 0.7600
1083.785475 0.7610 0.7620 0.7620 0.7590 0.7590
1087.760050 0.7590 0.7610 0.7610 0.7620 0.7620
1091.734624 0.7590 0.7570 0.7550 0.7540 0.7540
1095.709199 0.7540 0.7530 0.7530 0.7520 0.7520
1099.683773 0.7540 0.7560 0.7580 0.7590 0.7620
1103.658348 0.7650 0.7680 0.7710 0.7750 0.7780
1107.632922 0.7800 0.7800 0.7810 0.7830 0.7830
1111.607497 0.7860 0.7860 0.7860 0.7860 0.7850
1115.582071 0.7850 0.7850 0.7860 0.7860 0.7870
1119.556646 0.7880 0.7880 0.7890 0.7890 0.7900
1123.531220 0.7900 0.7910 0.7910 0.7920 0.7920
1127.505795 0.7920 0.7920 0.7930 0.7930 0.7930
1131.480369 0.7930 0.7930 0.7930 0.7940 0.7950
1135.454944 0.7950 0.7950 0.7950 0.7960 0.7980
1139.429519 0.7980 0.7960 0.7950 0.7940 0.7930
1143.404093 0.7930 0.7950 0.7960 0.7960 0.7940
1147.378668 0.7940 0.7950 0.7960 0.7960 0.7960
1151.353242 0.7960 0.7970 0.7970 0.7960 0.7970
1155.327817 0.7970 0.7970 0.7980 0.7980 0.7980
1159.302391 0.7970 0.7970 0.7960 0.7960 0.7960
1163.276966 0.7970 0.7980 0.7990 0.8010 0.7970
1167.251540 0.7970 0.7970 0.7970 0.7970 0.7970
1171.226115 0.7980 0.8000 0.8020 0.8010 0.8000
1175.200689 0.7990 0.8000 0.8000 0.8000 0.8000
1179.175264 0.8010 0.8020 0.8040 0.8040 0.8040
1183.149838 0.8040 0.8040 0.8040 0.8040 0.8040
1187.124413 0.8050 0.8050 0.8050 0.8050 0.8050
1191.098987 0.8050 0.8040 0.8040 0.8040 0.8020
1195.073562 0.8020 0.7980 0.7960 0.7940 0.7920
1199.048137 0.7900 0.7880 0.7850 0.7810 0.7760
1203.022711 0.7710 0.7620 0.7580 0.7530 0.7420
1206.997286 0.7219 0.6960 0.6870 0.6770 0.6720
1210.971860 0.6670 0.6660 0.6750 0.6850 0.6950
1214.946435 0.7040 0.7140 0.7270 0.7310 0.7370
1218.921009 0.7420 0.7460 0.7490 0.7510 0.7510
1222.895584 0.7500 0.7490 0.7470 0.7470 0.7460
1226.870158 0.7450 0.7440 0.7430 0.7430 0.7430
1230.844733 0.7430 0.7430 0.7430 0.7440 0.7440
1234.819307 0.7450 0.7460 0.7460 0.7450 0.7450
1238.793882 0.7450 0.7440 0.7450 0.7450 0.7460
1242.768456 0.7470 0.7470 0.7490 0.7500 0.7500
1246.743031 0.7510 0.7500 0.7500 0.7520 0.7520
1250.717605 0.7520 0.7500 0.7490 0.7480 0.7470
1254.692180 0.7470 0.7470 0.7460 0.7460 0.7470
1258.666755 0.7470 0.7480 0.7490 0.7500 0.7520
1262.641329 0.7550 0.7570 0.7570 0.7590 0.7600
1266.615904 0.7610 0.7610 0.7610 0.7620 0.7620
1270.590478 0.7620 0.7630 0.7620 0.7610 0.7580
1274.565053 0.7580 0.7610 0.7620 0.7630 0.7630
1278.539627 0.7620 0.7620 0.7620 0.7610 0.7610
1282.514202 0.7590 0.7560 0.7540 0.7530 0.7490
1286.488776 0.7470 0.7430 0.7400 0.7370 0.7350
1290.463351 0.7330 0.7320 0.7310 0.7310 0.7300
1294.437925 0.7290 0.7270 0.7240 0.7230 0.7160
1298.412500 0.7090 0.6970 0.6870 0.6790 0.6730
1302.387074 0.6700 0.6660 0.6580 0.6490 0.6360
1306.361649 0.6300 0.6240 0.6160 0.6080 0.6040
1310.336223 0.5990 0.5960 0.5940 0.5940 0.5940
1314.310798 0.5970 0.6080 0.6260 0.6400 0.6570
1318.285373 0.6830 0.6950 0.7040 0.7110 0.7160
1322.259947 0.7210 0.7240 0.7260 0.7280 0.7300
1326.234522 0.7310 0.7320 0.7320 0.7310 0.7300
1330.209096 0.7290 0.7250 0.7220 0.7210 0.7210
1334.183671 0.7210 0.7220 0.7230 0.7230 0.7240
1338.158245 0.7250 0.7290 0.7300 0.7300 0.7290
1342.132820 0.7290 0.7280 0.7280 0.7230 0.7190
1346.107394 0.7130 0.7040 0.6960 0.6890 0.6830
1350.081969 0.6760 0.6730 0.6700 0.6620 0.6510
1354.056543 0.6420 0.6370 0.6250 0.6130 0.6000
1358.031118 0.5940 0.5890 0.5770 0.5670 0.5580
1362.005692 0.5480 0.5410 0.5380 0.5330 0.5290
1365.980267 0.5220 0.5130 0.5080 0.5030 0.4930
1369.954841 0.4850 0.4750 0.4680 0.4361 0.4210
1373.929416 0.4059 0.3859 0.3570 0.3360 0.3160
1377.903991 0.2680 0.2590 0.2510 0.2330 0.2160
1381.878565 0.2160 0.2160 0.2291 0.2740 0.3040
1385.853140 0.3220 0.3540 0.3780 0.4020 0.4409
1389.827714 0.4631 0.4841 0.5100 0.5170 0.5300
1393.802289 0.5410 0.5460 0.5510 0.5580 0.5630
1397.776863 0.5690 0.5730 0.5760 0.5780 0.5800
1401.751438 0.5820 0.5840 0.5840 0.5810 0.5780
1405.726012 0.5750 0.5710 0.5650 0.5570 0.5420
1409.700587 0.5310 0.5210 0.5090 0.5010 0.4940
1413.675161 0.4720 0.4630 0.4489 0.4270 0.4220
1417.649736 0.4170 0.4170 0.4190 0.4310 0.4380
1421.624310 0.4450 0.4520 0.4560 0.4600 0.4600
1425.598885 0.4600 0.4580 0.4550 0.4340 0.4270
1429.573459 0.4189 0.4000 0.3890 0.3790 0.3650
1433.548034 0.3500 0.3360 0.3220 0.3010 0.2830
1437.522609 0.2690 0.2620 0.2560 0.2430 0.2310
1441.497183 0.2180 0.2090 0.2040 0.2030 0.2030
1445.471758 0.2050 0.2050 0.2060 0.2060 0.2040
1449.446332 0.2040 0.2040 0.2060 0.2070 0.2100
1453.420907 0.2120 0.2130 0.2160 0.2190 0.2250
1457.395481 0.2300 0.2340 0.2420 0.2730 0.3040
1461.370056 0.3701 0.4040 0.4170 0.4290 0.4410
1465.344630 0.4550 0.4690 0.4810 0.4940 0.5190
1469.319205 0.5321 0.5530 0.5610 0.5690 0.5770
1473.293779 0.5840 0.5940 0.5960 0.6030 0.6110
1477.268354 0.6270 0.6370 0.6420 0.6520 0.6570
1481.242928 0.6620 0.6670 0.6700 0.6770 0.6810
1485.217503 0.6840 0.6870 0.6890 0.6920 0.6940
1489.192077 0.6970 0.6970 0.6990 0.7020 0.7040
1493.166652 0.7060 0.7120 0.7190 0.7190 0.7190
1497.141227 0.7200 0.7200 0.7200 0.7200 0.7200
1501.115801 0.7200 0.7200 0.7200 0.7200 0.7210
1505.090376 0.7210 0.7210 0.7220 0.7230 0.7240
1509.064950 0.7250 0.7280 0.7310 0.7350 0.7380
1513.039525 0.7400 0.7420 0.7430 0.7440 0.7450
1517.014099 0.7460 0.7490 0.7500 0.7550 0.7580
1520.988674 0.7600 0.7620 0.7640 0.7650 0.7660
1524.963248 0.7670 0.7680 0.7690 0.7690 0.7670
1528.937823 0.7660 0.7660 0.7650 0.7660 0.7660
1532.912397 0.7660 0.7670 0.7680 0.7690 0.7710
1536.886972 0.7730 0.7740 0.7750 0.7760 0.7770
1540.861546 0.7780 0.7800 0.7830 0.7850 0.7860
1544.836121 0.7850 0.7830 0.7800 0.7760 0.7750
1548.810695 0.7740 0.7710 0.7700 0.7690 0.7690
1552.785270 0.7700 0.7700 0.7700 0.7690 0.7690
1556.759845 0.7690 0.7680 0.7680 0.7680 0.7660
1560.734419 0.7650 0.7640 0.7620 0.7620 0.7610
1564.708994 0.7590 0.7570 0.7560 0.7540 0.7520
1568.683568 0.7520 0.7520 0.7560 0.7570 0.7570
1572.658143 0.7590 0.7600 0.7610 0.7610 0.7600
1576.632717 0.7590 0.7570 0.7560 0.7550 0.7540
1580.607292 0.7520 0.7500 0.7480 0.7430 0.7370
1584.581866 0.7300 0.7240 0.7180 0.7140 0.7110
1588.556441 0.7090 0.7070 0.7010 0.6950 0.6890
1592.531015 0.6800 0.6750 0.6700 0.6540 0.6350
1596.505590 0.6089 0.5939 0.5779 0.5369 0.5170
1600.480164 0.4949 0.4540 0.4450 0.4340 0.4100
1604.454739 0.3859 0.3599 0.3329 0.2760 0.2640
1608.429313 0.2520 0.2330 0.2190 0.2180 0.2210
1612.403888 0.2352 0.2811 0.3102 0.3791 0.4321
1616.378463 0.5100 0.5260 0.5690 0.5720 0.5810
1620.353037 0.6010 0.6060 0.6120 0.6160 0.6210
1624.327612 0.6230 0.6370 0.6410 0.6440 0.6470
1628.302186 0.6520 0.6590 0.6600 0.6610 0.6610
1632.276761 0.6610 0.6600 0.6580 0.6500 0.6410
1636.251335 0.6320 0.6240 0.6190 0.6190 0.6150
1640.225910 0.6130 0.6100 0.6080 0.6060 0.6020
1644.200484 0.5960 0.5910 0.5850 0.5740 0.5670
1648.175059 0.5580 0.5480 0.5300 0.5170 0.5030
1652.149633 0.4670 0.4580 0.4580 0.4600 0.4660
1656.124208 0.4740 0.4830 0.5150 0.5360 0.5580
1660.098782 0.5971 0.6130 0.6231 0.6420 0.6521
1664.073357 0.6740 0.6920 0.7040 0.7100 0.7250
1668.047931 0.7360 0.7450 0.7590 0.7640 0.7660
1672.022506 0.7690 0.7750 0.7810 0.7850 0.7870
1675.997081 0.7880 0.7900 0.7930 0.7950 0.7970
1679.971655 0.8000 0.8020 0.8040 0.8070 0.8080
1683.946230 0.8090 0.8100 0.8100 0.8100 0.8100
1687.920804 0.8110 0.8090 0.8090 0.8100 0.8100
1691.895379 0.8100 0.8100 0.8100 0.8100 0.8100
1695.869953 0.8090 0.8090 0.8090 0.8100 0.8100
1699.844528 0.8090 0.8080 0.8070 0.8050 0.8050
1703.819102 0.8050 0.8050 0.8050 0.8050 0.8060
1707.793677 0.8070 0.8090 0.8090 0.8060 0.8030
1711.768251 0.8020 0.8000 0.8000 0.7980 0.7970
1715.742826 0.7950 0.7950 0.7950 0.7950 0.7960
1719.717400 0.7970 0.7980 0.7990 0.8000 0.8010
1723.691975 0.8020 0.8040 0.8040 0.8050 0.8040
1727.666549 0.8000 0.7970 0.7950 0.7930 0.7920
1731.641124 0.7880 0.7830 0.7820 0.7800 0.7770
1735.615699 0.7740 0.7730 0.7710 0.7690 0.7670
1739.590273 0.7640 0.7610 0.7540 0.7500 0.7460
1743.564848 0.7370 0.7280 0.7190 0.7100 0.7010
1747.539422 0.6940 0.6870 0.6780 0.6760 0.6730
1751.513997 0.6680 0.6550 0.6480 0.6410 0.6390
1755.488571 0.6300 0.6210 0.6090 0.6010 0.5910
1759.463146 0.5890 0.5870 0.5820 0.5790 0.5760
1763.437720 0.5710 0.5680 0.5670 0.5680 0.5690
1767.412295 0.5700 0.5710 0.5720 0.5770 0.5910
1771.386869 0.5990 0.6080 0.6180 0.6290 0.6400
1775.361444 0.6500 0.6550 0.6620 0.6770 0.6820
1779.336018 0.6880 0.6930 0.6990 0.7030 0.7080
1783.310593 0.7130 0.7180 0.7230 0.7280 0.7300
1787.285167 0.7310 0.7400 0.7450 0.7470 0.7480
1791.259742 0.7550 0.7570 0.7630 0.7680 0.7710
1795.234317 0.7730 0.7740 0.7760 0.7770 0.7790
1799.208891 0.7800 0.7830 0.7860 0.7900 0.7930
1803.183466 0.7960 0.7980 0.8010 0.8020 0.8050
1807.158040 0.8060 0.8070 0.8070 0.8080 0.8100
1811.132615 0.8120 0.8120 0.8130 0.8140 0.8150
1815.107189 0.8160 0.8160 0.8170 0.8180 0.8190
1819.081764 0.8190 0.8200 0.8210 0.8210 0.8210
1823.056338 0.8210 0.8200 0.8190 0.8190 0.8180
1827.030913 0.8180 0.8170 0.8150 0.8120 0.8110
1831.005487 0.8090 0.8080 0.8060 0.8040 0.8020
1834.980062 0.8000 0.7980 0.7960 0.7920 0.7870
1838.954636 0.7830 0.7780 0.7750 0.7740 0.7740
1842.929211 0.7720 0.7710 0.7710 0.7710 0.7720
1846.903785 0.7740 0.7750 0.7760 0.7790 0.7810
1850.878360 0.7860 0.7900 0.7930 0.7970 0.8000
1854.852935 0.8050 0.8070 0.8100 0.8120 0.8140
1858.827509 0.8160 0.8180 0.8190 0.8200 0.8210
1862.802084 0.8230 0.8240 0.8260 0.8290 0.8310
1866.776658 0.8330 0.8330 0.8340 0.8350 0.8380
1870.751233 0.8390 0.8400 0.8410 0.8420 0.8430
1874.725807 0.8440 0.8450 0.8450 0.8460 0.8460
1878.700382 0.8460 0.8450 0.8450 0.8450 0.8450
1882.674956 0.8470 0.8490 0.8500 0.8500 0.8500
1886.649531 0.8500 0.8500 0.8490 0.8490 0.8480
1890.624105 0.8470 0.8470 0.8470 0.8480 0.8480
1894.598680 0.8480 0.8490 0.8500 0.8500 0.8490
1898.573254 0.8480 0.8480 0.8480 0.8470 0.8470
1902.547829 0.8460 0.8450 0.8450 0.8470 0.8470
1906.522403 0.8480 0.8480 0.8480 0.8450 0.8440
1910.496978 0.8440 0.8430 0.8430 0.8410 0.8400
1914.471553 0.8400 0.8410 0.8420 0.8430 0.8430
1918.446127 0.8430 0.8440 0.8430 0.8360 0.8360
1922.420702 0.8380 0.8400 0.8430 0.8430 0.8430
1926.395276 0.8400 0.8400 0.8420 0.8430 0.8440
1930.369851 0.8430 0.8430 0.8430 0.8440 0.8450
1934.344425 0.8450 0.8460 0.8470 0.8480 0.8500
1938.319000 0.8500 0.8500 0.8500 0.8480 0.8480
1942.293574 0.8490 0.8500 0.8510 0.8520 0.8520
1946.268149 0.8510 0.8520 0.8520 0.8520 0.8520
1950.242723 0.8530 0.8530 0.8510 0.8480 0.8480
1954.217298 0.8480 0.8490 0.8510 0.8520 0.8530
1958.191872 0.8530 0.8500 0.8490 0.8490 0.8480
1962.166447 0.8480 0.8470 0.8460 0.8460 0.8460
1966.141021 0.8460 0.8460 0.8460 0.8470 0.8470
1970.115596 0.8470 0.8470 0.8470 0.8470 0.8480
1974.090171 0.8480 0.8480 0.8470 0.8450 0.8440
1978.064745 0.8440 0.8440 0.8430 0.8430 0.8450
1982.039320 0.8460 0.8470 0.8500 0.8510 0.8510
1986.013894 0.8500 0.8490 0.8490 0.8490 0.8490
1989.988469 0.8490 0.8490 0.8480 0.8480 0.8470
1993.963043 0.8460 0.8450 0.8440 0.8430 0.8410
1997.937618 0.8400 0.8390 0.8380 0.8380 0.8360
2001.912192 0.8360 0.8360 0.8430 0.8410 0.8400
2005.886767 0.8390 0.8380 0.8380 0.8360 0.8360
2009.861341 0.8342 0.8325 0.8307 0.8290 0.8272
2013.835916 0.8255 0.8237 0.8220 0.8210 0.8210
2017.810490 0.8210 0.8210 0.8216 0.8228 0.8241
2021.785065 0.8253 0.8262 0.8267 0.8272 0.8277
2025.759639 0.8282 0.8287 0.8292 0.8297 0.8301
2029.734214 0.8304 0.8306 0.8309 0.8311 0.8314
2033.708789 0.8316 0.8319 0.8320 0.8320 0.8320
2037.683363 0.8320 0.8322 0.8327 0.8332 0.8337
2041.657938 0.8342 0.8347 0.8352 0.8357 0.8361
2045.632512 0.8364 0.8366 0.8369 0.8370 0.8370
2049.607087 0.8370 0.8370 0.8370 0.8370 0.8370
2053.581661 0.8370 0.8370 0.8370 0.8370 0.8370
2057.556236 0.8367 0.8362 0.8357 0.8352 0.8349
2061.530810 0.8346 0.8344 0.8341 0.8337 0.8332
2065.505385 0.8327 0.8322 0.8312 0.8297 0.8282
2069.479959 0.8267 0.8259 0.8256 0.8254 0.8251
2073.454534 0.8250 0.8250 0.8250 0.8250 0.8251
2077.429108 0.8254 0.8256 0.8259 0.8260 0.8260
2081.403683 0.8260 0.8260 0.8264 0.8272 0.8279
2085.378257 0.8287 0.8291 0.8294 0.8296 0.8299
2089.352832 0.8301 0.8304 0.8306 0.8309 0.8309
2093.327407 0.8306 0.8304 0.8301 0.8297 0.8292
2097.301981 0.8287 0.8282 0.8277 0.8272 0.8267
2101.276556 0.8262 0.8259 0.8256 0.8254 0.8251
2105.251130 0.8251 0.8254 0.8256 0.8259 0.8260
2109.225705 0.8260 0.8260 0.8260 0.8260 0.8260
2113.200279 0.8260 0.8260 0.8262 0.8264 0.8267
2117.174854 0.8269 0.8272 0.8274 0.8277 0.8279
2121.149428 0.8283 0.8288 0.8293 0.8298 0.8300
2125.124003 0.8300 0.8300 0.8300 0.8300 0.8300
2129.098577 0.8300 0.8300 0.8300 0.8300 0.8300
2133.073152 0.8300 0.8300 0.8300 0.8300 0.8300
2137.047726 0.8300 0.8300 0.8300 0.8300 0.8300
2141.022301 0.8300 0.8300 0.8300 0.8300 0.8300
2144.996875 0.8300 0.8300 0.8300 0.8300 0.8300
2148.971450 0.8300 0.8300 0.8300 0.8300 0.8300
2152.946025 0.8300 0.8300 0.8300 0.8300 0.8300
2156.920599 0.8300 0.8300 0.8300 0.8300 0.8300
2160.895174 0.8300 0.8300 0.8302 0.8304 0.8307
2164.869748 0.8309 0.8312 0.8314 0.8317 0.8319
2168.844323 0.8320 0.8320 0.8320 0.8320 0.8318
2172.818897 0.8316 0.8313 0.8311 0.8308 0.8306
2176.793472 0.8303 0.8301 0.8298 0.8296 0.8293
2180.768046 0.8291 0.8286 0.8281 0.8276 0.8271
2184.742621 0.8270 0.8270 0.8270 0.8270 0.8266
2188.717195 0.8261 0.8256 0.8251 0.8248 0.8246
2192.691770 0.8243 0.8241 0.8236 0.8231 0.8226
2196.666344 0.8221 0.8218 0.8216 0.8213 0.8211
2200.640919 0.8204 0.8197 0.8189 0.8182 0.8176
2204.615493 0.8171 0.8166 0.8161 0.8160 0.8160
2208.590068 0.8160 0.8160 0.8164 0.8169 0.8174
2212.564643 0.8179 0.8184 0.8189 0.8194 0.8199
2216.539217 0.8202 0.8205 0.8207 0.8210 0.8214
2220.513792 0.8219 0.8224 0.8229 0.8232 0.8235
2224.488366 0.8237 0.8240 0.8242 0.8245 0.8247
2228.462941 0.8250 0.8252 0.8255 0.8257 0.8260
2232.437515 0.8260 0.8260 0.8260 0.8260 0.8256
2236.412090 0.8251 0.8246 0.8241 0.8238 0.8235
2240.386664 0.8233 0.8230 0.8228 0.8225 0.8223
2244.361239 0.8220 0.8222 0.8225 0.8227 0.8230
2248.335813 0.8228 0.8225 0.8223 0.8220 0.8209
2252.310388 0.8196 0.8184 0.8171 0.8168 0.8165
2256.284962 0.8163 0.8160 0.8162 0.8165 0.8167
2260.259537 0.8170 0.8170 0.8170 0.8170 0.8170
2264.234112 0.8172 0.8175 0.8177 0.8180 0.8182
2268.208686 0.8185 0.8187 0.8190 0.8192 0.8195
