##TITLE=Propene
##JCAMP-DX=4.24
##DATA TYPE=INFRARED SPECTRUM
##CLASS=COBLENTZ
##ORIGIN=DOW CHEMICAL COMPANY
##OWNER=Copyright (C) 1987 by the Coblentz Society
Collection (C) 2018 copyright by the U.S. Secretary of Commerce
on behalf of the United States of America. All rights reserved.
##DATE=1964
##NAMES=1-propene
PROPYLENE
##CAS REGISTRY NO=115-07-1
##MOLFORM=C3 H6
##SOURCE REFERENCE=COBLENTZ NO. 8879
##$NIST SOURCE=COBLENTZ
##$NIST IMAGE=cob8879
##SPECTROMETER/DATA SYSTEM=DOW KBr FOREPRISM-GRATING
##INSTRUMENT PARAMETERS=GRATING CHANGED AT 5.0, 7.5, 15.0 MICRON
##STATE=GAS (150 mmHg, N2 ADDED, TOTAL PRESSURE 600 mmHg)
##PATH LENGTH=5 CM
##SAMPLING PROCEDURE=TRANSMISSION
##RESOLUTION=2
##DATA PROCESSING=DIGITIZED BY COBLENTZ SOCIETY (BATCH II) FROM HARD COPY
##XUNITS=1/CM
##YUNITS=TRANSMITTANCE
##XFACTOR=1.0
##YFACTOR=1
##FIRSTX=451
##LASTX=3796
##FIRSTY=0.8876
##MAXX=3796
##MINX=451
##MAXY=0.9368
##MINY=0.0075
##NPOINTS=3346
##XYDATA=(X++(Y..Y))
451.000000 0.8876 0.8882 0.8887 0.8892 0.8896
456.000000 0.8901 0.8906 0.8912 0.8917 0.8922
461.000000 0.8928 0.8934 0.8941 0.8947 0.8953
466.000000 0.8959 0.8968 0.8976 0.8985 0.8994
471.000000 0.9003 0.9011 0.9018 0.9025 0.9032
476.000000 0.9039 0.9045 0.9052 0.9059 0.9066
481.000000 0.9072 0.9077 0.9082 0.9088 0.9093
486.000000 0.9099 0.9104 0.9107 0.9108 0.9109
491.000000 0.9110 0.9110 0.9100 0.9104 0.9101
496.000000 0.9098 0.9094 0.9089 0.9083 0.9077
501.000000 0.9070 0.9060 0.9050 0.9038 0.9025
506.000000 0.9013 0.8998 0.8983 0.8968 0.8953
511.000000 0.8936 0.8918 0.8900 0.8875 0.8850
516.000000 0.8823 0.8793 0.8763 0.8721 0.8678
521.000000 0.8634 0.8589 0.8543 0.8490 0.8436
526.000000 0.8382 0.8307 0.8230 0.8153 0.8092
531.000000 0.8035 0.7977 0.7919 0.7855 0.7781
536.000000 0.7707 0.7633 0.7561 0.7489 0.7417
541.000000 0.7345 0.7273 0.7187 0.7099 0.6999
546.000000 0.6893 0.6802 0.6723 0.6648 0.6573
551.000000 0.6501 0.6432 0.6375 0.6335 0.6295
556.000000 0.6255 0.6223 0.6191 0.6160 0.6129
561.000000 0.6097 0.6065 0.6033 0.6001 0.5967
566.000000 0.5932 0.5896 0.5860 0.5323 0.4875
571.000000 0.4876 0.5051 0.5424 0.5488 0.5262
576.000000 0.4693 0.4124 0.3556 0.2962 0.2928
581.000000 0.4308 0.5862 0.5853 0.5844 0.5823
586.000000 0.5785 0.5739 0.5678 0.5616 0.5618
591.000000 0.5620 0.5637 0.5667 0.5699 0.5731
596.000000 0.5760 0.5791 0.5837 0.5810 0.5724
601.000000 0.5638 0.5619 0.5746 0.5885 0.6025
606.000000 0.6098 0.6141 0.6232 0.6289 0.6353
611.000000 0.6453 0.6514 0.6512 0.6421 0.6330
616.000000 0.6305 0.6326 0.6515 0.6704 0.6872
621.000000 0.7050 0.7162 0.7270 0.7375 0.7491
626.000000 0.7611 0.7694 0.7765 0.7835 0.7906
631.000000 0.7963 0.8016 0.8069 0.8123 0.8177
636.000000 0.8236 0.8294 0.8353 0.8407 0.8448
641.000000 0.8489 0.8530 0.8572 0.8606 0.8637
646.000000 0.8668 0.8699 0.8730 0.8761 0.8792
651.000000 0.8821 0.8851 0.8881 0.8910 0.8940
656.000000 0.8969 0.8992 0.9015 0.9037 0.9055
661.000000 0.9065 0.9076 0.9087 0.9113 0.9149
666.000000 0.9228 0.9314 0.9368 0.9366 0.9164
671.000000 0.9110 0.9162 0.9203 0.9203 0.9199
676.000000 0.9195 0.9191 0.9187 0.9182 0.9178
681.000000 0.9172 0.9166 0.9160 0.9156 0.9152
686.000000 0.9148 0.9144 0.9140 0.9136 0.9132
691.000000 0.9127 0.9123 0.9118 0.9113 0.9109
696.000000 0.9102 0.9092 0.9083 0.9073 0.9064
701.000000 0.9054 0.9045 0.9036 0.9026 0.9017
706.000000 0.9008 0.8999 0.8989 0.8980 0.8971
711.000000 0.8962 0.8954 0.8947 0.8940 0.8932
716.000000 0.8925 0.8917 0.8910 0.8903 0.8895
721.000000 0.8888 0.8880 0.8873 0.8868 0.8862
726.000000 0.8857 0.8852 0.8847 0.8842 0.8837
731.000000 0.8832 0.8827 0.8822 0.8819 0.8817
736.000000 0.8815 0.8813 0.8811 0.8809 0.8807
741.000000 0.8805 0.8803 0.8801 0.8799 0.8797
746.000000 0.8796 0.8796 0.8797 0.8798 0.8799
751.000000 0.8799 0.8800 0.8801 0.8802 0.8802
756.000000 0.8803 0.8804 0.8805 0.8805 0.8805
761.000000 0.8805 0.8805 0.8805 0.8805 0.8805
766.000000 0.8805 0.8805 0.8805 0.8804 0.8804
771.000000 0.8804 0.8804 0.8802 0.8801 0.8799
776.000000 0.8798 0.8796 0.8795 0.8794 0.8792
781.000000 0.8791 0.8789 0.8788 0.8786 0.8783
786.000000 0.8781 0.8779 0.8777 0.8774 0.8772
791.000000 0.8770 0.8768 0.8765 0.8763 0.8761
796.000000 0.8759 0.8756 0.8754 0.8752 0.8747
801.000000 0.8741 0.8736 0.8730 0.8724 0.8718
806.000000 0.8712 0.8707 0.8701 0.8689 0.8673
811.000000 0.8657 0.8641 0.8625 0.8609 0.8593
816.000000 0.8578 0.8562 0.8546 0.8529 0.8504
821.000000 0.8478 0.8453 0.8427 0.8400 0.8358
826.000000 0.8316 0.8275 0.8217 0.8158 0.8099
831.000000 0.8040 0.7985 0.7933 0.7880 0.7827
836.000000 0.7774 0.7722 0.7669 0.7615 0.7556
841.000000 0.7498 0.7439 0.7381 0.7323 0.7255
846.000000 0.7187 0.7118 0.7049 0.6941 0.6814
851.000000 0.6675 0.6517 0.6388 0.6304 0.6219
856.000000 0.6134 0.6048 0.5950 0.5852 0.5754
861.000000 0.5634 0.5475 0.5315 0.5192 0.5086
866.000000 0.4979 0.4873 0.4769 0.4670 0.4571
871.000000 0.4472 0.4364 0.4248 0.4132 0.3958
876.000000 0.3792 0.3656 0.3424 0.3081 0.2964
881.000000 0.2860 0.2790 0.2729 0.2668 0.2610
886.000000 0.2553 0.2495 0.2425 0.2350 0.2276
891.000000 0.2202 0.2123 0.2043 0.1972 0.1913
896.000000 0.1855 0.1805 0.1755 0.1712 0.1674
901.000000 0.1636 0.1599 0.1563 0.1528 0.1492
906.000000 0.1454 0.1412 0.1365 0.1078 0.0094
911.000000 0.0075 0.0075 0.0465 0.0911 0.1357
916.000000 0.1560 0.1536 0.1327 0.1127 0.1140
921.000000 0.1177 0.1237 0.1277 0.1311 0.1330
926.000000 0.1349 0.1364 0.1379 0.1393 0.1407
931.000000 0.1416 0.1426 0.1436 0.1445 0.1453
936.000000 0.1462 0.1470 0.1477 0.1492 0.1528
941.000000 0.1580 0.1609 0.1634 0.1653 0.1672
946.000000 0.1692 0.1713 0.1735 0.1756 0.1784
951.000000 0.1825 0.1865 0.1949 0.2074 0.2164
956.000000 0.2256 0.2355 0.2454 0.2542 0.2631
961.000000 0.2684 0.2739 0.2813 0.2918 0.3152
966.000000 0.3509 0.3560 0.3590 0.3620 0.3650
971.000000 0.3680 0.3708 0.3731 0.3754 0.3773
976.000000 0.3785 0.3792 0.3785 0.3786 0.3775
981.000000 0.3532 0.3281 0.3211 0.3282 0.3402
986.000000 0.3523 0.3126 0.2363 0.1599 0.0854
991.000000 0.0900 0.1377 0.3004 0.4036 0.4188
996.000000 0.4259 0.4319 0.4352 0.4382 0.4407
1001.000000 0.4432 0.4457 0.4487 0.4516 0.4545
1006.000000 0.4575 0.4608 0.4641 0.4674 0.4708
1011.000000 0.4741 0.4774 0.4807 0.4841 0.4875
1016.000000 0.4914 0.4955 0.5019 0.5087 0.5155
1021.000000 0.5321 0.5524 0.5638 0.5724 0.5805
1026.000000 0.5883 0.5960 0.6028 0.6096 0.6164
1031.000000 0.6259 0.6355 0.6420 0.6483 0.6549
1036.000000 0.6616 0.6671 0.6700 0.6734 0.6710
1041.000000 0.6516 0.6321 0.6127 0.5933 0.5705
1046.000000 0.5701 0.6377 0.7064 0.7478 0.7531
1051.000000 0.7587 0.7603 0.7619 0.7635 0.7651
1056.000000 0.7667 0.7683 0.7699 0.7714 0.7729
1061.000000 0.7748 0.7766 0.7784 0.7805 0.7830
1066.000000 0.7855 0.7880 0.7902 0.7922 0.7943
1071.000000 0.7963 0.7983 0.8004 0.8027 0.8050
1076.000000 0.8073 0.8096 0.8117 0.8136 0.8154
1081.000000 0.8172 0.8190 0.8209 0.8232 0.8256
1086.000000 0.8280 0.8304 0.8329 0.8362 0.8398
1091.000000 0.8433 0.8465 0.8494 0.8522 0.8550
1096.000000 0.8578 0.8605 0.8632 0.8651 0.8657
1101.000000 0.8664 0.8670 0.8676 0.8682 0.8689
1106.000000 0.8694 0.8699 0.8704 0.8709 0.8713
1111.000000 0.8718 0.8723 0.8728 0.8732 0.8737
1116.000000 0.8742 0.8747 0.8752 0.8756 0.8757
1121.000000 0.8757 0.8757 0.8757 0.8758 0.8758
1126.000000 0.8758 0.8758 0.8757 0.8753 0.8749
1131.000000 0.8745 0.8741 0.8737 0.8729 0.8720
1136.000000 0.8710 0.8701 0.8692 0.8681 0.8669
1141.000000 0.8656 0.8643 0.8631 0.8618 0.8605
1146.000000 0.8592 0.8579 0.8566 0.8553 0.8540
1151.000000 0.8528 0.8515 0.8502 0.8494 0.8487
1156.000000 0.8480 0.8473 0.8470 0.8468 0.8467
1161.000000 0.8469 0.8472 0.8475 0.8479 0.8477
1166.000000 0.8473 0.8459 0.8436 0.8396 0.8416
1171.000000 0.8451 0.8461 0.8471 0.8470 0.8465
1176.000000 0.8460 0.8452 0.8444 0.8441 0.8444
1181.000000 0.8448 0.8455 0.8483 0.8469 0.8475
1186.000000 0.8480 0.8485 0.8489 0.8493 0.8496
1191.000000 0.8499 0.8503 0.8501 0.8498 0.8494
1196.000000 0.8493 0.8493 0.8493 0.8494 0.8494
1201.000000 0.8494 0.8494 0.8493 0.8492 0.8491
1206.000000 0.8482 0.8474 0.8466 0.8456 0.8476
1211.000000 0.8506 0.8523 0.8524 0.8517 0.8511
1216.000000 0.8504 0.8496 0.8488 0.8479 0.8479
1221.000000 0.8492 0.8505 0.8518 0.8527 0.8519
1226.000000 0.8511 0.8503 0.8494 0.8471 0.8440
1231.000000 0.8555 0.8653 0.8689 0.8700 0.8695
1236.000000 0.8683 0.8669 0.8648 0.8627 0.8602
1241.000000 0.8578 0.8558 0.8538 0.8518 0.8502
1246.000000 0.8509 0.8525 0.8544 0.8564 0.8587
1251.000000 0.8612 0.8638 0.8668 0.8698 0.8718
1256.000000 0.8737 0.8748 0.8748 0.8748 0.8748
1261.000000 0.8745 0.8741 0.8737 0.8733 0.8728
1266.000000 0.8721 0.8714 0.8706 0.8699 0.8692
1271.000000 0.8685 0.8678 0.8670 0.8662 0.8654
1276.000000 0.8646 0.8638 0.8630 0.8622 0.8616
1281.000000 0.8609 0.8603 0.8597 0.8590 0.8584
1286.000000 0.8582 0.8581 0.8581 0.8580 0.8585
1291.000000 0.8590 0.8596 0.8593 0.8591 0.8588
1296.000000 0.8586 0.8583 0.8581 0.8579 0.8572
1301.000000 0.8564 0.8556 0.8548 0.8539 0.8531
1306.000000 0.8522 0.8514 0.8505 0.8497 0.8487
1311.000000 0.8477 0.8467 0.8457 0.8450 0.8454
1316.000000 0.8458 0.8462 0.8465 0.8469 0.8475
1321.000000 0.8481 0.8487 0.8492 0.8497 0.8496
1326.000000 0.8495 0.8494 0.8493 0.8492 0.8491
1331.000000 0.8488 0.8484 0.8480 0.8477 0.8473
1336.000000 0.8465 0.8455 0.8446 0.8436 0.8427
1341.000000 0.8417 0.8399 0.8379 0.8360 0.8340
1346.000000 0.8318 0.8292 0.8267 0.8242 0.8216
1351.000000 0.8191 0.8164 0.8131 0.8098 0.8065
1356.000000 0.8032 0.7999 0.7965 0.7931 0.7897
1361.000000 0.7862 0.7824 0.7786 0.7747 0.7708
1366.000000 0.7669 0.7632 0.7596 0.7561 0.7525
1371.000000 0.7489 0.7465 0.7447 0.7430 0.7400
1376.000000 0.7346 0.7142 0.6944 0.6747 0.6707
1381.000000 0.6844 0.7046 0.7181 0.7181 0.7004
1386.000000 0.6814 0.6624 0.6433 0.6243 0.6053
1391.000000 0.5865 0.5802 0.5772 0.5751 0.5742
1396.000000 0.5737 0.5737 0.5738 0.5740 0.5742
1401.000000 0.5744 0.5743 0.5742 0.5741 0.5741
1406.000000 0.5741 0.5736 0.5727 0.5716 0.5699
1411.000000 0.5681 0.5643 0.5609 0.5579 0.5550
1416.000000 0.5518 0.5486 0.5453 0.5421 0.5380
1421.000000 0.5340 0.5301 0.5265 0.5230 0.5191
1426.000000 0.5146 0.5100 0.5051 0.4979 0.4905
1431.000000 0.4820 0.4735 0.4649 0.4563 0.4466
1436.000000 0.4366 0.4265 0.4106 0.3629 0.3183
1441.000000 0.2737 0.2291 0.1846 0.1507 0.1525
1446.000000 0.1731 0.2193 0.2656 0.2929 0.2943
1451.000000 0.2955 0.2966 0.2993 0.3462 0.3937
1456.000000 0.4412 0.4887 0.5361 0.5388 0.5374
1461.000000 0.5236 0.4526 0.4052 0.4027 0.4003
1466.000000 0.3950 0.3876 0.3789 0.3694 0.3596
1471.000000 0.3468 0.3287 0.3265 0.3257 0.3260
1476.000000 0.3272 0.3288 0.3436 0.3584 0.3731
1481.000000 0.3879 0.4027 0.4175 0.4322 0.4470
1486.000000 0.4594 0.4682 0.4812 0.4905 0.5008
1491.000000 0.5124 0.5229 0.5330 0.5429 0.5530
1496.000000 0.5633 0.5781 0.5945 0.6055 0.6112
1501.000000 0.6169 0.6226 0.6293 0.6370 0.6442
1506.000000 0.6519 0.6628 0.6806 0.6899 0.6935
1511.000000 0.6956 0.6982 0.7015 0.7047 0.7090
1516.000000 0.7137 0.7185 0.7237 0.7289 0.7341
1521.000000 0.7393 0.7446 0.7495 0.7537 0.7579
1526.000000 0.7619 0.7648 0.7676 0.7704 0.7731
1531.000000 0.7757 0.7783 0.7804 0.7826 0.7848
1536.000000 0.7870 0.7892 0.7923 0.7980 0.8033
1541.000000 0.8027 0.7997 0.7963 0.7930 0.7909
1546.000000 0.7887 0.7873 0.7861 0.7849 0.7846
1551.000000 0.7844 0.7842 0.7849 0.7860 0.7903
1556.000000 0.7995 0.8098 0.8101 0.8080 0.8058
1561.000000 0.8032 0.8010 0.7987 0.7967 0.7950
1566.000000 0.7930 0.7896 0.7841 0.7960 0.7881
1571.000000 0.7901 0.7925 0.7930 0.7924 0.7915
1576.000000 0.7905 0.7894 0.7886 0.7878 0.7870
1581.000000 0.7864 0.7861 0.7858 0.7861 0.7872
1586.000000 0.7892 0.7908 0.7922 0.7933 0.7944
1591.000000 0.7945 0.7945 0.7944 0.7941 0.7937
1596.000000 0.7925 0.7914 0.7900 0.7887 0.7872
1601.000000 0.7856 0.7840 0.7815 0.7789 0.7763
1606.000000 0.7730 0.7697 0.7664 0.7604 0.7539
1611.000000 0.7481 0.7424 0.7366 0.7306 0.7227
1616.000000 0.7149 0.7067 0.6981 0.6894 0.6641
1621.000000 0.6462 0.6321 0.6136 0.5903 0.5670
1626.000000 0.5437 0.5204 0.4971 0.4738 0.4505
1631.000000 0.4272 0.4039 0.3806 0.3602 0.3359
1636.000000 0.3275 0.3256 0.3248 0.3269 0.3310
1641.000000 0.3396 0.3530 0.3664 0.3798 0.3932
1646.000000 0.4041 0.4053 0.3931 0.3724 0.3518
1651.000000 0.3311 0.3104 0.3135 0.5366 0.5405
1656.000000 0.5360 0.4993 0.4611 0.4230 0.3849
1661.000000 0.3467 0.3086 0.2748 0.2719 0.2716
1666.000000 0.2728 0.2761 0.2840 0.3173 0.3656
1671.000000 0.4139 0.4622 0.5104 0.5587 0.6070
1676.000000 0.6148 0.6223 0.6336 0.6775 0.7183
1681.000000 0.7591 0.7999 0.8360 0.8398 0.8433
1686.000000 0.8458 0.8483 0.8504 0.8525 0.8545
1691.000000 0.8561 0.8578 0.8594 0.8607 0.8612
1696.000000 0.8617 0.8613 0.8609 0.8600 0.8592
1701.000000 0.8584 0.8576 0.8568 0.8560 0.8552
1706.000000 0.8544 0.8536 0.8532 0.8530 0.8527
1711.000000 0.8539 0.8553 0.8569 0.8586 0.8600
1716.000000 0.8613 0.8618 0.8624 0.8618 0.8610
1721.000000 0.8595 0.8576 0.8558 0.8540 0.8530
1726.000000 0.8523 0.8532 0.8543 0.8554 0.8563
1731.000000 0.8585 0.8581 0.8581 0.8575 0.8568
1736.000000 0.8561 0.8552 0.8542 0.8537 0.8543
1741.000000 0.8556 0.8568 0.8581 0.8594 0.8607
1746.000000 0.8621 0.8635 0.8649 0.8660 0.8663
1751.000000 0.8659 0.8652 0.8646 0.8640 0.8634
1756.000000 0.8628 0.8627 0.8625 0.8626 0.8629
1761.000000 0.8632 0.8635 0.8637 0.8639 0.8641
1766.000000 0.8643 0.8645 0.8647 0.8649 0.8645
1771.000000 0.8640 0.8635 0.8619 0.8603 0.8588
1776.000000 0.8575 0.8563 0.8549 0.8531 0.8513
1781.000000 0.8495 0.8480 0.8464 0.8448 0.8434
1786.000000 0.8419 0.8405 0.8388 0.8364 0.8340
1791.000000 0.8316 0.8292 0.8231 0.8169 0.8107
1796.000000 0.8045 0.7982 0.7920 0.7858 0.7796
1801.000000 0.7734 0.7671 0.7605 0.7538 0.7454
1806.000000 0.7357 0.7235 0.7148 0.7073 0.7011
1811.000000 0.6977 0.6968 0.6965 0.6963 0.6979
1816.000000 0.6995 0.7012 0.7035 0.7064 0.7091
1821.000000 0.7117 0.7139 0.7161 0.7184 0.7207
1826.000000 0.7285 0.7412 0.7525 0.7568 0.7491
1831.000000 0.7291 0.7091 0.6780 0.6645 0.6602
1836.000000 0.6588 0.6583 0.6605 0.6596 0.6607
1841.000000 0.6639 0.6732 0.6953 0.7053 0.7152
1846.000000 0.7252 0.7352 0.7452 0.7551 0.7651
1851.000000 0.7741 0.7831 0.7928 0.7974 0.8005
1856.000000 0.8027 0.8047 0.8060 0.8073 0.8086
1861.000000 0.8100 0.8116 0.8131 0.8157 0.8185
1866.000000 0.8214 0.8241 0.8267 0.8293 0.8319
1871.000000 0.8339 0.8359 0.8366 0.8369 0.8372
1876.000000 0.8376 0.8383 0.8392 0.8401 0.8410
1881.000000 0.8419 0.8428 0.8437 0.8446 0.8455
1886.000000 0.8464 0.8473 0.8482 0.8490 0.8497
1891.000000 0.8504 0.8511 0.8519 0.8526 0.8529
1896.000000 0.8532 0.8535 0.8538 0.8541 0.8543
1901.000000 0.8545 0.8547 0.8548 0.8549 0.8550
1906.000000 0.8551 0.8552 0.8553 0.8555 0.8556
1911.000000 0.8556 0.8557 0.8557 0.8558 0.8559
1916.000000 0.8560 0.8562 0.8563 0.8565 0.8566
1921.000000 0.8566 0.8566 0.8566 0.8567 0.8567
1926.000000 0.8567 0.8567 0.8568 0.8571 0.8578
1931.000000 0.8588 0.8597 0.8605 0.8610 0.8614
1936.000000 0.8614 0.8614 0.8613 0.8612 0.8610
1941.000000 0.8603 0.8596 0.8590 0.8584 0.8578
1946.000000 0.8572 0.8567 0.8561 0.8555 0.8550
1951.000000 0.8544 0.8538 0.8531 0.8524 0.8517
1956.000000 0.8510 0.8503 0.8496 0.8490 0.8485
1961.000000 0.8479 0.8473 0.8471 0.8475 0.8478
1966.000000 0.8482 0.8485 0.8494 0.8503 0.8508
1971.000000 0.8506 0.8501 0.8493 0.8484 0.8474
1976.000000 0.8468 0.8463 0.8461 0.8462 0.8464
1981.000000 0.8465 0.8466 0.8467 0.8468 0.8468
1986.000000 0.8469 0.8471 0.8473 0.8476 0.8478
1991.000000 0.8480 0.8483 0.8486 0.8489 0.8492
1996.000000 0.8495 0.8497 0.8500 0.8503 0.8506
2001.000000 0.8513 0.8521 0.8529 0.8538 0.8543
2006.000000 0.8548 0.8539 0.8531 0.8521 0.8511
2011.000000 0.8500 0.8490 0.8481 0.8472 0.8464
2016.000000 0.8457 0.8449 0.8442 0.8434 0.8427
2021.000000 0.8421 0.8416 0.8412 0.8409 0.8409
2026.000000 0.8410 0.8410 0.8410 0.8410 0.8410
2031.000000 0.8410 0.8411 0.8412 0.8413 0.8413
2036.000000 0.8414 0.8414 0.8415 0.8415 0.8416
2041.000000 0.8418 0.8421 0.8423 0.8426 0.8428
2046.000000 0.8430 0.8433 0.8436 0.8440 0.8445
2051.000000 0.8450 0.8455 0.8459 0.8464 0.8468
2056.000000 0.8473 0.8479 0.8485 0.8491 0.8497
2061.000000 0.8505 0.8513 0.8520 0.8528 0.8534
2066.000000 0.8541 0.8546 0.8551 0.8556 0.8561
2071.000000 0.8566 0.8571 0.8573 0.8575 0.8577
2076.000000 0.8579 0.8580 0.8582 0.8584 0.8586
2081.000000 0.8587 0.8588 0.8588 0.8589 0.8589
2086.000000 0.8589 0.8589 0.8589 0.8589 0.8589
2091.000000 0.8588 0.8588 0.8585 0.8582 0.8579
2096.000000 0.8577 0.8574 0.8572 0.8569 0.8566
2101.000000 0.8565 0.8565 0.8567 0.8570 0.8572
2106.000000 0.8574 0.8577 0.8580 0.8584 0.8588
2111.000000 0.8592 0.8596 0.8600 0.8604 0.8608
2116.000000 0.8612 0.8614 0.8617 0.8619 0.8622
2121.000000 0.8624 0.8626 0.8628 0.8630 0.8632
2126.000000 0.8634 0.8636 0.8638 0.8640 0.8642
2131.000000 0.8644 0.8646 0.8647 0.8649 0.8651
2136.000000 0.8653 0.8655 0.8657 0.8659 0.8661
2141.000000 0.8662 0.8664 0.8666 0.8668 0.8670
2146.000000 0.8672 0.8672 0.8672 0.8672 0.8673
2151.000000 0.8673 0.8673 0.8673 0.8674 0.8674
2156.000000 0.8675 0.8675 0.8675 0.8675 0.8676
2161.000000 0.8676 0.8676 0.8676 0.8677 0.8676
2166.000000 0.8676 0.8675 0.8674 0.8673 0.8672
2171.000000 0.8671 0.8670 0.8668 0.8667 0.8666
2176.000000 0.8665 0.8664 0.8671 0.8661 0.8660
2181.000000 0.8658 0.8656 0.8654 0.8653 0.8651
2186.000000 0.8650 0.8648 0.8646 0.8644 0.8643
2191.000000 0.8641 0.8640 0.8638 0.8636 0.8634
2196.000000 0.8633 0.8631 0.8630 0.8628 0.8626
2201.000000 0.8624 0.8623 0.8621 0.8620 0.8618
2206.000000 0.8616 0.8614 0.8613 0.8611 0.8610
2211.000000 0.8607 0.8605 0.8602 0.8600 0.8597
2216.000000 0.8595 0.8593 0.8591 0.8588 0.8586
2221.000000 0.8583 0.8581 0.8578 0.8576 0.8573
2226.000000 0.8571 0.8568 0.8565 0.8562 0.8560
2231.000000 0.8557 0.8555 0.8552 0.8550 0.8547
2236.000000 0.8545 0.8545 0.8545 0.8545 0.8545
2241.000000 0.8545 0.8545 0.8545 0.8546 0.8547
2246.000000 0.8548 0.8550 0.8552 0.8553 0.8555
2251.000000 0.8557 0.8559 0.8560 0.8562 0.8563
2256.000000 0.8564 0.8565 0.8566 0.8566 0.8567
2261.000000 0.8568 0.8569 0.8570 0.8571 0.8570
2266.000000 0.8569 0.8568 0.8568 0.8567 0.8567
2271.000000 0.8566 0.8566 0.8565 0.8564 0.8562
2276.000000 0.8561 0.8558 0.8556 0.8554 0.8552
2281.000000 0.8549 0.8547 0.8544 0.8542 0.8539
2286.000000 0.8537 0.8534 0.8531 0.8528 0.8525
2291.000000 0.8522 0.8519 0.8516 0.8513 0.8510
2296.000000 0.8508 0.8505 0.8503 0.8501 0.8499
2301.000000 0.8496 0.8494 0.8495 0.8497 0.8499
2306.000000 0.8501 0.8506 0.8512 0.8518 0.8524
2311.000000 0.8533 0.8542 0.8555 0.8569 0.8581
2316.000000 0.8593 0.8607 0.8621 0.8637 0.8653
2321.000000 0.8668 0.8683 0.8696 0.8709 0.8717
2326.000000 0.8726 0.8733 0.8740 0.8743 0.8747
2331.000000 0.8747 0.8747 0.8747 0.8747 0.8747
2336.000000 0.8747 0.8747 0.8747 0.8745 0.8743
2341.000000 0.8740 0.8738 0.8735 0.8732 0.8729
2346.000000 0.8726 0.8731 0.8736 0.8747 0.8758
2351.000000 0.8772 0.8787 0.8792 0.8797 0.8799
2356.000000 0.8801 0.8802 0.8803 0.8802 0.8802
2361.000000 0.8801 0.8801 0.8797 0.8794 0.8787
2366.000000 0.8781 0.8773 0.8765 0.8757 0.8749
2371.000000 0.8741 0.8733 0.8722 0.8712 0.8702
2376.000000 0.8692 0.8682 0.8672 0.8661 0.8651
2381.000000 0.8641 0.8631 0.8621 0.8612 0.8609
2386.000000 0.8607 0.8604 0.8602 0.8599 0.8597
2391.000000 0.8594 0.8592 0.8589 0.8587 0.8586
2396.000000 0.8585 0.8584 0.8583 0.8582 0.8581
2401.000000 0.8581 0.8581 0.8584 0.8587 0.8590
2406.000000 0.8593 0.8595 0.8598 0.8601 0.8604
2411.000000 0.8606 0.8609 0.8612 0.8615 0.8618
2416.000000 0.8622 0.8626 0.8630 0.8633 0.8637
2421.000000 0.8640 0.8644 0.8646 0.8649 0.8651
2426.000000 0.8653 0.8655 0.8658 0.8660 0.8662
2431.000000 0.8661 0.8660 0.8658 0.8656 0.8654
2436.000000 0.8652 0.8650 0.8648 0.8646 0.8644
2441.000000 0.8642 0.8640 0.8637 0.8635 0.8633
2446.000000 0.8631 0.8628 0.8626 0.8625 0.8624
2451.000000 0.8622 0.8621 0.8619 0.8618 0.8616
2456.000000 0.8615 0.8613 0.8612 0.8611 0.8610
2461.000000 0.8609 0.8609 0.8608 0.8607 0.8606
2466.000000 0.8606 0.8605 0.8605 0.8605 0.8606
2471.000000 0.8606 0.8606 0.8606 0.8607 0.8607
2476.000000 0.8607 0.8607 0.8608 0.8608 0.8609
2481.000000 0.8609 0.8609 0.8609 0.8610 0.8610
