##TITLE=Ethylene, tetrafluoro-
##JCAMP-DX=4.24
##DATA TYPE=INFRARED SPECTRUM
##CLASS=COBLENTZ
##ORIGIN=DOW CHEMICAL COMPANY
##OWNER=Copyright (C) 1987 by the Coblentz Society
Collection (C) 2018 copyright by the U.S. Secretary of Commerce
on behalf of the United States of America. All rights reserved.
##DATE=1964
##NAMES=1,1,2,2-tetrafluoroethylene
ETHENE, TETRAFLUORO
##CAS REGISTRY NO=116-14-3
##MOLFORM=C2 F4
##SOURCE REFERENCE=COBLENTZ NO. 8849
##$NIST SOURCE=COBLENTZ
##$NIST IMAGE=cob8849
##SPECTROMETER/DATA SYSTEM=DOW KBr FOREPRISM-GRATING
##INSTRUMENT PARAMETERS=GRATING CHANGED AT 5.0, 7.5, 15.0 MICRON
##STATE=GAS (50 mmHg, N2 ADDED, TOTAL PRESSURE 600 mmHg)
##PATH LENGTH=5 CM
##SAMPLING PROCEDURE=TRANSMISSION
##RESOLUTION=2
##DATA PROCESSING=DIGITIZED BY COBLENTZ SOCIETY (BATCH II) FROM HARD COPY
##XUNITS=1/CM
##YUNITS=TRANSMITTANCE
##XFACTOR=1.0
##YFACTOR=1
##FIRSTX=454
##LASTX=3798
##FIRSTY=0.8838
##MAXX=3798
##MINX=454
##MAXY=0.9305
##MINY=0.0014
##NPOINTS=3345
##XYDATA=(X++(Y..Y))
454.000000 0.8838 0.8847 0.8856 0.8865 0.8874
459.000000 0.8882 0.8893 0.8905 0.8916 0.8928
464.000000 0.8939 0.8949 0.8958 0.8968 0.8977
469.000000 0.8987 0.8999 0.9012 0.9025 0.9038
474.000000 0.9052 0.9065 0.9074 0.9082 0.9090
479.000000 0.9097 0.9105 0.9113 0.9121 0.9126
484.000000 0.9131 0.9136 0.9140 0.9145 0.9150
489.000000 0.9154 0.9159 0.9164 0.9168 0.9173
494.000000 0.9178 0.9182 0.9183 0.9185 0.9186
499.000000 0.9187 0.9189 0.9190 0.9191 0.9192
504.000000 0.9194 0.9196 0.9199 0.9202 0.9205
509.000000 0.9208 0.9211 0.9214 0.9217 0.9211
514.000000 0.9223 0.9226 0.9229 0.9229 0.9226
519.000000 0.9223 0.9221 0.9218 0.9215 0.9212
524.000000 0.9209 0.9207 0.9203 0.9192 0.9181
529.000000 0.9170 0.9159 0.9149 0.9138 0.9127
534.000000 0.9116 0.9097 0.9074 0.9051 0.9028
539.000000 0.8988 0.8939 0.8889 0.8808 0.8716
544.000000 0.8579 0.8441 0.8303 0.8165 0.8027
549.000000 0.7621 0.7629 0.7652 0.7763 0.7938
554.000000 0.8113 0.8449 0.8437 0.7511 0.6647
559.000000 0.8449 0.8415 0.8242 0.7988 0.7735
564.000000 0.7643 0.7646 0.7695 0.7832 0.8014
569.000000 0.8196 0.8377 0.8559 0.8755 0.8840
574.000000 0.8898 0.8953 0.9010 0.9069 0.9099
579.000000 0.9122 0.9145 0.9161 0.9175 0.9189
584.000000 0.9196 0.9198 0.9200 0.9203 0.9205
589.000000 0.9207 0.9209 0.9210 0.9212 0.9213
594.000000 0.9214 0.9213 0.9211 0.9210 0.9209
599.000000 0.9208 0.9212 0.9219 0.9227 0.9234
604.000000 0.9251 0.9228 0.9204 0.9196 0.9192
609.000000 0.9189 0.9187 0.9185 0.9181 0.9177
614.000000 0.9174 0.9170 0.9166 0.9162 0.9158
619.000000 0.9154 0.9151 0.9147 0.9147 0.9147
624.000000 0.9148 0.9148 0.9150 0.9154 0.9158
629.000000 0.9162 0.9165 0.9169 0.9175 0.9182
634.000000 0.9190 0.9197 0.9204 0.9208 0.9210
639.000000 0.9212 0.9214 0.9216 0.9218 0.9219
644.000000 0.9220 0.9221 0.9222 0.9222 0.9223
649.000000 0.9223 0.9224 0.9224 0.9225 0.9225
654.000000 0.9226 0.9226 0.9226 0.9227 0.9227
659.000000 0.9228 0.9228 0.9228 0.9228 0.9228
664.000000 0.9229 0.9229 0.9229 0.9248 0.9294
669.000000 0.9305 0.9287 0.9267 0.9242 0.9213
674.000000 0.9209 0.9205 0.9201 0.9198 0.9194
679.000000 0.9192 0.9190 0.9186 0.9180 0.9173
684.000000 0.9166 0.9158 0.9149 0.9140 0.9131
689.000000 0.9122 0.9113 0.9104 0.9099 0.9095
694.000000 0.9091 0.9086 0.9082 0.9078 0.9075
699.000000 0.9058 0.9068 0.9065 0.9062 0.9059
704.000000 0.9056 0.9053 0.9050 0.9047 0.9043
709.000000 0.9040 0.9037 0.9034 0.9030 0.9027
714.000000 0.9024 0.9021 0.9019 0.9018 0.9017
719.000000 0.9015 0.9014 0.9013 0.9011 0.9010
724.000000 0.9008 0.9007 0.9006 0.9003 0.9001
729.000000 0.8999 0.8997 0.8995 0.8993 0.8991
734.000000 0.8989 0.8986 0.8984 0.8982 0.8979
739.000000 0.8977 0.8974 0.8972 0.8969 0.8967
744.000000 0.8964 0.8962 0.8960 0.8957 0.8955
749.000000 0.8952 0.8950 0.8947 0.8945 0.8942
754.000000 0.8940 0.8938 0.8937 0.8936 0.8935
759.000000 0.8934 0.8933 0.8932 0.8931 0.8930
764.000000 0.8928 0.8927 0.8926 0.8925 0.8924
769.000000 0.8923 0.8922 0.8921 0.8920 0.8919
774.000000 0.8918 0.8919 0.8919 0.8920 0.8921
779.000000 0.8922 0.8922 0.8923 0.8924 0.8924
784.000000 0.8925 0.8926 0.8927 0.8927 0.8927
789.000000 0.8927 0.8927 0.8927 0.8927 0.8927
794.000000 0.8927 0.8928 0.8928 0.8928 0.8928
799.000000 0.8928 0.8928 0.8928 0.8928 0.8928
804.000000 0.8928 0.8928 0.8929 0.8928 0.8927
809.000000 0.8925 0.8923 0.8921 0.8919 0.8917
814.000000 0.8915 0.8914 0.8912 0.8910 0.8908
819.000000 0.8906 0.8904 0.8902 0.8900 0.8899
824.000000 0.8897 0.8895 0.8893 0.8891 0.8889
829.000000 0.8888 0.8887 0.8886 0.8885 0.8884
834.000000 0.8883 0.8882 0.8881 0.8881 0.8880
839.000000 0.8879 0.8878 0.8877 0.8876 0.8875
844.000000 0.8874 0.8873 0.8873 0.8872 0.8871
849.000000 0.8871 0.8872 0.8873 0.8873 0.8874
854.000000 0.8875 0.8875 0.8876 0.8877 0.8877
859.000000 0.8878 0.8879 0.8879 0.8880 0.8881
864.000000 0.8881 0.8882 0.8883 0.8883 0.8884
869.000000 0.8884 0.8884 0.8883 0.8883 0.8883
874.000000 0.8882 0.8882 0.8882 0.8882 0.8881
879.000000 0.8881 0.8880 0.8880 0.8879 0.8879
884.000000 0.8878 0.8878 0.8864 0.8850 0.8837
889.000000 0.8817 0.8797 0.8777 0.8757 0.8710
894.000000 0.8658 0.8594 0.8509 0.8413 0.8318
899.000000 0.8224 0.8148 0.8044 0.8064 0.8055
904.000000 0.8055 0.8127 0.8199 0.8269 0.8275
909.000000 0.7412 0.7032 0.7446 0.8366 0.8366
914.000000 0.8361 0.8226 0.8091 0.7930 0.7942
919.000000 0.8012 0.8167 0.8238 0.8304 0.8362
924.000000 0.8413 0.8465 0.8516 0.8570 0.8625
929.000000 0.8680 0.8727 0.8771 0.8814 0.8837
934.000000 0.8859 0.8881 0.8902 0.8903 0.8904
939.000000 0.8905 0.8906 0.8900 0.8894 0.8888
944.000000 0.8882 0.8874 0.8865 0.8856 0.8847
949.000000 0.8837 0.8828 0.8818 0.8804 0.8790
954.000000 0.8777 0.8763 0.8746 0.8734 0.8736
959.000000 0.8737 0.8738 0.8746 0.8754 0.8771
964.000000 0.8788 0.8805 0.8824 0.8844 0.8872
969.000000 0.8889 0.8900 0.8904 0.8909 0.8913
974.000000 0.8917 0.8917 0.8917 0.8917 0.8918
979.000000 0.8918 0.8918 0.8918 0.8918 0.8918
984.000000 0.8918 0.8918 0.8918 0.8918 0.8919
989.000000 0.8920 0.8921 0.8922 0.8923 0.8924
994.000000 0.8926 0.8927 0.8928 0.8929 0.8929
999.000000 0.8930 0.8931 0.8934 0.8936 0.8939
1004.000000 0.8941 0.8943 0.8946 0.8948 0.8974
1009.000000 0.8953 0.8955 0.8958 0.8962 0.8965
1014.000000 0.8968 0.8971 0.8974 0.8977 0.8977
1019.000000 0.8971 0.8965 0.8959 0.8952 0.8946
1024.000000 0.8940 0.8933 0.8923 0.8912 0.8907
1029.000000 0.8907 0.8907 0.8909 0.8913 0.8917
1034.000000 0.8921 0.8926 0.8930 0.8934 0.8939
1039.000000 0.8943 0.8947 0.8952 0.8957 0.8962
1044.000000 0.8967 0.8973 0.8978 0.8983 0.8988
1049.000000 0.8988 0.8986 0.8983 0.8978 0.8971
1054.000000 0.8964 0.8956 0.8945 0.8932 0.8920
1059.000000 0.8913 0.8908 0.8903 0.8898 0.8893
1064.000000 0.8888 0.8884 0.8879 0.8874 0.8869
1069.000000 0.8868 0.8868 0.8868 0.8868 0.8868
1074.000000 0.8869 0.8869 0.8869 0.8869 0.8869
1079.000000 0.8868 0.8866 0.8865 0.8864 0.8863
1084.000000 0.8861 0.8857 0.8852 0.8848 0.8843
1089.000000 0.8839 0.8834 0.8826 0.8819 0.8812
1094.000000 0.8804 0.8797 0.8785 0.8769 0.8753
1099.000000 0.8737 0.8721 0.8705 0.8690 0.8670
1104.000000 0.8651 0.8632 0.8613 0.8593 0.8564
1109.000000 0.8526 0.8489 0.8452 0.8409 0.8365
1114.000000 0.8321 0.8277 0.8233 0.8189 0.8142
1119.000000 0.8091 0.8041 0.7990 0.7939 0.7888
1124.000000 0.7826 0.7749 0.7672 0.7591 0.7507
1129.000000 0.7401 0.7279 0.7184 0.7197 0.7205
1134.000000 0.7214 0.7228 0.7249 0.7298 0.7342
1139.000000 0.7402 0.7430 0.7458 0.7468 0.7473
1144.000000 0.7479 0.7485 0.7486 0.7483 0.7483
1149.000000 0.7469 0.7432 0.7363 0.7279 0.7180
1154.000000 0.7081 0.6982 0.6845 0.5999 0.5482
1159.000000 0.4965 0.4448 0.3931 0.3414 0.2643
1164.000000 0.2241 0.1751 0.1261 0.0771 0.0281
1169.000000 0.0107 0.0069 0.0069 0.0077 0.0070
1174.000000 0.0070 0.0070 0.0070 0.0071 0.0071
1179.000000 0.0071 0.0071 0.0072 0.0072 0.0072
1184.000000 0.0072 0.0073 0.0073 0.0073 0.0073
1189.000000 0.0073 0.0074 0.0074 0.0074 0.0074
1194.000000 0.0075 0.0075 0.0075 0.0075 0.0076
1199.000000 0.0309 0.1039 0.1768 0.2497 0.3227
1204.000000 0.3956 0.4685 0.5415 0.6144 0.6873
1209.000000 0.7592 0.8190 0.8327 0.8394 0.8447
1214.000000 0.8480 0.8513 0.8558 0.8623 0.8684
1219.000000 0.8725 0.8765 0.8805 0.8846 0.8870
1224.000000 0.8889 0.8909 0.8926 0.8930 0.8934
1229.000000 0.8938 0.8940 0.8936 0.8932 0.8928
1234.000000 0.8922 0.8913 0.8905 0.8897 0.8890
1239.000000 0.8884 0.8879 0.8873 0.8868 0.8863
1244.000000 0.8858 0.8838 0.8849 0.8845 0.8841
1249.000000 0.8837 0.8834 0.8830 0.8826 0.8823
1254.000000 0.8819 0.8816 0.8812 0.8811 0.8811
1259.000000 0.8810 0.8810 0.8809 0.8809 0.8808
1264.000000 0.8807 0.8807 0.8806 0.8806 0.8803
1269.000000 0.8795 0.8788 0.8776 0.8754 0.8731
1274.000000 0.8697 0.8658 0.8619 0.8563 0.8504
1279.000000 0.8444 0.8381 0.8316 0.8251 0.8187
1284.000000 0.8126 0.8066 0.8005 0.7945 0.7884
1289.000000 0.7833 0.7783 0.7732 0.7686 0.7658
1294.000000 0.7630 0.7602 0.7571 0.7526 0.7127
1299.000000 0.6798 0.6656 0.6475 0.6067 0.5659
1304.000000 0.5251 0.4843 0.4435 0.4027 0.3619
1309.000000 0.3211 0.2803 0.2395 0.2213 0.2013
1314.000000 0.1763 0.1520 0.0517 0.0348 0.0230
1319.000000 0.0133 0.0065 0.0017 0.0017 0.0017
1324.000000 0.0014 0.0017 0.0017 0.0017 0.0017
1329.000000 0.0017 0.0017 0.0017 0.0017 0.0017
1334.000000 0.0017 0.0017 0.0017 0.0017 0.0017
1339.000000 0.0017 0.0017 0.0017 0.0017 0.0017
1344.000000 0.0017 0.0017 0.0016 0.0016 0.0016
1349.000000 0.0016 0.0016 0.0022 0.0057 0.0092
1354.000000 0.0161 0.0210 0.0266 0.0346 0.0562
1359.000000 0.1159 0.1809 0.2458 0.3108 0.3757
1364.000000 0.4407 0.5056 0.5706 0.6355 0.7005
1369.000000 0.7470 0.7635 0.7807 0.8063 0.8202
1374.000000 0.8294 0.8333 0.8368 0.8392 0.8410
1379.000000 0.8428 0.8442 0.8456 0.8470 0.8483
1384.000000 0.8495 0.8505 0.8515 0.8524 0.8534
1389.000000 0.8540 0.8546 0.8553 0.8559 0.8565
1394.000000 0.8572 0.8580 0.8587 0.8594 0.8599
1399.000000 0.8603 0.8608 0.8612 0.8617 0.8621
1404.000000 0.8626 0.8630 0.8634 0.8638 0.8643
1409.000000 0.8647 0.8651 0.8654 0.8656 0.8658
1414.000000 0.8660 0.8663 0.8691 0.8663 0.8662
1419.000000 0.8661 0.8660 0.8659 0.8658 0.8656
1424.000000 0.8654 0.8652 0.8650 0.8648 0.8646
1429.000000 0.8644 0.8642 0.8639 0.8637 0.8635
1434.000000 0.8633 0.8630 0.8627 0.8625 0.8625
1439.000000 0.8626 0.8627 0.8628 0.8629 0.8630
1444.000000 0.8631 0.8632 0.8634 0.8635 0.8636
1449.000000 0.8637 0.8642 0.8646 0.8650 0.8655
1454.000000 0.8665 0.8668 0.8660 0.8652 0.8643
1459.000000 0.8638 0.8638 0.8639 0.8639 0.8640
1464.000000 0.8640 0.8641 0.8641 0.8642 0.8645
1469.000000 0.8654 0.8662 0.8670 0.8670 0.8664
1474.000000 0.8652 0.8640 0.8628 0.8616 0.8608
1479.000000 0.8607 0.8607 0.8606 0.8605 0.8607
1484.000000 0.8609 0.8612 0.8615 0.8619 0.8625
1489.000000 0.8629 0.8631 0.8633 0.8630 0.8626
1494.000000 0.8622 0.8618 0.8614 0.8610 0.8606
1499.000000 0.8603 0.8603 0.8603 0.8613 0.8630
1504.000000 0.8655 0.8668 0.8680 0.8678 0.8668
1509.000000 0.8652 0.8636 0.8613 0.8582 0.8550
1514.000000 0.8519 0.8514 0.8509 0.8503 0.8498
1519.000000 0.8493 0.8488 0.8483 0.8478 0.8474
1524.000000 0.8470 0.8466 0.8461 0.8457 0.8453
1529.000000 0.8449 0.8445 0.8439 0.8433 0.8427
1534.000000 0.8420 0.8414 0.8408 0.8402 0.8395
1539.000000 0.8375 0.8350 0.8324 0.8290 0.8255
1544.000000 0.8225 0.8201 0.8198 0.8214 0.8166
1549.000000 0.8273 0.8299 0.8326 0.8354 0.8383
1554.000000 0.8412 0.8448 0.8498 0.8540 0.8545
1559.000000 0.8529 0.8512 0.8492 0.8482 0.8494
1564.000000 0.8507 0.8519 0.8531 0.8540 0.8548
1569.000000 0.8555 0.8562 0.8568 0.8574 0.8580
1574.000000 0.8586 0.8586 0.8585 0.8584 0.8583
1579.000000 0.8581 0.8578 0.8576 0.8573 0.8570
1584.000000 0.8568 0.8565 0.8565 0.8566 0.8566
1589.000000 0.8567 0.8568 0.8569 0.8569 0.8570
1594.000000 0.8571 0.8572 0.8573 0.8573 0.8574
1599.000000 0.8575 0.8576 0.8577 0.8578 0.8579
1604.000000 0.8580 0.8581 0.8583 0.8584 0.8585
1609.000000 0.8586 0.8588 0.8589 0.8590 0.8591
1614.000000 0.8593 0.8594 0.8595 0.8596 0.8597
1619.000000 0.8618 0.8599 0.8600 0.8601 0.8601
1624.000000 0.8602 0.8606 0.8610 0.8615 0.8620
1629.000000 0.8624 0.8629 0.8635 0.8642 0.8642
1634.000000 0.8632 0.8623 0.8614 0.8610 0.8609
1639.000000 0.8607 0.8605 0.8607 0.8611 0.8616
1644.000000 0.8621 0.8629 0.8637 0.8644 0.8645
1649.000000 0.8646 0.8647 0.8647 0.8640 0.8632
1654.000000 0.8625 0.8618 0.8616 0.8614 0.8613
1659.000000 0.8612 0.8610 0.8613 0.8617 0.8620
1664.000000 0.8624 0.8628 0.8630 0.8629 0.8628
1669.000000 0.8628 0.8627 0.8627 0.8625 0.8623
1674.000000 0.8620 0.8618 0.8616 0.8623 0.8633
1679.000000 0.8642 0.8652 0.8662 0.8670 0.8673
1684.000000 0.8675 0.8677 0.8667 0.8652 0.8637
1689.000000 0.8627 0.8623 0.8620 0.8617 0.8627
1694.000000 0.8637 0.8647 0.8663 0.8680 0.8695
1699.000000 0.8698 0.8687 0.8671 0.8655 0.8634
1704.000000 0.8608 0.8582 0.8556 0.8531 0.8507
1709.000000 0.8483 0.8459 0.8435 0.8407 0.8375
1714.000000 0.8343 0.8310 0.8273 0.8234 0.8195
1719.000000 0.8149 0.8085 0.8019 0.7948 0.7891
1724.000000 0.7849 0.7828 0.7816 0.7818 0.7821
1729.000000 0.7839 0.7909 0.8016 0.8018 0.8044
1734.000000 0.7976 0.7893 0.7853 0.7823 0.7810
1739.000000 0.7813 0.7849 0.7931 0.8012 0.8094
1744.000000 0.8176 0.8257 0.8320 0.8383 0.8442
1749.000000 0.8487 0.8529 0.8544 0.8557 0.8568
1754.000000 0.8575 0.8583 0.8591 0.8599 0.8607
1759.000000 0.8615 0.8623 0.8631 0.8634 0.8637
1764.000000 0.8640 0.8643 0.8646 0.8648 0.8651
1769.000000 0.8654 0.8644 0.8630 0.8616 0.8600
1774.000000 0.8590 0.8581 0.8572 0.8563 0.8557
1779.000000 0.8555 0.8552 0.8552 0.8552 0.8552
1784.000000 0.8552 0.8553 0.8554 0.8555 0.8556
1789.000000 0.8558 0.8559 0.8560 0.8561 0.8563
1794.000000 0.8564 0.8566 0.8569 0.8572 0.8575
1799.000000 0.8578 0.8581 0.8584 0.8587 0.8590
1804.000000 0.8593 0.8596 0.8600 0.8603 0.8606
1809.000000 0.8609 0.8628 0.8616 0.8619 0.8622
1814.000000 0.8624 0.8626 0.8628 0.8630 0.8632
1819.000000 0.8634 0.8636 0.8638 0.8640 0.8641
1824.000000 0.8641 0.8641 0.8641 0.8641 0.8641
1829.000000 0.8641 0.8640 0.8639 0.8638 0.8638
1834.000000 0.8637 0.8636 0.8635 0.8634 0.8634
1839.000000 0.8634 0.8633 0.8633 0.8633 0.8632
1844.000000 0.8632 0.8632 0.8631 0.8626 0.8620
1849.000000 0.8614 0.8608 0.8602 0.8592 0.8581
1854.000000 0.8571 0.8560 0.8549 0.8538 0.8528
1859.000000 0.8517 0.8504 0.8489 0.8474 0.8459
1864.000000 0.8444 0.8428 0.8410 0.8391 0.8373
1869.000000 0.8355 0.8336 0.8318 0.8298 0.8278
1874.000000 0.8259 0.8240 0.8223 0.8214 0.8207
1879.000000 0.8199 0.8192 0.8184 0.8178 0.8177
1884.000000 0.8176 0.8167 0.8176 0.8180 0.8185
1889.000000 0.8197 0.8214 0.8230 0.8246 0.8273
1894.000000 0.8300 0.8326 0.8360 0.8397 0.8429
1899.000000 0.8457 0.8485 0.8513 0.8530 0.8545
1904.000000 0.8560 0.8568 0.8575 0.8581 0.8587
1909.000000 0.8588 0.8589 0.8590 0.8587 0.8592
1914.000000 0.8593 0.8594 0.8595 0.8592 0.8590
1919.000000 0.8588 0.8586 0.8584 0.8580 0.8575
1924.000000 0.8570 0.8565 0.8560 0.8555 0.8550
1929.000000 0.8545 0.8540 0.8533 0.8523 0.8513
1934.000000 0.8503 0.8493 0.8483 0.8471 0.8454
1939.000000 0.8437 0.8419 0.8402 0.8380 0.8358
1944.000000 0.8336 0.8314 0.8292 0.8269 0.8234
1949.000000 0.8200 0.8165 0.8132 0.8101 0.8083
1954.000000 0.8065 0.8048 0.8035 0.8028 0.8070
1959.000000 0.8110 0.8093 0.8176 0.8187 0.8174
1964.000000 0.8160 0.8147 0.8153 0.8185 0.8224
1969.000000 0.8301 0.8355 0.8405 0.8440 0.8475
1974.000000 0.8499 0.8519 0.8539 0.8559 0.8569
1979.000000 0.8578 0.8580 0.8577 0.8574 0.8572
1984.000000 0.8569 0.8566 0.8563 0.8561 0.8558
1989.000000 0.8556 0.8548 0.8540 0.8533 0.8525
1994.000000 0.8516 0.8506 0.8496 0.8485 0.8475
1999.000000 0.8465 0.8458 0.8454 0.8450 0.8448
2004.000000 0.8448 0.8444 0.8442 0.8440 0.8438
2009.000000 0.8437 0.8437 0.8438 0.8439 0.8443
2014.000000 0.8447 0.8451 0.8456 0.8461 0.8467
2019.000000 0.8473 0.8479 0.8485 0.8491 0.8498
2024.000000 0.8506 0.8516 0.8527 0.8537 0.8547
2029.000000 0.8552 0.8557 0.8561 0.8566 0.8570
2034.000000 0.8575 0.8578 0.8582 0.8586 0.8590
2039.000000 0.8593 0.8597 0.8599 0.8601 0.8603
2044.000000 0.8606 0.8608 0.8611 0.8611 0.8612
2049.000000 0.8611 0.8611 0.8610 0.8610 0.8609
2054.000000 0.8608 0.8607 0.8607 0.8606 0.8605
2059.000000 0.8603 0.8602 0.8600 0.8598 0.8596
2064.000000 0.8595 0.8593 0.8592 0.8590 0.8588
2069.000000 0.8585 0.8582 0.8577 0.8573 0.8568
2074.000000 0.8564 0.8559 0.8554 0.8546 0.8538
2079.000000 0.8530 0.8522 0.8514 0.8506 0.8498
2084.000000 0.8490 0.8479 0.8469 0.8451 0.8433
2089.000000 0.8415 0.8397 0.8379 0.8361 0.8342
2094.000000 0.8324 0.8305 0.8287 0.8268 0.8250
2099.000000 0.8227 0.8205 0.8177 0.8150 0.8125
2104.000000 0.8100 0.8091 0.8083 0.8081 0.8079
2109.000000 0.8077 0.8076 0.8074 0.8055 0.8072
2114.000000 0.8072 0.8073 0.8075 0.8079 0.8083
2119.000000 0.8089 0.8095 0.8102 0.8109 0.8126
2124.000000 0.8144 0.8164 0.8184 0.8207 0.8231
2129.000000 0.8270 0.8310 0.8354 0.8399 0.8429
2134.000000 0.8460 0.8458 0.8457 0.8456 0.8456
2139.000000 0.8455 0.8455 0.8451 0.8447 0.8442
2144.000000 0.8438 0.8435 0.8433 0.8431 0.8430
2149.000000 0.8428 0.8426 0.8425 0.8425 0.8426
2154.000000 0.8427 0.8427 0.8428 0.8429 0.8430
2159.000000 0.8431 0.8433 0.8434 0.8436 0.8437
2164.000000 0.8439 0.8441 0.8444 0.8450 0.8456
2169.000000 0.8464 0.8472 0.8485 0.8498 0.8511
2174.000000 0.8524 0.8537 0.8551 0.8564 0.8577
2179.000000 0.8585 0.8594 0.8599 0.8600 0.8608
2184.000000 0.8613 0.8614 0.8615 0.8615 0.8615
2189.000000 0.8614 0.8614 0.8614 0.8614 0.8613
2194.000000 0.8613 0.8613 0.8613 0.8613 0.8613
2199.000000 0.8612 0.8612 0.8611 0.8611 0.8610
2204.000000 0.8610 0.8610 0.8610 0.8609 0.8609
2209.000000 0.8608 0.8608 0.8607 0.8607 0.8606
2214.000000 0.8606 0.8606 0.8606 0.8604 0.8603
2219.000000 0.8601 0.8599 0.8597 0.8596 0.8594
2224.000000 0.8593 0.8591 0.8589 0.8587 0.8586
2229.000000 0.8584 0.8582 0.8580 0.8578 0.8575
2234.000000 0.8572 0.8569 0.8566 0.8562 0.8559
2239.000000 0.8556 0.8553 0.8549 0.8546 0.8541
2244.000000 0.8537 0.8532 0.8527 0.8521 0.8516
2249.000000 0.8511 0.8506 0.8501 0.8496 0.8490
2254.000000 0.8485 0.8480 0.8475 0.8470 0.8465
2259.000000 0.8458 0.8452 0.8441 0.8430 0.8419
2264.000000 0.8408 0.8397 0.8387 0.8376 0.8365
2269.000000 0.8350 0.8335 0.8319 0.8304 0.8303
2274.000000 0.8303 0.8306 0.8303 0.8317 0.8326
2279.000000 0.8357 0.8389 0.8410 0.8431 0.8446
2284.000000 0.8462 0.8477 0.8493 0.8509 0.8525
2289.000000 0.8540 0.8556 0.8564 0.8572 0.8577
2294.000000 0.8583 0.8589 0.8595 0.8601 0.8607
2299.000000 0.8613 0.8619 0.8624 0.8630 0.8636
2304.000000 0.8642 0.8647 0.8653 0.8658 0.8664
2309.000000 0.8670 0.8676 0.8680 0.8684 0.8687
2314.000000 0.8690 0.8693 0.8697 0.8700 0.8703
2319.000000 0.8706 0.8709 0.8712 0.8716 0.8719
2324.000000 0.8722 0.8723 0.8724 0.8725 0.8726
2329.000000 0.8727 0.8728 0.8729 0.8730 0.8731
2334.000000 0.8732 0.8732 0.8733 0.8733 0.8742
2339.000000 0.8733 0.8732 0.8731 0.8730 0.8729
2344.000000 0.8728 0.8727 0.8726 0.8725 0.8724
2349.000000 0.8723 0.8722 0.8721 0.8720 0.8718
2354.000000 0.8716 0.8713 0.8711 0.8708 0.8706
2359.000000 0.8704 0.8702 0.8699 0.8697 0.8694
2364.000000 0.8692 0.8689 0.8687 0.8684 0.8682
2369.000000 0.8680 0.8678 0.8674 0.8671 0.8668
2374.000000 0.8665 0.8662 0.8659 0.8655 0.8652
2379.000000 0.8649 0.8646 0.8643 0.8640 0.8637
2384.000000 0.8634 0.8630 0.8627 0.8624 0.8621
2389.000000 0.8617 0.8614 0.8611 0.8608 0.8604
2394.000000 0.8601 0.8598 0.8595 0.8591 0.8588
2399.000000 0.8585 0.8582 0.8579 0.8577 0.8574
2404.000000 0.8572 0.8569 0.8567 0.8561 0.8556
2409.000000 0.8547 0.8538 0.8529 0.8521 0.8512
2414.000000 0.8503 0.8494 0.8486 0.8477 0.8469
2419.000000 0.8460 0.8452 0.8444 0.8425 0.8431
2424.000000 0.8426 0.8428 0.8431 0.8433 0.8436
2429.000000 0.8441 0.8447 0.8454 0.8461 0.8468
2434.000000 0.8475 0.8482 0.8490 0.8498 0.8507
2439.000000 0.8515 0.8524 0.8532 0.8541 0.8550
2444.000000 0.8559 0.8568 0.8578 0.8585 0.8592
2449.000000 0.8599 0.8606 0.8610 0.8616 0.8613
2454.000000 0.8611 0.8609 0.8607 0.8605 0.8603
2459.000000 0.8601 0.8599 0.8597 0.8595 0.8592
2464.000000 0.8590 0.8586 0.8583 0.8580 0.8577
2469.000000 0.8573 0.8570 0.8567 0.8564 0.8561
2474.000000 0.8558 0.8554 0.8550 0.8542 0.8534
2479.000000 0.8526 0.8518 0.8510 0.8502 0.8493
