##TITLE=CYCLOBUTANONE
##JCAMP-DX=4.24
##DATA TYPE=INFRARED SPECTRUM
##CLASS=COBLENTZ III
##ORIGIN=DOW CHEMICAL COMPANY
##OWNER=COBLENTZ SOCIETY
Collection (C) 2018 copyright by the U.S. Secretary of Commerce
on behalf of the United States of America. All rights reserved.
##DATE=1963/07/15
##CAS REGISTRY NO=1191-95-3
##MOLFORM=C4 H6 O
##SOURCE REFERENCE=COBLENTZ NO. 10190
##$NIST SOURCE=COBLENTZ
##$NIST IMAGE=cob10190
##SPECTROMETER/DATA SYSTEM=DOW KBr FOREPRISM-GRATING
##INSTRUMENT PARAMETERS=BLAZED AT 3.5, 12.0, 20.0 MICRON, CHANGED AT 5.0, 7.5, 14.9 MICRON
##STATE=SOLUTION (2% IN CCl4 FOR 3800-1333, 2% IN CS2 FOR 1333-450 CM^-^1)
##PATH LENGTH=0.011, 0.011 CM
$$SPECTRAL CONTAMINATION DUE TO CCl4 AROUND 1550, AND CS2 AROUND 855 CM^-^1
##SAMPLING PROCEDURE=TRANSMISSION
##RESOLUTION=4
##DATA PROCESSING=DIGITIZED BY NIST FROM HARD COPY (FROM TWO SEGMENTS)
##XUNITS=1/CM
##YUNITS=TRANSMITTANCE
##XFACTOR=1.000000
##YFACTOR=1
##DELTAX=0.851790
##FIRSTX=452.3
##LASTX=3797.28
##FIRSTY=0.917
##MAXX=3797.28
##MINX=452.3
##MAXY=1.009
##MINY=0.01
##NPOINTS=3928
##XYDATA=(X++(Y..Y))
452.300000 0.9170 0.9170 0.9160 0.9140 0.9140
456.558951 0.9140 0.9140 0.9140 0.9140 0.9140
460.817902 0.9160 0.9220 0.9290 0.9320 0.9360
465.076853 0.9400 0.9420 0.9450 0.9500 0.9530
469.335804 0.9540 0.9560 0.9560 0.9580 0.9580
473.594755 0.9600 0.9600 0.9600 0.9610 0.9610
477.853706 0.9610 0.9610 0.9610 0.9620 0.9620
482.112657 0.9640 0.9640 0.9640 0.9640 0.9650
486.371608 0.9650 0.9650 0.9650 0.9650 0.9640
490.630559 0.9640 0.9650 0.9650 0.9650 0.9650
494.889510 0.9660 0.9660 0.9660 0.9660 0.9660
499.148461 0.9690 0.9720 0.9730 0.9760 0.9760
503.407412 0.9770 0.9770 0.9770 0.9770 0.9770
507.666363 0.9770 0.9770 0.9770 0.9770 0.9770
511.925314 0.9770 0.9770 0.9770 0.9770 0.9770
516.184265 0.9770 0.9780 0.9780 0.9800 0.9800
520.443216 0.9810 0.9810 0.9810 0.9810 0.9820
524.702168 0.9840 0.9840 0.9850 0.9860 0.9860
528.961119 0.9860 0.9860 0.9860 0.9880 0.9880
533.220070 0.9880 0.9890 0.9890 0.9900 0.9900
537.479021 0.9900 0.9900 0.9900 0.9900 0.9920
541.737972 0.9920 0.9930 0.9930 0.9930 0.9930
545.996923 0.9940 0.9940 0.9940 0.9940 0.9940
550.255874 0.9960 0.9970 0.9980 0.9980 0.9980
554.514825 0.9980 0.9980 0.9970 0.9970 0.9980
558.773776 0.9980 0.9980 0.9980 0.9970 0.9940
563.032727 0.9930 0.9930 0.9960 0.9970 0.9970
567.291678 0.9980 1.0000 1.0000 1.0000 0.9980
571.550629 0.9970 0.9960 0.9960 0.9970 0.9980
575.809580 0.9980 0.9980 0.9970 0.9970 0.9960
580.068531 0.9960 0.9960 0.9960 0.9960 0.9960
584.327482 0.9940 0.9940 0.9940 0.9940 0.9930
588.586433 0.9930 0.9930 0.9940 0.9940 0.9960
592.845384 0.9960 0.9940 0.9920 0.9920 0.9900
597.104335 0.9900 0.9920 0.9920 0.9920 0.9920
601.363286 0.9900 0.9890 0.9890 0.9880 0.9880
605.622237 0.9880 0.9880 0.9860 0.9850 0.9850
609.881188 0.9820 0.9810 0.9810 0.9780 0.9770
614.140139 0.9740 0.9730 0.9730 0.9720 0.9720
618.399090 0.9720 0.9700 0.9700 0.9700 0.9690
622.658041 0.9680 0.9680 0.9660 0.9660 0.9660
626.916992 0.9660 0.9660 0.9660 0.9660 0.9650
631.175943 0.9650 0.9650 0.9650 0.9640 0.9580
635.434894 0.9560 0.9540 0.9530 0.9520 0.9480
639.693845 0.9460 0.9440 0.9400 0.9370 0.9340
643.952796 0.9330 0.9290 0.9250 0.9220 0.9170
648.211747 0.9160 0.9140 0.9130 0.9120 0.9060
652.470698 0.9040 0.9020 0.9020 0.9050 0.9120
656.729649 0.9130 0.9170 0.9210 0.9240 0.9280
660.988601 0.9320 0.9320 0.9330 0.9330 0.9330
665.247552 0.9340 0.9340 0.9340 0.9340 0.9360
669.506503 0.9360 0.9360 0.9360 0.9360 0.9360
673.765454 0.9360 0.9360 0.9360 0.9360 0.9360
678.024405 0.9360 0.9360 0.9360 0.9360 0.9360
682.283356 0.9360 0.9360 0.9360 0.9360 0.9360
686.542307 0.9360 0.9340 0.9340 0.9330 0.9330
690.801258 0.9330 0.9320 0.9320 0.9320 0.9300
695.060209 0.9300 0.9300 0.9300 0.9300 0.9300
699.319160 0.9300 0.9300 0.9290 0.9280 0.9280
703.578111 0.9260 0.9260 0.9250 0.9240 0.9210
707.837062 0.9200 0.9180 0.9180 0.9170 0.9140
712.096013 0.9120 0.9090 0.9060 0.9050 0.9040
716.354964 0.8970 0.8940 0.8930 0.8920 0.8920
720.613915 0.8920 0.8900 0.8900 0.8900 0.8920
724.872866 0.8920 0.8930 0.8940 0.8970 0.9000
729.131817 0.9010 0.9020 0.9090 0.9130 0.9170
733.390768 0.9170 0.9200 0.9210 0.9240 0.9240
737.649719 0.9280 0.9340 0.9360 0.9360 0.9370
741.908670 0.9370 0.9370 0.9370 0.9380 0.9380
746.167621 0.9380 0.9380 0.9380 0.9370 0.9370
750.426572 0.9360 0.9340 0.9330 0.9320 0.9280
754.685523 0.9250 0.9210 0.9180 0.9160 0.9130
758.944474 0.9090 0.9050 0.9040 0.9040 0.9060
763.203425 0.9130 0.9160 0.9200 0.9250 0.9320
767.462376 0.9360 0.9380 0.9420 0.9460 0.9490
771.721327 0.9500 0.9500 0.9500 0.9500 0.9490
775.980278 0.9490 0.9490 0.9490 0.9490 0.9490
780.239229 0.9490 0.9490 0.9490 0.9480 0.9460
784.498180 0.9460 0.9460 0.9460 0.9460 0.9460
788.757131 0.9450 0.9450 0.9450 0.9450 0.9440
793.016082 0.9440 0.9440 0.9440 0.9440 0.9440
797.275033 0.9420 0.9420 0.9420 0.9440 0.9450
801.533985 0.9450 0.9450 0.9450 0.9450 0.9440
805.792936 0.9410 0.9400 0.9400 0.9400 0.9410
810.051887 0.9410 0.9410 0.9420 0.9440 0.9440
814.310838 0.9450 0.9450 0.9450 0.9450 0.9450
818.569789 0.9450 0.9440 0.9440 0.9440 0.9450
822.828740 0.9460 0.9460 0.9450 0.9440 0.9440
827.087691 0.9420 0.9410 0.9410 0.9380 0.9370
831.346642 0.9340 0.9340 0.9330 0.9290 0.9250
835.605593 0.9220 0.9170 0.9130 0.9130 0.9100
839.864544 0.9020 0.8940 0.8920 0.8860 0.8820
844.123495 0.8730 0.8620 0.8520 0.8440 0.8360
848.382446 0.8300 0.8200 0.8120 0.7961 0.7841
852.641397 0.7770 0.7700 0.7700 0.7690 0.7690
856.900348 0.7680 0.7680 0.7680 0.7680 0.7690
861.159299 0.7820 0.7850 0.7860 0.7890 0.7930
865.418250 0.7970 0.8000 0.8040 0.8080 0.8140
869.677201 0.8170 0.8200 0.8260 0.8300 0.8330
873.936152 0.8340 0.8400 0.8420 0.8490 0.8520
878.195103 0.8540 0.8540 0.8610 0.8640 0.8700
882.454054 0.8740 0.8770 0.8780 0.8880 0.8920
886.713005 0.8960 0.9020 0.9080 0.9130 0.9140
890.971956 0.9170 0.9220 0.9280 0.9290 0.9330
895.230907 0.9340 0.9370 0.9380 0.9400 0.9410
899.489858 0.9410 0.9420 0.9440 0.9460 0.9490
903.748809 0.9490 0.9520 0.9530 0.9530 0.9540
908.007760 0.9560 0.9560 0.9570 0.9570 0.9570
912.266711 0.9570 0.9570 0.9570 0.9570 0.9570
916.525662 0.9570 0.9570 0.9570 0.9570 0.9570
920.784613 0.9570 0.9570 0.9570 0.9570 0.9570
925.043564 0.9570 0.9570 0.9570 0.9570 0.9570
929.302515 0.9570 0.9570 0.9570 0.9570 0.9570
933.561466 0.9570 0.9570 0.9570 0.9570 0.9570
937.820418 0.9570 0.9560 0.9560 0.9560 0.9540
942.079369 0.9540 0.9540 0.9540 0.9540 0.9530
946.338320 0.9530 0.9500 0.9500 0.9490 0.9490
950.597271 0.9480 0.9450 0.9410 0.9380 0.9360
954.856222 0.9290 0.9240 0.9210 0.9200 0.9210
959.115173 0.9300 0.9330 0.9380 0.9460 0.9480
963.374124 0.9500 0.9530 0.9570 0.9580 0.9600
967.633075 0.9610 0.9610 0.9610 0.9610 0.9620
971.892026 0.9640 0.9640 0.9640 0.9640 0.9640
976.150977 0.9640 0.9650 0.9650 0.9660 0.9660
980.409928 0.9660 0.9660 0.9660 0.9660 0.9660
984.668879 0.9660 0.9660 0.9660 0.9660 0.9660
988.927830 0.9660 0.9660 0.9660 0.9680 0.9680
993.186781 0.9680 0.9660 0.9660 0.9660 0.9660
997.445732 0.9650 0.9650 0.9650 0.9660 0.9660
1001.704683 0.9680 0.9680 0.9690 0.9690 0.9690
1005.963634 0.9680 0.9660 0.9660 0.9660 0.9660
1010.222585 0.9660 0.9650 0.9650 0.9650 0.9650
1014.481536 0.9640 0.9640 0.9620 0.9620 0.9620
1018.740487 0.9620 0.9620 0.9610 0.9600 0.9580
1022.999438 0.9570 0.9570 0.9570 0.9560 0.9560
1027.258389 0.9540 0.9540 0.9540 0.9530 0.9500
1031.517340 0.9480 0.9460 0.9460 0.9440 0.9420
1035.776291 0.9410 0.9370 0.9340 0.9330 0.9330
1040.035242 0.9300 0.9280 0.9250 0.9220 0.9210
1044.294193 0.9180 0.9140 0.9120 0.9040 0.9000
1048.553144 0.8980 0.8960 0.8890 0.8820 0.8760
1052.812095 0.8700 0.8610 0.8570 0.8520 0.8420
1057.071046 0.8360 0.8280 0.8160 0.8000 0.7820
1061.329997 0.7520 0.7211 0.7100 0.6821 0.6531
1065.588948 0.6080 0.5820 0.5210 0.4580 0.4180
1069.847899 0.3761 0.3211 0.3140 0.2582 0.2570
1074.106851 0.2570 0.2580 0.2640 0.2810 0.3100
1078.365802 0.3280 0.3859 0.4359 0.4888 0.5836
1082.624753 0.6290 0.6660 0.6980 0.7220 0.7440
1086.883704 0.7600 0.7720 0.7810 0.7890 0.8129
1091.142655 0.8240 0.8410 0.8480 0.8520 0.8580
1095.401606 0.8680 0.8720 0.8760 0.8810 0.8850
1099.660557 0.8900 0.8920 0.8940 0.8960 0.8970
1103.919508 0.8980 0.9040 0.9050 0.9060 0.9090
1108.178459 0.9120 0.9130 0.9140 0.9140 0.9160
1112.437410 0.9170 0.9170 0.9170 0.9170 0.9180
1116.696361 0.9180 0.9180 0.9180 0.9200 0.9200
1120.955312 0.9200 0.9180 0.9170 0.9170 0.9160
1125.214263 0.9160 0.9140 0.9140 0.9120 0.9120
1129.473214 0.9100 0.9090 0.9060 0.9050 0.9020
1133.732165 0.9020 0.9040 0.9050 0.9050 0.9060
1137.991116 0.9120 0.9130 0.9160 0.9170 0.9180
1142.250067 0.9180 0.9180 0.9200 0.9210 0.9220
1146.509018 0.9240 0.9250 0.9250 0.9240 0.9220
1150.767969 0.9210 0.9180 0.9170 0.9160 0.9140
1155.026920 0.9130 0.9120 0.9120 0.9100 0.9100
1159.285871 0.9090 0.9090 0.9100 0.9130 0.9140
1163.544822 0.9140 0.9160 0.9160 0.9160 0.9160
1167.803773 0.9180 0.9180 0.9180 0.9200 0.9210
1172.062724 0.9220 0.9220 0.9220 0.9220 0.9220
1176.321675 0.9210 0.9200 0.9180 0.9170 0.9160
1180.580626 0.9140 0.9130 0.9130 0.9140 0.9170
1184.839577 0.9200 0.9200 0.9200 0.9180 0.9180
1189.098528 0.9170 0.9170 0.9160 0.9130 0.9130
1193.357479 0.9120 0.9100 0.9090 0.9060 0.9020
1197.616430 0.9000 0.8940 0.8890 0.8800 0.8621
1201.875381 0.8380 0.8160 0.7980 0.7860 0.7440
1206.134332 0.7060 0.7020 0.7160 0.7369 0.7968
1210.393283 0.8600 0.8900 0.9010 0.9100 0.9120
1214.652235 0.9140 0.9200 0.9220 0.9330 0.9340
1218.911186 0.9380 0.9420 0.9420 0.9440 0.9450
1223.170137 0.9450 0.9460 0.9480 0.9480 0.9480
1227.429088 0.9480 0.9460 0.9450 0.9410 0.9370
1231.688039 0.9340 0.9330 0.9320 0.9290 0.9260
1235.946990 0.9210 0.9160 0.9080 0.8980 0.8920
1240.205941 0.8730 0.8720 0.8730 0.8850 0.8900
1244.464892 0.8960 0.9020 0.9140 0.9180 0.9240
1248.723843 0.9280 0.9320 0.9380 0.9420 0.9420
1252.982794 0.9450 0.9450 0.9450 0.9460 0.9500
1257.241745 0.9520 0.9540 0.9540 0.9540 0.9540
1261.500696 0.9540 0.9540 0.9540 0.9540 0.9540
1265.759647 0.9540 0.9540 0.9560 0.9580 0.9600
1270.018598 0.9600 0.9600 0.9600 0.9600 0.9600
1274.277549 0.9600 0.9600 0.9600 0.9600 0.9600
1278.536500 0.9600 0.9600 0.9580 0.9580 0.9600
1282.795451 0.9600 0.9600 0.9600 0.9600 0.9600
1287.054402 0.9610 0.9610 0.9600 0.9600 0.9600
1291.313353 0.9610 0.9600 0.9600 0.9600 0.9600
1295.572304 0.9600 0.9600 0.9600 0.9600 0.9580
1299.831255 0.9570 0.9570 0.9570 0.9570 0.9580
1304.090206 0.9600 0.9600 0.9600 0.9600 0.9600
1308.349157 0.9580 0.9570 0.9570 0.9570 0.9560
1312.608108 0.9560 0.9560 0.9560 0.9560 0.9560
1316.867059 0.9560 0.9540 0.9540 0.9530 0.9520
1321.126010 0.9490 0.9480 0.9460 0.9450 0.9420
1325.384961 0.9400 0.9360 0.9330 0.9320 0.9280
1329.643912 0.9250 0.9170 0.9160 0.9140 0.9130
1333.902863 0.9130 0.9130 0.9140 0.9160 0.9170
1338.161814 0.9200 0.9240 0.9250 0.9340 0.9370
1342.420765 0.9410 0.9410 0.9410 0.9420 0.9420
1346.679716 0.9440 0.9450 0.9450 0.9450 0.9450
1350.938668 0.9450 0.9440 0.9440 0.9440 0.9440
1355.197619 0.9420 0.9420 0.9410 0.9410 0.9410
1359.456570 0.9420 0.9420 0.9420 0.9420 0.9420
1363.715521 0.9400 0.9380 0.9370 0.9330 0.9320
1367.974472 0.9290 0.9290 0.9290 0.9280 0.9260
1372.233423 0.9250 0.9250 0.9240 0.9220 0.9220
1376.492374 0.9210 0.9140 0.9060 0.9020 0.9010
1380.751325 0.8930 0.8900 0.8800 0.8730 0.8700
1385.010276 0.8600 0.8530 0.8440 0.8330 0.8171
1389.269227 0.8019 0.7820 0.7579 0.6970 0.6610
1393.528178 0.6220 0.6020 0.6020 0.6130 0.6330
1397.787129 0.6480 0.6621 0.7040 0.7330 0.7520
1402.046080 0.7800 0.8120 0.8330 0.8500 0.8620
1406.305031 0.8700 0.8800 0.8840 0.8930 0.8980
1410.563982 0.9000 0.9060 0.9120 0.9140 0.9170
1414.822933 0.9200 0.9240 0.9250 0.9280 0.9320
1419.081884 0.9340 0.9380 0.9400 0.9410 0.9420
1423.340835 0.9420 0.9410 0.9410 0.9410 0.9410
1427.599786 0.9410 0.9410 0.9410 0.9410 0.9410
1431.858737 0.9410 0.9410 0.9410 0.9410 0.9410
1436.117688 0.9420 0.9440 0.9440 0.9420 0.9410
1440.376639 0.9400 0.9400 0.9380 0.9380 0.9380
1444.635590 0.9380 0.9380 0.9380 0.9400 0.9410
1448.894541 0.9420 0.9450 0.9450 0.9380 0.9370
1453.153492 0.9370 0.9380 0.9380 0.9400 0.9440
1457.412443 0.9480 0.9520 0.9540 0.9460 0.9370
1461.671394 0.9320 0.9290 0.9290 0.9280 0.9290
1465.930345 0.9360 0.9410 0.9410 0.9320 0.9240
1470.189296 0.9240 0.9260 0.9320 0.9360 0.9440
1474.448247 0.9440 0.9370 0.9330 0.9220 0.9210
1478.707198 0.9140 0.9120 0.9090 0.9060 0.9050
1482.966149 0.9010 0.9000 0.8980 0.8970 0.8970
1487.225100 0.8970 0.8960 0.8940 0.8930 0.8840
1491.484052 0.8810 0.8780 0.8740 0.8700 0.8650
1495.743003 0.8620 0.8570 0.8500 0.8500 0.8450
1500.001954 0.8420 0.8320 0.8250 0.8180 0.8140
1504.260905 0.8060 0.8010 0.7970 0.7970 0.7940
1508.519856 0.7890 0.7850 0.7780 0.7720 0.7600
1512.778807 0.7530 0.7460 0.7440 0.7410 0.7330
1517.037758 0.7300 0.7300 0.7290 0.7280 0.7170
1521.296709 0.7090 0.7080 0.7060 0.7020 0.6930
1525.555660 0.6900 0.6820 0.6810 0.6760 0.6650
1529.814611 0.6600 0.6530 0.6400 0.6300 0.6200
1534.073562 0.6160 0.6040 0.5920 0.5800 0.5740
1538.332513 0.5640 0.5570 0.5530 0.5480 0.5281
1542.591464 0.5170 0.5120 0.5020 0.5000 0.4890
1546.850415 0.4810 0.4780 0.4760 0.4730 0.4700
1551.109366 0.4690 0.4680 0.4680 0.4690 0.4700
1555.368317 0.4770 0.4890 0.4900 0.4920 0.5010
1559.627268 0.5131 0.5320 0.5400 0.5440 0.5460
1563.886219 0.5480 0.5540 0.5620 0.5770 0.5880
1568.145170 0.5920 0.6000 0.6160 0.6320 0.6380
1572.404121 0.6420 0.6440 0.6440 0.6440 0.6450
1576.663072 0.6600 0.6620 0.6620 0.6620 0.6620
1580.922023 0.6640 0.6650 0.6650 0.6660 0.6680
1585.180974 0.6740 0.6770 0.6800 0.6850 0.6900
1589.439925 0.6920 0.6970 0.7010 0.7120 0.7140
1593.698876 0.7250 0.7290 0.7410 0.7530 0.7580
1597.957827 0.7620 0.7740 0.7820 0.7940 0.8129
1602.216778 0.8160 0.8290 0.8330 0.8500 0.8520
1606.475729 0.8530 0.8640 0.8720 0.8770 0.8820
1610.734680 0.8860 0.9010 0.9040 0.9040 0.9050
1614.993631 0.9060 0.9120 0.9170 0.9320 0.9340
1619.252582 0.9340 0.9340 0.9340 0.9340 0.9360
1623.511533 0.9400 0.9440 0.9460 0.9500 0.9520
1627.770485 0.9530 0.9530 0.9520 0.9500 0.9500
1632.029436 0.9520 0.9530 0.9570 0.9580 0.9580
1636.288387 0.9690 0.9730 0.9730 0.9700 0.9690
1640.547338 0.9690 0.9680 0.9660 0.9660 0.9660
1644.806289 0.9650 0.9650 0.9660 0.9730 0.9760
1649.065240 0.9780 0.9780 0.9740 0.9720 0.9700
1653.324191 0.9730 0.9840 0.9890 0.9880 0.9800
1657.583142 0.9680 0.9640 0.9620 0.9620 0.9620
1661.842093 0.9620 0.9620 0.9640 0.9640 0.9620
1666.101044 0.9610 0.9600 0.9580 0.9580 0.9600
1670.359995 0.9640 0.9660 0.9660 0.9650 0.9620
1674.618946 0.9610 0.9610 0.9610 0.9600 0.9600
1678.877897 0.9600 0.9580 0.9580 0.9580 0.9580
1683.136848 0.9570 0.9570 0.9600 0.9640 0.9620
1687.395799 0.9610 0.9560 0.9540 0.9570 0.9580
1691.654750 0.9580 0.9560 0.9540 0.9560 0.9570
1695.913701 0.9570 0.9600 0.9610 0.9620 0.9620
1700.172652 0.9610 0.9610 0.9600 0.9560 0.9530
1704.431603 0.9500 0.9500 0.9500 0.9490 0.9440
1708.690554 0.9420 0.9420 0.9400 0.9360 0.9340
1712.949505 0.9340 0.9340 0.9330 0.9330 0.9320
1717.208456 0.9320 0.9300 0.9290 0.9220 0.9200
1721.467407 0.9120 0.9090 0.9090 0.9090 0.9100
1725.726358 0.9100 0.9120 0.9120 0.9120 0.9130
1729.985309 0.9160 0.9170 0.9180 0.9180 0.9200
1734.244260 0.9210 0.9210 0.9140 0.9120 0.9020
1738.503211 0.8900 0.8860 0.8810 0.8740 0.8680
1742.762162 0.8570 0.8520 0.8500 0.8450 0.8440
1747.021113 0.8440 0.8420 0.8420 0.8410 0.8400
1751.280064 0.8370 0.8330 0.8300 0.8290 0.8200
1755.539015 0.8140 0.8120 0.8090 0.8060 0.7980
1759.797966 0.7940 0.7880 0.7770 0.7650 0.7600
1764.056917 0.7520 0.7400 0.7280 0.7170 0.7050
1768.315869 0.6930 0.6690 0.6301 0.5741 0.5580
1772.574820 0.5408 0.4899 0.4419 0.4050 0.3800
1776.833771 0.3450 0.2930 0.2330 0.1701 0.1131
1781.092722 0.0889 0.0649 0.0450 0.0360 0.0300
1785.351673 0.0210 0.0160 0.0130 0.0120 0.0100
1789.610624 0.0100 0.0100 0.0120 0.0140 0.0170
1793.869575 0.0210 0.0240 0.0300 0.0300 0.0360
1798.128526 0.0370 0.0401 0.1011 0.1420 0.1770
1802.387477 0.2080 0.2330 0.2560 0.2780 0.3010
1806.646428 0.3251 0.3770 0.3941 0.4420 0.4810
1810.905379 0.5140 0.5700 0.5940 0.6140 0.6340
1815.164330 0.6530 0.6700 0.6930 0.7050 0.7140
1819.423281 0.7220 0.7380 0.7640 0.7920 0.7960
1823.682232 0.8060 0.8140 0.8220 0.8380 0.8490
1827.941183 0.8500 0.8520 0.8560 0.8680 0.8770
1832.200134 0.8800 0.8800 0.8810 0.8840 0.8860
1836.459085 0.8880 0.8920 0.8960 0.8970 0.8980
1840.718036 0.9000 0.9050 0.9120 0.9120 0.9130
1844.976987 0.9160 0.9180 0.9200 0.9200 0.9210
1849.235938 0.9210 0.9210 0.9210 0.9240 0.9260
1853.494889 0.9280 0.9290 0.9290 0.9300 0.9320
1857.753840 0.9320 0.9320 0.9320 0.9340 0.9370
1862.012791 0.9380 0.9380 0.9400 0.9400 0.9410
1866.271742 0.9410 0.9420 0.9420 0.9440 0.9440
1870.530693 0.9460 0.9480 0.9480 0.9480 0.9490
1874.789644 0.9500 0.9500 0.9500 0.9500 0.9500
1879.048595 0.9520 0.9530 0.9530 0.9530 0.9540
1883.307546 0.9540 0.9570 0.9570 0.9580 0.9580
1887.566497 0.9580 0.9600 0.9600 0.9600 0.9610
1891.825448 0.9610 0.9610 0.9610 0.9610 0.9610
1896.084399 0.9610 0.9620 0.9620 0.9620 0.9620
1900.343350 0.9620 0.9620 0.9620 0.9620 0.9620
1904.602302 0.9620 0.9620 0.9620 0.9620 0.9620
1908.861253 0.9620 0.9620 0.9620 0.9620 0.9620
1913.120204 0.9620 0.9620 0.9620 0.9620 0.9620
1917.379155 0.9620 0.9620 0.9620 0.9680 0.9690
1921.638106 0.9690 0.9690 0.9690 0.9690 0.9690
1925.897057 0.9690 0.9700 0.9700 0.9700 0.9700
1930.156008 0.9700 0.9700 0.9700 0.9700 0.9700
1934.414959 0.9720 0.9730 0.9730 0.9730 0.9730
1938.673910 0.9730 0.9730 0.9740 0.9760 0.9760
1942.932861 0.9740 0.9730 0.9700 0.9700 0.9690
1947.191812 0.9680 0.9680 0.9690 0.9690 0.9690
1951.450763 0.9690 0.9690 0.9690 0.9690 0.9680
1955.709714 0.9680 0.9680 0.9660 0.9660 0.9660
1959.968665 0.9660 0.9660 0.9650 0.9650 0.9650
1964.227616 0.9650 0.9650 0.9640 0.9640 0.9640
1968.486567 0.9640 0.9620 0.9620 0.9610 0.9600
1972.745518 0.9580 0.9570 0.9570 0.9560 0.9540
1977.004469 0.9540 0.9540 0.9540 0.9540 0.9560
1981.263420 0.9560 0.9570 0.9570 0.9570 0.9580
1985.522371 0.9580 0.9600 0.9600 0.9600 0.9600
1989.781322 0.9600 0.9620 0.9620 0.9620 0.9620
1994.040273 0.9610 0.9610 0.9600 0.9580 0.9580
1998.299224 0.9570 0.9570 0.9570 0.9570 0.9570
2002.558175 0.9570 0.9570 0.9570 0.9570 0.9570
2006.817126 0.9570 0.9575 0.9580 0.9580 0.9580
2011.076077 0.9580 0.9580 0.9580 0.9580 0.9580
2015.335028 0.9580 0.9580 0.9580 0.9580 0.9580
2019.593979 0.9590 0.9600 0.9605 0.9610 0.9610
2023.852930 0.9610 0.9610 0.9610 0.9615 0.9620
2028.111881 0.9629 0.9639 0.9649 0.9659 0.9674
2032.370832 0.9689 0.9704 0.9719 0.9729 0.9739
2036.629783 0.9740 0.9740 0.9731 0.9721 0.9706
2040.888734 0.9691 0.9690 0.9690 0.9686 0.9681
2045.147686 0.9684 0.9689 0.9694 0.9699 0.9700
2049.406637 0.9700 0.9709 0.9719 0.9724 0.9729
2053.665588 0.9730 0.9730 0.9730 0.9730 0.9730
2057.924539 0.9730 0.9730 0.9730 0.9730 0.9730
2062.183490 0.9734 0.9739 0.9740 0.9740 0.9740
2066.442441 0.9740 0.9736 0.9731 0.9730 0.9730
2070.701392 0.9692 0.9648 0.9677 0.9722 0.9734
2074.960343 0.9739 0.9740 0.9740 0.9752 0.9767
2079.219294 0.9770 0.9770 0.9770 0.9770 0.9770
2083.478245 0.9770 0.9770 0.9770 0.9770 0.9770
2087.737196 0.9770 0.9770 0.9770 0.9770 0.9770
2091.996147 0.9770 0.9770 0.9770 0.9770 0.9770
2096.255098 0.9766 0.9761 0.9760 0.9760 0.9760
2100.514049 0.9760 0.9752 0.9742 0.9736 0.9731
2104.773000 0.9730 0.9730 0.9726 0.9721 0.9720
2109.031951 0.9720 0.9720 0.9720 0.9727 0.9737
2113.290902 0.9747 0.9757 0.9764 0.9769 0.9770
2117.549853 0.9770 0.9770 0.9770 0.9770 0.9770
2121.808804 0.9766 0.9761 0.9749 0.9734 0.9719
2126.067755 0.9704 0.9697 0.9692 0.9690 0.9690
2130.326706 0.9690 0.9690 0.9693 0.9698 0.9697
2134.585657 0.9692 0.9687 0.9682 0.9680 0.9680
2138.844608 0.9673 0.9663 0.9660 0.9660 0.9660
2143.103559 0.9660 0.9660 0.9660 0.9660 0.9660
2147.362510 0.9660 0.9660 0.9660 0.9660 0.9660
2151.621461 0.9660 0.9666 0.9676 0.9683 0.9688
2155.880412 0.9690 0.9690 0.9690 0.9690 0.9693
2160.139363 0.9698 0.9700 0.9700 0.9694 0.9684
2164.398314 0.9680 0.9680 0.9683 0.9688 0.9693
2168.657265 0.9698 0.9700 0.9700 0.9706 0.9716
2172.916216 0.9720 0.9720 0.9720 0.9720 0.9720
