##TITLE=1,4-DIOXANE
##JCAMP-DX=4.24
##DATA TYPE=INFRARED SPECTRUM
##CLASS=COBLENTZ
##ORIGIN=DOW CHEMICAL COMPANY
##OWNER=COBLENTZ SOCIETY
Collection (C) 2018 copyright by the U.S. Secretary of Commerce
on behalf of the United States of America. All rights reserved.
##DATE=1979/03/30
##CAS REGISTRY NO=123-91-1
##MOLFORM=C4 H8 O2
##SOURCE REFERENCE=COBLENTZ NO. 10507
##$NIST SOURCE=COBLENTZ
##$NIST IMAGE=cob-r10507
##SPECTROMETER/DATA SYSTEM=BECKMAN IR-9 (GRATING)
##INSTRUMENT PARAMETERS=ORDER CHANGES: 670, 1200, 2000 CM^-^1
##STATE=GAS (8 mmHg, N2 ADDED, TOTAL PRESSURE 600 mmHg)
##PATH LENGTH=10 CM
##SAMPLING PROCEDURE=TRANSMISSION
##RESOLUTION=2
##DATA PROCESSING=DIGITIZED BY NIST FROM HARD COPY (FROM TWO SEGMENTS)
##XUNITS=1/CM
##YUNITS=TRANSMITTANCE
##XFACTOR=1.000000
##YFACTOR=1
##DELTAX=1.394945
##FIRSTX=211.683
##LASTX=3987.8
##FIRSTY=0
##MAXX=3987.8
##MINX=211.683
##MAXY=0.955
##MINY=0
##NPOINTS=2708
##XYDATA=(X++(Y..Y))
211.683000 0.0000 0.0000 0.0000 0.0000 0.0010
218.657723 0.0010 0.0010 0.0010 0.0010 0.0010
225.632447 0.0010 0.0010 0.0010 0.0010 0.0010
232.607170 0.0010 0.0010 0.0010 0.0010 0.0010
239.581893 0.0010 0.0000 0.0000 0.0010 0.0010
246.556617 0.0010 0.0010 0.0010 0.0010 0.0010
253.531340 0.0010 0.0010 0.0010 0.0010 0.0010
260.506063 0.0010 0.0030 0.0090 0.0110 0.0130
267.480787 0.0140 0.0140 0.0140 0.0140 0.0130
274.455510 0.0110 0.0070 0.0030 0.0010 0.0010
281.430233 0.0010 0.0010 0.0010 0.0010 0.0010
288.404957 0.0010 0.0010 0.0030 0.0030 0.0050
295.379680 0.0070 0.0030 0.0010 0.0010 0.0010
302.354403 0.0010 0.0030 0.0050 0.0070 0.0090
309.329127 0.0110 0.0110 0.0110 0.0130 0.0140
316.303850 0.0140 0.0160 0.0160 0.0160 0.0160
323.278573 0.0180 0.0180 0.0180 0.0200 0.0220
330.253297 0.0220 0.0240 0.0280 0.0290 0.0310
337.228020 0.0350 0.0370 0.0410 0.0430 0.0480
344.202743 0.0520 0.0580 0.0610 0.0670 0.0710
351.177467 0.0780 0.0890 0.0990 0.1060 0.1080
358.152190 0.1160 0.1289 0.1360 0.1459 0.1490
365.126913 0.1610 0.1720 0.1810 0.1910 0.2000
372.101637 0.2110 0.2150 0.2299 0.2390 0.2489
379.076360 0.2560 0.2670 0.2770 0.2860 0.2990
386.051084 0.3070 0.3180 0.3250 0.3379 0.3499
393.025807 0.3590 0.3680 0.3780 0.3850 0.3910
400.000530 0.4129 0.4259 0.4360 0.4410 0.4509
406.975254 0.4640 0.4730 0.4860 0.5010 0.5110
413.949977 0.5220 0.5330 0.5439 0.5559 0.5649
420.924700 0.5800 0.5880 0.6010 0.6040 0.6140
427.899424 0.6210 0.6320 0.6420 0.6509 0.6550
434.874147 0.6620 0.6700 0.6770 0.6850 0.6920
441.848870 0.7020 0.7050 0.7110 0.7190 0.7240
448.823594 0.7320 0.7410 0.7430 0.7490 0.7500
455.798317 0.7540 0.7600 0.7650 0.7690 0.7730
462.773040 0.7790 0.7820 0.7880 0.7920 0.8010
469.747764 0.8010 0.8030 0.8070 0.8120 0.8140
476.722487 0.8180 0.8220 0.8250 0.8270 0.8310
483.697210 0.8350 0.8380 0.8400 0.8420 0.8440
490.671934 0.8460 0.8480 0.8500 0.8520 0.8570
497.646657 0.8590 0.8530 0.8500 0.8500 0.8500
504.621380 0.8520 0.8530 0.8530 0.8590 0.8610
511.596104 0.8670 0.8700 0.8740 0.8780 0.8800
518.570827 0.8830 0.8850 0.8870 0.8870 0.8870
525.545550 0.8850 0.8830 0.8830 0.8820 0.8800
532.520274 0.8800 0.8780 0.8780 0.8780 0.8780
539.494997 0.8780 0.8800 0.8800 0.8820 0.8820
546.469720 0.8850 0.8890 0.8910 0.8930 0.8950
553.444444 0.9000 0.9000 0.9000 0.9000 0.9000
560.419167 0.8970 0.8950 0.8950 0.8930 0.8910
567.393890 0.8890 0.8870 0.8870 0.8850 0.8850
574.368614 0.8850 0.8830 0.8830 0.8830 0.8830
581.343337 0.8820 0.8820 0.8800 0.8780 0.8740
588.318060 0.8700 0.8650 0.8590 0.8530 0.8460
595.292784 0.8350 0.8161 0.7951 0.7841 0.7731
602.267507 0.7640 0.7520 0.7500 0.7350 0.7300
609.242230 0.7220 0.7170 0.7130 0.7110 0.7110
616.216954 0.7110 0.7130 0.7150 0.7170 0.7220
623.191677 0.7300 0.7350 0.7489 0.7540 0.7689
630.166400 0.7820 0.8010 0.8100 0.8230 0.8350
637.141124 0.8499 0.8590 0.8670 0.8779 0.8830
644.115847 0.8870 0.8870 0.8870 0.8890 0.8890
651.090570 0.9000 0.9129 0.9130 0.9150 0.9150
658.065294 0.9150 0.9150 0.9150 0.9150 0.9150
665.040017 0.9170 0.9280 0.9280 0.9191 0.9190
672.014740 0.9210 0.9230 0.9250 0.9250 0.9260
678.989464 0.9260 0.9280 0.9280 0.9280 0.9300
685.964187 0.9300 0.9300 0.9320 0.9320 0.9320
692.938911 0.9320 0.9320 0.9320 0.9320 0.9320
699.913634 0.9320 0.9340 0.9340 0.9340 0.9340
706.888357 0.9340 0.9360 0.9360 0.9360 0.9360
713.863081 0.9380 0.9380 0.9380 0.9380 0.9400
720.837804 0.9400 0.9400 0.9400 0.9400 0.9410
727.812527 0.9410 0.9430 0.9430 0.9430 0.9430
734.787251 0.9430 0.9410 0.9410 0.9400 0.9400
741.761974 0.9400 0.9400 0.9400 0.9400 0.9400
748.736697 0.9400 0.9400 0.9400 0.9410 0.9410
755.711421 0.9410 0.9410 0.9410 0.9410 0.9410
762.686144 0.9410 0.9410 0.9410 0.9410 0.9410
769.660867 0.9410 0.9410 0.9410 0.9410 0.9430
776.635591 0.9430 0.9430 0.9450 0.9450 0.9450
783.610314 0.9450 0.9450 0.9450 0.9450 0.9450
790.585037 0.9450 0.9430 0.9430 0.9430 0.9410
797.559761 0.9410 0.9410 0.9410 0.9410 0.9410
804.534484 0.9410 0.9430 0.9430 0.9430 0.9450
811.509207 0.9450 0.9450 0.9450 0.9450 0.9430
818.483931 0.9430 0.9430 0.9430 0.9430 0.9430
825.458654 0.9430 0.9430 0.9430 0.9430 0.9430
832.433377 0.9430 0.9410 0.9410 0.9410 0.9410
839.408101 0.9410 0.9410 0.9400 0.9400 0.9380
846.382824 0.9340 0.9320 0.9300 0.9280 0.9250
853.357547 0.9190 0.9110 0.9040 0.9000 0.8850
860.332271 0.8671 0.8521 0.8231 0.8011 0.7752
867.306994 0.7390 0.7070 0.6700 0.6251 0.5911
874.281717 0.5432 0.5161 0.4533 0.4023 0.3314
881.256441 0.2540 0.2150 0.1270 0.1270 0.2108
888.231164 0.2768 0.2770 0.2003 0.1811 0.1721
895.205887 0.1721 0.2730 0.4408 0.5758 0.6059
902.180611 0.6080 0.6678 0.7645 0.8078 0.8368
909.155334 0.8630 0.8800 0.8910 0.9020 0.9080
916.130057 0.9150 0.9190 0.9250 0.9280 0.9320
923.104781 0.9320 0.9340 0.9340 0.9360 0.9360
930.079504 0.9380 0.9380 0.9400 0.9400 0.9410
937.054227 0.9410 0.9410 0.9400 0.9400 0.9400
944.028951 0.9400 0.9400 0.9380 0.9380 0.9380
951.003674 0.9360 0.9360 0.9360 0.9360 0.9340
957.978397 0.9340 0.9340 0.9360 0.9360 0.9380
964.953121 0.9380 0.9380 0.9380 0.9380 0.9380
971.927844 0.9380 0.9380 0.9380 0.9360 0.9360
978.902567 0.9360 0.9360 0.9340 0.9340 0.9340
985.877291 0.9320 0.9320 0.9320 0.9320 0.9320
992.852014 0.9320 0.9320 0.9320 0.9320 0.9320
999.826738 0.9300 0.9300 0.9300 0.9300 0.9300
1006.801461 0.9280 0.9280 0.9280 0.9260 0.9260
1013.776184 0.9260 0.9250 0.9250 0.9230 0.9210
1020.750908 0.9190 0.9150 0.9130 0.9100 0.9060
1027.725631 0.9020 0.9000 0.8930 0.8870 0.8820
1034.700354 0.8740 0.8680 0.8590 0.8550 0.8500
1041.675078 0.8480 0.8440 0.8520 0.8520 0.8500
1048.649801 0.8380 0.7990 0.6791 0.8048 0.8080
1055.624524 0.8230 0.8569 0.8500 0.8251 0.8141
1062.599248 0.8030 0.8030 0.8120 0.8200 0.8250
1069.573971 0.8310 0.8290 0.8290 0.8220 0.8180
1076.548694 0.8140 0.8100 0.8070 0.8010 0.7990
1083.523418 0.7970 0.7940 0.7920 0.7821 0.7800
1090.498141 0.7750 0.7710 0.7670 0.7650 0.7640
1097.472864 0.7620 0.7600 0.7580 0.7540 0.7500
1104.447588 0.7500 0.7240 0.7040 0.6531 0.6041
1111.422311 0.5611 0.5052 0.4413 0.3982 0.3224
1118.397034 0.2670 0.2220 0.1830 0.1511 0.1400
1125.371758 0.1290 0.1121 0.1100 0.1010 0.0990
1132.346481 0.0990 0.1190 0.1190 0.0890 0.0890
1139.321204 0.1189 0.1320 0.1380 0.1400 0.1509
1146.295928 0.1810 0.2390 0.3009 0.3419 0.4108
1153.270651 0.4848 0.5756 0.6526 0.7107 0.7706
1160.245374 0.8100 0.8480 0.8700 0.8850 0.9000
1167.220098 0.9040 0.9130 0.9170 0.9190 0.9190
1174.194821 0.9170 0.9170 0.9170 0.9170 0.9170
1181.169544 0.9190 0.9230 0.9250 0.9250 0.9250
1188.144268 0.9250 0.9260 0.9260 0.9280 0.9280
1195.118991 0.9300 0.9300 0.9300 0.9300 0.9300
1202.093714 0.9300 0.9300 0.9300 0.9300 0.9300
1209.068438 0.9300 0.9300 0.9300 0.9300 0.9300
1216.043161 0.9280 0.9280 0.9280 0.9260 0.9260
1223.017884 0.9250 0.9210 0.9190 0.9130 0.9100
1229.992608 0.9040 0.8980 0.8820 0.8630 0.8460
1236.967331 0.8051 0.7641 0.7321 0.6962 0.6533
1243.942054 0.6210 0.6020 0.5800 0.5690 0.5670
1250.916778 0.5520 0.5480 0.5480 0.5739 0.5432
1257.891501 0.5011 0.5520 0.5520 0.5500 0.5500
1264.866224 0.5311 0.5459 0.5649 0.6118 0.6418
1271.840948 0.6830 0.7170 0.7500 0.7710 0.7939
1278.815671 0.8119 0.8220 0.8329 0.8330 0.8270
1285.790394 0.7989 0.7390 0.7390 0.7500 0.7600
1292.765118 0.7640 0.7650 0.7670 0.7968 0.8268
1299.739841 0.8290 0.8310 0.8350 0.8400 0.8440
1306.714564 0.8500 0.8520 0.8550 0.8590 0.8630
1313.689288 0.8680 0.8720 0.8780 0.8820 0.8850
1320.664011 0.8890 0.8930 0.8970 0.8970 0.8980
1327.638735 0.9000 0.9020 0.9020 0.9040 0.9060
1334.613458 0.9060 0.9040 0.9040 0.9020 0.9020
1341.588181 0.9020 0.9000 0.9000 0.8910 0.8870
1348.562905 0.8681 0.8501 0.8400 0.8221 0.8071
1355.537628 0.7970 0.7860 0.7750 0.7690 0.7640
1362.512351 0.7580 0.7560 0.7520 0.7520 0.7520
1369.487075 0.7500 0.7430 0.7300 0.7300 0.7410
1376.461798 0.7470 0.7560 0.7620 0.7789 0.7919
1383.436521 0.8080 0.8200 0.8330 0.8420 0.8500
1390.411245 0.8630 0.8700 0.8800 0.8830 0.8890
1397.385968 0.8910 0.9000 0.9000 0.9040 0.9080
1404.360691 0.9080 0.9100 0.9100 0.9110 0.9130
1411.335415 0.9150 0.9170 0.9170 0.9150 0.9130
1418.310138 0.9110 0.9110 0.9110 0.9110 0.9110
1425.284861 0.9110 0.9100 0.9060 0.9000 0.9000
1432.259585 0.8910 0.8830 0.8780 0.8720 0.8591
1439.234308 0.8520 0.8380 0.8350 0.8290 0.8230
1446.209031 0.8200 0.8200 0.7971 0.7393 0.7390
1453.183755 0.7840 0.8070 0.8070 0.7800 0.7491
1460.158478 0.6892 0.7199 0.7618 0.7749 0.7790
1467.133201 0.7860 0.7900 0.7920 0.8010 0.8050
1474.107925 0.8080 0.8100 0.8200 0.8309 0.8519
1481.082648 0.8650 0.8760 0.8800 0.8870 0.8950
1488.057371 0.9000 0.9000 0.9000 0.9020 0.9100
1495.032095 0.9130 0.9130 0.9130 0.9150 0.9170
1502.006818 0.9170 0.9230 0.9210 0.9190 0.9081
1508.981541 0.9060 0.9100 0.9110 0.9190 0.9210
1515.956265 0.9210 0.9190 0.9150 0.9130 0.9110
1522.930988 0.9110 0.9110 0.9130 0.9150 0.9190
1529.905711 0.9190 0.9190 0.9190 0.9210 0.9210
1536.880435 0.9210 0.9210 0.9150 0.9110 0.9100
1543.855158 0.9110 0.9110 0.9130 0.9150 0.9190
1550.829881 0.9210 0.9230 0.9210 0.9210 0.9170
1557.804605 0.9130 0.9110 0.9100 0.9100 0.9130
1564.779328 0.9190 0.9210 0.9230 0.9210 0.9210
1571.754051 0.9210 0.9190 0.9190 0.9170 0.9150
1578.728775 0.9150 0.9170 0.9190 0.9230 0.9230
1585.703498 0.9250 0.9250 0.9230 0.9230 0.9230
1592.678221 0.9230 0.9250 0.9250 0.9230 0.9230
1599.652945 0.9230 0.9230 0.9230 0.9250 0.9250
1606.627668 0.9250 0.9230 0.9230 0.9230 0.9230
1613.602391 0.9210 0.9190 0.9190 0.9190 0.9190
1620.577115 0.9190 0.9190 0.9170 0.9170 0.9170
1627.551838 0.9190 0.9210 0.9210 0.9230 0.9210
1634.526562 0.9190 0.9150 0.9130 0.9130 0.9190
1641.501285 0.9230 0.9230 0.9210 0.9210 0.9190
1648.476008 0.9190 0.9170 0.9150 0.9110 0.9080
1655.450732 0.9080 0.9150 0.9170 0.9210 0.9230
1662.425455 0.9210 0.9210 0.9210 0.9210 0.9190
1669.400178 0.9150 0.9150 0.9150 0.9170 0.9170
1676.374902 0.9170 0.9190 0.9210 0.9190 0.9170
1683.349625 0.9130 0.9110 0.9130 0.9130 0.9170
1690.324348 0.9210 0.9230 0.9230 0.9190 0.9190
1697.299072 0.9150 0.9110 0.9100 0.9040 0.9040
1704.273795 0.9100 0.9130 0.9150 0.9150 0.9170
1711.248518 0.9170 0.9150 0.9130 0.9100 0.9040
1718.223242 0.9020 0.9020 0.9040 0.9060 0.9080
1725.197965 0.9080 0.9080 0.9080 0.9060 0.9040
1732.172688 0.9020 0.9020 0.9020 0.9040 0.9040
1739.147412 0.9040 0.9040 0.9040 0.9060 0.9080
1746.122135 0.9110 0.9110 0.9110 0.9130 0.9130
1753.096858 0.9150 0.9150 0.9150 0.9150 0.9170
1760.071582 0.9190 0.9210 0.9230 0.9250 0.9250
1767.046305 0.9230 0.9210 0.9170 0.9170 0.9150
1774.021028 0.9170 0.9210 0.9210 0.9230 0.9250
1780.995752 0.9250 0.9250 0.9250 0.9250 0.9250
1787.970475 0.9230 0.9210 0.9190 0.9190 0.9210
1794.945198 0.9210 0.9210 0.9210 0.9210 0.9230
1801.919922 0.9230 0.9230 0.9250 0.9250 0.9250
1808.894645 0.9250 0.9250 0.9250 0.9260 0.9280
1815.869368 0.9280 0.9280 0.9280 0.9280 0.9250
1822.844092 0.9250 0.9230 0.9230 0.9230 0.9230
1829.818815 0.9250 0.9250 0.9280 0.9280 0.9280
1836.793538 0.9260 0.9250 0.9230 0.9230 0.9230
1843.768262 0.9230 0.9230 0.9230 0.9260 0.9260
1850.742985 0.9260 0.9260 0.9260 0.9260 0.9260
1857.717708 0.9250 0.9250 0.9250 0.9250 0.9230
1864.692432 0.9210 0.9210 0.9210 0.9230 0.9250
1871.667155 0.9250 0.9250 0.9250 0.9250 0.9250
1878.641878 0.9250 0.9250 0.9250 0.9230 0.9230
1885.616602 0.9230 0.9190 0.9170 0.9150 0.9130
1892.591325 0.9130 0.9130 0.9110 0.9100 0.9100
1899.566048 0.9080 0.9080 0.9080 0.9080 0.9100
1906.540772 0.9100 0.9130 0.9130 0.9130 0.9150
1913.515495 0.9150 0.9150 0.9150 0.9170 0.9190
1920.490218 0.9210 0.9210 0.9210 0.9210 0.9210
1927.464942 0.9210 0.9210 0.9230 0.9230 0.9250
1934.439665 0.9250 0.9250 0.9250 0.9250 0.9230
1941.414389 0.9230 0.9230 0.9210 0.9210 0.9190
1948.389112 0.9170 0.9150 0.9130 0.9130 0.9100
1955.363835 0.9080 0.9040 0.9020 0.9020 0.9000
1962.338559 0.9000 0.8950 0.8930 0.8930 0.8910
1969.313282 0.8890 0.8870 0.8850 0.8830 0.8830
1976.288005 0.8820 0.8820 0.8820 0.8820 0.8820
1983.262729 0.8820 0.8800 0.8800 0.8780 0.8740
1990.237452 0.8740 0.8720 0.8740 0.8780 0.8820
1997.212175 0.8820 0.8700 0.8700 0.8720 0.8740
2004.186899 0.8833 0.8928 0.8974 0.9018 0.9030
2011.161622 0.9039 0.9059 0.9079 0.9094 0.9109
2018.136345 0.9128 0.9148 0.9168 0.9188 0.9199
2025.111069 0.9209 0.9219 0.9229 0.9239 0.9249
2032.085792 0.9254 0.9259 0.9260 0.9260 0.9260
2039.060515 0.9260 0.9260 0.9260 0.9268 0.9278
2046.035239 0.9280 0.9280 0.9272 0.9262 0.9256
2053.009962 0.9251 0.9250 0.9250 0.9242 0.9232
2059.984685 0.9222 0.9212 0.9210 0.9210 0.9210
2066.959409 0.9210 0.9203 0.9193 0.9190 0.9190
2073.934132 0.9190 0.9190 0.9190 0.9190 0.9190
2080.908855 0.9190 0.9190 0.9190 0.9197 0.9207
2087.883579 0.9210 0.9210 0.9216 0.9226 0.9230
2094.858302 0.9230 0.9230 0.9230 0.9236 0.9246
2101.833025 0.9250 0.9250 0.9250 0.9250 0.9250
2108.807749 0.9250 0.9250 0.9250 0.9250 0.9250
2115.782472 0.9250 0.9250 0.9245 0.9235 0.9230
2122.757195 0.9230 0.9225 0.9215 0.9210 0.9210
2129.731919 0.9205 0.9195 0.9190 0.9190 0.9185
2136.706642 0.9176 0.9170 0.9170 0.9170 0.9170
2143.681365 0.9170 0.9170 0.9170 0.9170 0.9170
2150.656089 0.9170 0.9174 0.9184 0.9194 0.9204
2157.630812 0.9214 0.9224 0.9234 0.9244 0.9247
2164.605535 0.9237 0.9227 0.9217 0.9207 0.9197
2171.580259 0.9187 0.9177 0.9170 0.9170 0.9170
2178.554982 0.9170 0.9170 0.9170 0.9173 0.9183
2185.529705 0.9190 0.9190 0.9193 0.9202 0.9210
2192.504429 0.9210 0.9210 0.9210 0.9210 0.9210
2199.479152 0.9210 0.9210 0.9210 0.9210 0.9210
2206.453875 0.9210 0.9210 0.9210 0.9210 0.9210
2213.428599 0.9210 0.9210 0.9210 0.9210 0.9209
2220.403322 0.9199 0.9190 0.9190 0.9190 0.9190
2227.378045 0.9190 0.9190 0.9190 0.9190 0.9190
2234.352769 0.9190 0.9189 0.9179 0.9170 0.9170
2241.327492 0.9170 0.9170 0.9170 0.9170 0.9170
2248.302215 0.9160 0.9150 0.9140 0.9130 0.9130
2255.276939 0.9130 0.9120 0.9110 0.9105 0.9100
2262.251662 0.9090 0.9080 0.9070 0.9060 0.9060
2269.226386 0.9060 0.9051 0.9041 0.9040 0.9040
2276.201109 0.9049 0.9059 0.9069 0.9079 0.9089
2283.175832 0.9099 0.9113 0.9128 0.9156 0.9186
2290.150556 0.9199 0.9209 0.9219 0.9228 0.9243
2297.125279 0.9258 0.9268 0.9278 0.9313 0.9352
2304.100002 0.9376 0.9396 0.9400 0.9400 0.9412
2311.074726 0.9427 0.9454 0.9483 0.9498 0.9508
2318.049449 0.9518 0.9528 0.9537 0.9547 0.9550
2325.024172 0.9550 0.9550 0.9550 0.9550 0.9550
2331.998896 0.9550 0.9550 0.9550 0.9550 0.9550
2338.973619 0.9550 0.9550 0.9550 0.9550 0.9550
2345.948342 0.9550 0.9550 0.9544 0.9534 0.9530
2352.923066 0.9530 0.9530 0.9530 0.9524 0.9514
2359.897789 0.9504 0.9494 0.9478 0.9458 0.9444
2366.872512 0.9434 0.9416 0.9391 0.9369 0.9349
2373.847236 0.9329 0.9309 0.9295 0.9285 0.9257
2380.821959 0.9212 0.9185 0.9175 0.9170 0.9170
2387.796682 0.9170 0.9170 0.9170 0.9170 0.9170
2394.771406 0.9170 0.9175 0.9185 0.9190 0.9190
2401.746129 0.9190 0.9190 0.9190 0.9190 0.9190
2408.720852 0.9190 0.9194 0.9204 0.9210 0.9210
2415.695576 0.9210 0.9210 0.9210 0.9210 0.9214
2422.670299 0.9224 0.9234 0.9243 0.9250 0.9250
2429.645022 0.9252 0.9257 0.9260 0.9260 0.9260
2436.619746 0.9260 0.9260 0.9260 0.9260 0.9260
2443.594469 0.9260 0.9260 0.9260 0.9260 0.9259
2450.569192 0.9254 0.9248 0.9238 0.9230 0.9230
2457.543916 0.9228 0.9218 0.9210 0.9210 0.9210
2464.518639 0.9210 0.9210 0.9210 0.9210 0.9210
2471.493362 0.9210 0.9210 0.9210 0.9210 0.9210
2478.468086 0.9210 0.9210 0.9210 0.9210 0.9210
2485.442809 0.9210 0.9210 0.9211 0.9221 0.9230
2492.417532 0.9230 0.9230 0.9230 0.9230 0.9230
2499.392256 0.9230 0.9240 0.9250 0.9250 0.9250
2506.366979 0.9255 0.9260 0.9270 0.9280 0.9280
2513.341702 0.9280 0.9280 0.9280 0.9280 0.9280
2520.316426 0.9280 0.9280 0.9280 0.9280 0.9280
2527.291149 0.9280 0.9289 0.9299 0.9300 0.9300
2534.265872 0.9291 0.9281 0.9280 0.9280 0.9280
2541.240596 0.9280 0.9280 0.9280 0.9280 0.9280
2548.215319 0.9280 0.9280 0.9272 0.9262 0.9256
2555.190042 0.9251 0.9250 0.9250 0.9242 0.9232
2562.164766 0.9222 0.9212 0.9194 0.9174 0.9162
2569.139489 0.9152 0.9134 0.9115 0.9110 0.9110
2576.114213 0.9118 0.9127 0.9130 0.9130 0.9137
2583.088936 0.9147 0.9157 0.9167 0.9170 0.9170
2590.063659 0.9177 0.9187 0.9190 0.9190 0.9190
2597.038383 0.9190 0.9203 0.9223 0.9237 0.9247
2604.013106 0.9253 0.9258 0.9266 0.9276 0.9280
2610.987829 0.9280 0.9280 0.9280 0.9280 0.9280
2617.962553 0.9280 0.9280 0.9280 0.9280 0.9280
2624.937276 0.9280 0.9280 0.9280 0.9280 0.9280
2631.911999 0.9280 0.9280 0.9275 0.9265 0.9252
2638.886723 0.9237 0.9230 0.9230 0.9225 0.9215
2645.861446 0.9210 0.9210 0.9200 0.9180 0.9161
2652.836169 0.9141 0.9125 0.9115 0.9094 0.9060
2659.810893 0.9036 0.9026 0.9016 0.9006 0.8996
2666.785616 0.8986 0.8959 0.8904 0.8857 0.8821
2673.760339 0.8784 0.8745 0.8711 0.8686 0.8648
2680.735063 0.8589 0.8512 0.8402 0.8320 0.8290
2687.709786 0.8273 0.8283 0.8296 0.8316 0.8336
2694.684509 0.8356 0.8377 0.8402 0.8431 0.8471
2701.659233 0.8507 0.8532 0.8558 0.8588 0.8621
2708.633956 0.8666 0.8716 0.8780 0.8839 0.8879
2715.608679 0.8918 0.8952 0.8977 0.8962 0.8944
2722.583403 0.8915 0.8888 0.8878 0.8864 0.8829
2729.558126 0.8793 0.8753 0.8713 0.8668 0.8627
2736.532849 0.8607 0.8585 0.8551 0.8505 0.8381
2743.507573 0.8260 0.8166 0.8079 0.8064 0.8051
2750.482296 0.8066 0.8083 0.8133 0.8184 0.8270
2757.457019 0.8351 0.8361 0.8371 0.8386 0.8400
2764.431743 0.8410 0.8422 0.8517 0.8611 0.8665
2771.406466 0.8720 0.8784 0.8849 0.8879 0.8909
2778.381189 0.8953 0.8998 0.9038 0.9078 0.9080
2785.355913 0.9080 0.9070 0.9061 0.9060 0.9060
2792.330636 0.9060 0.9060 0.9069 0.9079 0.9062
2799.305359 0.9042 0.9013 0.8984 0.8967 0.8952
2806.280083 0.8894 0.8830 0.8786 0.8747 0.8702
2813.254806 0.8657 0.8608 0.8558 0.8450 0.8331
2820.229529 0.8257 0.8192 0.8164 0.8144 0.8116
2827.204253 0.8087 0.8002 0.7903 0.7731 0.7538
2834.178976 0.7265 0.6967 0.6475 0.5913 0.5431
2841.153699 0.4977 0.4558 0.4151 0.3715 0.3268
2848.128423 0.3126 0.3106 0.3048 0.2973 0.2940
2855.103146 0.2925 0.2920 0.2920 0.2298 0.1355
2862.077869 0.1020 0.1020 0.1616 0.2559 0.3060
2869.052593 0.3287 0.3411 0.3475 0.3540 0.3605
2876.027316 0.3735 0.3909 0.4206 0.4589 0.5149
2883.002039 0.5839 0.6171 0.6225 0.6250 0.6250
2889.976763 0.5730 0.4762 0.4300 0.4300 0.4662
2896.951486 0.5372 0.5715 0.5725 0.5695 0.5625
2903.926210 0.5494 0.5300 0.5195 0.5185 0.5175
2910.900933 0.5165 0.5155 0.5146 0.5006 0.4703
2917.875656 0.4630 0.4863 0.5183 0.5625 0.5924
2924.850380 0.6010 0.6095 0.6179 0.6252 0.6307
2931.825103 0.6394 0.6533 0.6711 0.6954 0.7110
2938.799826 0.7110 0.7095 0.7050 0.6927 0.6649
2945.774550 0.6301 0.5805 0.5301 0.4779 0.4242
2952.749273 0.3668 0.3171 0.2848 0.2558 0.2344
2959.723996 0.2132 0.1923 0.1721 0.1538 0.1400
2966.698720 0.1400 0.1444 0.1627 0.1772 0.1782
2973.673443 0.1792 0.1802 0.1831 0.1935 0.2145
2980.648166 0.2830 0.3535 0.4320 0.5094 0.5819
2987.622890 0.6509 0.7030 0.7529 0.7907 0.8244
2994.597613 0.8338 0.8459 0.8757 0.9021 0.9031
3001.572336 0.9041 0.9051 0.9063 0.9098 0.9130
3008.547060 0.9130 0.9131 0.9141 0.9150 0.9150
3015.521783 0.9151 0.9161 0.9170 0.9180 0.9190
3022.496506 0.9190 0.9190 0.9200 0.9210 0.9210
3029.471230 0.9210 0.9210 0.9210 0.9210 0.9210
3036.445953 0.9210 0.9210 0.9220 0.9230 0.9230
3043.420676 0.9230 0.9230 0.9230 0.9230 0.9230
