##TITLE=BUTANOL, 3-METHYL-
##JCAMP-DX=4.24
##DATA TYPE=INFRARED SPECTRUM
##CLASS=COBLENTZ III
##ORIGIN=US INDUSTRIAL CHEMICALS COMPANY, CINCINNATI, OHIO
##OWNER=COBLENTZ SOCIETY
Collection (C) 2018 copyright by the U.S. Secretary of Commerce
on behalf of the United States of America. All rights reserved.
##DATE=Not specified, most likely prior to 1970
##NAMES=3-methyl-1-butanol
3-METHYL-1-BUTANOL
##CAS REGISTRY NO=123-51-3
##MOLFORM=C5 H12 O
##SOURCE REFERENCE=COBLENTZ NO. 2105
##$NIST SOURCE=COBLENTZ
##$NIST IMAGE=cob2105
##SPECTROMETER/DATA SYSTEM=PERKIN-ELMER 421 (GRATING)
##STATE=LIQUID (NEAT)
$$ PURITY - 99%
##PATH LENGTH=0.0007 CM CELL
##SAMPLING PROCEDURE=TRANSMISSION
##RESOLUTION=4
##DATA PROCESSING=DIGITIZED BY NIST FROM HARD COPY (FROM TWO SEGMENTS)
##XUNITS=1/CM
##YUNITS=TRANSMITTANCE
##XFACTOR=1.000000
##YFACTOR=1
##DELTAX=0.713923
##FIRSTX=602.856
##LASTX=3993.99
##FIRSTY=0.652
##MAXX=3993.99
##MINX=602.856
##MAXY=0.897
##MINY=0.0451302
##NPOINTS=4751
##XYDATA=(X++(Y..Y))
602.856000 0.6520 0.6520 0.6520 0.6510 0.6510
606.425614 0.6510 0.6510 0.6510 0.6510 0.6490
609.995228 0.6510 0.6510 0.6510 0.6510 0.6510
613.564843 0.6510 0.6490 0.6490 0.6480 0.6490
617.134457 0.6510 0.6490 0.6490 0.6490 0.6490
620.704071 0.6490 0.6490 0.6490 0.6490 0.6490
624.273685 0.6490 0.6490 0.6490 0.6490 0.6490
627.843300 0.6490 0.6510 0.6510 0.6510 0.6510
631.412914 0.6490 0.6490 0.6490 0.6490 0.6510
634.982528 0.6510 0.6510 0.6520 0.6520 0.6520
638.552142 0.6530 0.6530 0.6530 0.6530 0.6550
642.121756 0.6550 0.6560 0.6560 0.6560 0.6560
645.691371 0.6560 0.6560 0.6580 0.6580 0.6580
649.260985 0.6590 0.6590 0.6590 0.6590 0.6600
652.830599 0.6600 0.6600 0.6600 0.6600 0.6600
656.400213 0.6600 0.6600 0.6620 0.6620 0.6620
659.969827 0.6620 0.6630 0.6630 0.6630 0.6650
663.539442 0.6650 0.6660 0.6680 0.6690 0.6690
667.109056 0.6700 0.6700 0.6700 0.6700 0.6700
670.678670 0.6700 0.6720 0.6720 0.6720 0.6720
674.248284 0.6730 0.6730 0.6730 0.6730 0.6750
677.817899 0.6750 0.6760 0.6760 0.6760 0.6780
681.387513 0.6780 0.6790 0.6790 0.6790 0.6790
684.957127 0.6800 0.6800 0.6820 0.6800 0.6800
688.526741 0.6800 0.6800 0.6820 0.6820 0.6820
692.096355 0.6830 0.6830 0.6830 0.6850 0.6860
695.665970 0.6860 0.6870 0.6870 0.6900 0.6900
699.235584 0.6920 0.6920 0.6930 0.6930 0.6950
702.805198 0.6950 0.6960 0.6960 0.6960 0.6960
706.374812 0.6970 0.6970 0.6970 0.6990 0.6990
709.944427 0.7000 0.7020 0.7030 0.7040 0.7060
713.514041 0.7070 0.7070 0.7090 0.7090 0.7090
717.083655 0.7090 0.7090 0.7090 0.7100 0.7100
720.653269 0.7100 0.7100 0.7100 0.7100 0.7120
724.222883 0.7120 0.7130 0.7130 0.7140 0.7140
727.792498 0.7160 0.7170 0.7190 0.7190 0.7200
731.362112 0.7230 0.7240 0.7240 0.7260 0.7260
734.931726 0.7260 0.7260 0.7260 0.7270 0.7290
738.501340 0.7270 0.7290 0.7290 0.7290 0.7290
742.070955 0.7290 0.7290 0.7290 0.7290 0.7290
745.640569 0.7290 0.7290 0.7290 0.7290 0.7270
749.210183 0.7270 0.7270 0.7270 0.7260 0.7260
752.779797 0.7240 0.7240 0.7210 0.7210 0.7200
756.349411 0.7170 0.7160 0.7140 0.7130 0.7130
759.919026 0.7120 0.7120 0.7120 0.7120 0.7130
763.488640 0.7130 0.7130 0.7140 0.7160 0.7170
767.058254 0.7190 0.7200 0.7210 0.7230 0.7240
770.627868 0.7260 0.7270 0.7300 0.7340 0.7390
774.197482 0.7400 0.7410 0.7430 0.7440 0.7470
777.767097 0.7480 0.7510 0.7540 0.7560 0.7580
781.336711 0.7600 0.7630 0.7650 0.7670 0.7680
784.906325 0.7680 0.7700 0.7710 0.7710 0.7730
788.475939 0.7730 0.7740 0.7740 0.7740 0.7740
792.045554 0.7740 0.7740 0.7740 0.7740 0.7740
795.615168 0.7750 0.7750 0.7750 0.7770 0.7770
799.184782 0.7770 0.7780 0.7780 0.7780 0.7800
802.754396 0.7800 0.7810 0.7810 0.7810 0.7810
806.324010 0.7820 0.7820 0.7820 0.7820 0.7820
809.893625 0.7820 0.7820 0.7810 0.7800 0.7800
813.463239 0.7780 0.7780 0.7770 0.7750 0.7750
817.032853 0.7740 0.7730 0.7700 0.7680 0.7670
820.602467 0.7640 0.7610 0.7580 0.7560 0.7500
824.172082 0.7460 0.7430 0.7400 0.7390 0.7360
827.741696 0.7340 0.7310 0.7300 0.7290 0.7270
831.311310 0.7260 0.7260 0.7260 0.7270 0.7290
834.880924 0.7300 0.7310 0.7400 0.7430 0.7480
838.450538 0.7540 0.7600 0.7640 0.7780 0.7810
842.020153 0.7850 0.7920 0.7950 0.7970 0.7980
845.589767 0.8010 0.8050 0.8080 0.8110 0.8120
849.159381 0.8120 0.8150 0.8170 0.8170 0.8190
852.728995 0.8190 0.8210 0.8210 0.8210 0.8220
856.298610 0.8220 0.8220 0.8240 0.8240 0.8240
859.868224 0.8240 0.8240 0.8240 0.8240 0.8240
863.437838 0.8240 0.8240 0.8240 0.8240 0.8240
867.007452 0.8240 0.8240 0.8240 0.8240 0.8240
870.577066 0.8240 0.8240 0.8240 0.8240 0.8240
874.146681 0.8220 0.8220 0.8220 0.8210 0.8210
877.716295 0.8210 0.8210 0.8190 0.8190 0.8180
881.285909 0.8180 0.8180 0.8170 0.8150 0.8150
884.855523 0.8120 0.8120 0.8110 0.8080 0.8070
888.425137 0.8040 0.8020 0.8020 0.8000 0.7980
891.994752 0.7950 0.7940 0.7940 0.7940 0.7920
895.564366 0.7920 0.7910 0.7910 0.7900 0.7900
899.133980 0.7900 0.7900 0.7900 0.7910 0.7920
902.703594 0.7940 0.7940 0.7970 0.7970 0.7980
906.273209 0.8000 0.8000 0.8010 0.8010 0.8010
909.842823 0.8020 0.8020 0.8020 0.8020 0.8020
913.412437 0.8020 0.8010 0.8010 0.8010 0.8010
916.982051 0.8010 0.8010 0.8020 0.8020 0.8040
920.551665 0.8040 0.8050 0.8070 0.8070 0.8050
924.121280 0.8050 0.8050 0.8020 0.8010 0.8000
927.690894 0.7970 0.7950 0.7940 0.7940 0.7920
931.260508 0.7900 0.7870 0.7850 0.7820 0.7810
934.830122 0.7800 0.7780 0.7770 0.7770 0.7770
938.399737 0.7770 0.7780 0.7780 0.7780 0.7770
941.969351 0.7750 0.7750 0.7750 0.7740 0.7740
945.538965 0.7700 0.7670 0.7610 0.7570 0.7480
949.108579 0.7400 0.7390 0.7310 0.7260 0.7160
952.678193 0.7090 0.7060 0.7030 0.6990 0.6960
956.247808 0.6900 0.6870 0.6790 0.6750 0.6680
959.817422 0.6579 0.6310 0.6210 0.6070 0.5820
963.387036 0.5750 0.5650 0.5630 0.5630 0.5650
966.956650 0.5740 0.5820 0.5900 0.6280 0.6360
970.526265 0.6560 0.6620 0.6700 0.6720 0.6720
974.095879 0.6720 0.6720 0.6720 0.6690 0.6690
977.665493 0.6690 0.6690 0.6690 0.6680 0.6680
981.235107 0.6660 0.6630 0.6620 0.6590 0.6560
984.804721 0.6530 0.6510 0.6480 0.6450 0.6410
988.374336 0.6340 0.6320 0.6290 0.6290 0.6260
991.943950 0.6190 0.6140 0.6080 0.6040 0.5980
995.513564 0.5940 0.5880 0.5800 0.5650 0.5560
999.083178 0.5460 0.5360 0.5260 0.5210 0.5130
1002.652792 0.4870 0.4590 0.4360 0.4220 0.4090
1006.222407 0.4010 0.3900 0.3840 0.3770 0.3750
1009.792021 0.3740 0.3740 0.3750 0.3780 0.3810
1013.361635 0.3900 0.3920 0.4000 0.4080 0.4180
1016.931249 0.4210 0.4390 0.4590 0.4760 0.4950
1020.500864 0.5100 0.5330 0.5600 0.5770 0.5900
1024.070478 0.5920 0.5940 0.5940 0.5920 0.5880
1027.640092 0.5820 0.5780 0.5710 0.5610 0.5570
1031.209706 0.5510 0.5440 0.5300 0.5130 0.5000
1034.779320 0.4900 0.4760 0.4590 0.4430 0.4191
1038.348935 0.3850 0.3560 0.3330 0.3260 0.3170
1041.918549 0.3000 0.2860 0.2730 0.2660 0.2620
1045.488163 0.2560 0.2460 0.2380 0.2350 0.2260
1049.057777 0.2240 0.2170 0.2150 0.2140 0.2140
1052.627392 0.2120 0.2120 0.2140 0.2140 0.2150
1056.197006 0.2150 0.2170 0.2180 0.2250 0.2290
1059.766620 0.2360 0.2450 0.2510 0.2530 0.2620
1063.336234 0.2700 0.2830 0.2960 0.2990 0.3120
1066.905848 0.3270 0.3360 0.3610 0.3810 0.3970
1070.475463 0.4140 0.4310 0.4529 0.4600 0.4919
1074.045077 0.5121 0.5740 0.5900 0.6020 0.6180
1077.614691 0.6350 0.6630 0.6870 0.7040 0.7130
1081.184305 0.7130 0.7230 0.7260 0.7360 0.7430
1084.753919 0.7540 0.7600 0.7640 0.7650 0.7670
1088.323534 0.7670 0.7680 0.7710 0.7710 0.7700
1091.893148 0.7700 0.7700 0.7700 0.7700 0.7700
1095.462762 0.7680 0.7670 0.7650 0.7630 0.7610
1099.032376 0.7600 0.7570 0.7570 0.7560 0.7540
1102.601991 0.7500 0.7470 0.7440 0.7340 0.7240
1106.171605 0.7190 0.7170 0.7070 0.7060 0.7040
1109.741219 0.6930 0.6920 0.6870 0.6850 0.6800
1113.310833 0.6790 0.6750 0.6700 0.6680 0.6650
1116.880447 0.6630 0.6620 0.6600 0.6590 0.6580
1120.450062 0.6580 0.6580 0.6560 0.6560 0.6560
1124.019676 0.6580 0.6590 0.6600 0.6620 0.6630
1127.589290 0.6660 0.6690 0.6720 0.6730 0.6790
1131.158904 0.6850 0.6870 0.6900 0.6920 0.7030
1134.728519 0.7040 0.7070 0.7130 0.7170 0.7200
1138.298133 0.7230 0.7240 0.7290 0.7360 0.7390
1141.867747 0.7400 0.7430 0.7470 0.7500 0.7560
1145.437361 0.7580 0.7630 0.7650 0.7670 0.7710
1149.006975 0.7730 0.7730 0.7730 0.7740 0.7740
1152.576590 0.7740 0.7740 0.7740 0.7740 0.7730
1156.146204 0.7710 0.7710 0.7710 0.7700 0.7680
1159.715818 0.7640 0.7630 0.7600 0.7580 0.7560
1163.285432 0.7540 0.7530 0.7480 0.7440 0.7400
1166.855047 0.7370 0.7360 0.7340 0.7340 0.7340
1170.424661 0.7360 0.7390 0.7400 0.7460 0.7480
1173.994275 0.7530 0.7570 0.7640 0.7780 0.7820
1177.563889 0.7880 0.7910 0.7950 0.8000 0.8010
1181.133503 0.8010 0.8020 0.8020 0.8020 0.8020
1184.703118 0.8020 0.8020 0.8020 0.8010 0.8010
1188.272732 0.8000 0.8000 0.7970 0.7970 0.7950
1191.842346 0.7950 0.7940 0.7940 0.7920 0.7910
1195.411960 0.7910 0.7900 0.7880 0.7840 0.7810
1198.981574 0.7770 0.7750 0.7740 0.7730 0.7710
1202.551189 0.7710 0.7680 0.7640 0.7600 0.7540
1206.120803 0.7500 0.7470 0.7440 0.7410 0.7400
1209.690417 0.7390 0.7370 0.7360 0.7360 0.7340
1213.260031 0.7340 0.7360 0.7360 0.7370 0.7370
1216.829646 0.7360 0.7360 0.7360 0.7360 0.7360
1220.399260 0.7370 0.7370 0.7370 0.7370 0.7370
1223.968874 0.7370 0.7390 0.7390 0.7390 0.7390
1227.538488 0.7390 0.7400 0.7410 0.7430 0.7440
1231.108102 0.7440 0.7470 0.7470 0.7480 0.7500
1234.677717 0.7510 0.7540 0.7560 0.7560 0.7560
1238.247331 0.7570 0.7570 0.7570 0.7580 0.7580
1241.816945 0.7580 0.7580 0.7580 0.7580 0.7580
1245.386559 0.7580 0.7570 0.7570 0.7570 0.7560
1248.956174 0.7560 0.7540 0.7540 0.7540 0.7540
1252.525788 0.7540 0.7540 0.7540 0.7560 0.7560
1256.095402 0.7560 0.7560 0.7560 0.7540 0.7540
1259.665016 0.7540 0.7540 0.7540 0.7540 0.7540
1263.234630 0.7530 0.7530 0.7530 0.7530 0.7540
1266.804245 0.7540 0.7540 0.7560 0.7570 0.7570
1270.373859 0.7580 0.7580 0.7580 0.7600 0.7600
1273.943473 0.7600 0.7600 0.7600 0.7580 0.7580
1277.513087 0.7580 0.7580 0.7580 0.7580 0.7570
1281.082702 0.7540 0.7540 0.7530 0.7530 0.7510
1284.652316 0.7500 0.7480 0.7480 0.7470 0.7460
1288.221930 0.7460 0.7440 0.7430 0.7400 0.7390
1291.791544 0.7370 0.7340 0.7330 0.7300 0.7270
1295.361158 0.7260 0.7260 0.7240 0.7240 0.7230
1298.930773 0.7210 0.7210 0.7200 0.7190 0.7170
1302.500387 0.7160 0.7140 0.7140 0.7120 0.7090
1306.070001 0.7070 0.7060 0.7060 0.7040 0.7040
1309.639615 0.7030 0.7020 0.6990 0.6960 0.6950
1313.209229 0.6930 0.6920 0.6900 0.6890 0.6870
1316.778844 0.6870 0.6860 0.6830 0.6820 0.6820
1320.348458 0.6800 0.6800 0.6800 0.6820 0.6800
1323.918072 0.6800 0.6800 0.6790 0.6790 0.6790
1327.487686 0.6780 0.6780 0.6780 0.6760 0.6750
1331.057301 0.6750 0.6730 0.6730 0.6730 0.6720
1334.626915 0.6720 0.6700 0.6700 0.6690 0.6690
1338.196529 0.6680 0.6680 0.6660 0.6650 0.6650
1341.766143 0.6630 0.6600 0.6590 0.6560 0.6550
1345.335757 0.6530 0.6510 0.6510 0.6490 0.6480
1348.905372 0.6430 0.6420 0.6390 0.6340 0.6290
1352.474986 0.6260 0.6240 0.6190 0.6150 0.6120
1356.044600 0.6090 0.6070 0.6050 0.6010 0.5970
1359.614214 0.5870 0.5810 0.5710 0.5570 0.5500
1363.183829 0.5430 0.5300 0.5140 0.5070 0.4970
1366.753443 0.4900 0.4850 0.4850 0.4920 0.5030
1370.323057 0.5210 0.5310 0.5340 0.5360 0.5360
1373.892671 0.5340 0.5300 0.5260 0.5210 0.5200
1377.462285 0.5190 0.5130 0.5040 0.4970 0.4920
1381.031900 0.4870 0.4850 0.4820 0.4820 0.4800
1384.601514 0.4800 0.4800 0.4820 0.4850 0.4970
1388.171128 0.5510 0.5640 0.5820 0.5950 0.6010
1391.740742 0.6120 0.6180 0.6250 0.6280 0.6290
1395.310357 0.6340 0.6340 0.6340 0.6350 0.6350
1398.879971 0.6350 0.6350 0.6340 0.6340 0.6320
1402.449585 0.6320 0.6310 0.6310 0.6290 0.6290
1406.019199 0.6280 0.6280 0.6260 0.6260 0.6250
1409.588813 0.6220 0.6190 0.6180 0.6150 0.6140
1413.158428 0.6120 0.6090 0.6070 0.6020 0.6000
1416.728042 0.5980 0.5970 0.5950 0.5920 0.5920
1420.297656 0.5910 0.5910 0.5910 0.5900 0.5900
1423.867270 0.5900 0.5880 0.5880 0.5870 0.5870
1427.436884 0.5870 0.5850 0.5850 0.5870 0.5870
1431.006499 0.5870 0.5880 0.5880 0.5900 0.5900
1434.576113 0.5900 0.5900 0.5900 0.5900 0.5880
1438.145727 0.5870 0.5870 0.5850 0.5840 0.5840
1441.715341 0.5820 0.5780 0.5750 0.5710 0.5580
1445.284956 0.5570 0.5480 0.5390 0.5310 0.5200
1448.854570 0.5090 0.4990 0.4870 0.4760 0.4660
1452.424184 0.4549 0.4339 0.4120 0.3910 0.3820
1455.993798 0.3770 0.3650 0.3640 0.3600 0.3570
1459.563412 0.3560 0.3530 0.3510 0.3500 0.3480
1463.133027 0.3480 0.3480 0.3480 0.3500 0.3530
1466.702641 0.3560 0.3580 0.3650 0.3750 0.3940
1470.272255 0.4110 0.4110 0.4120 0.4390 0.4619
1473.841869 0.5071 0.5310 0.5390 0.5430 0.5510
1477.411484 0.5570 0.5640 0.5770 0.5850 0.6000
1480.981098 0.6010 0.6090 0.6180 0.6260 0.6420
1484.550712 0.6680 0.6700 0.6870 0.6900 0.7090
1488.120326 0.7291 0.7460 0.7510 0.7540 0.7570
1491.689940 0.7580 0.7600 0.7610 0.7630 0.7700
1495.259555 0.7710 0.7730 0.7820 0.7840 0.7850
1498.829169 0.7870 0.7900 0.7910 0.7910 0.7970
1502.398783 0.8040 0.8110 0.8140 0.8180 0.8190
1505.968397 0.8190 0.8190 0.8210 0.8210 0.8210
1509.538011 0.8210 0.8210 0.8220 0.8220 0.8220
1513.107626 0.8220 0.8220 0.8220 0.8240 0.8240
1516.677240 0.8240 0.8240 0.8240 0.8220 0.8220
1520.246854 0.8220 0.8220 0.8240 0.8260 0.8340
1523.816468 0.8390 0.8390 0.8390 0.8390 0.8410
1527.386083 0.8410 0.8410 0.8410 0.8420 0.8420
1530.955697 0.8420 0.8430 0.8430 0.8430 0.8430
1534.525311 0.8450 0.8450 0.8450 0.8430 0.8430
1538.094925 0.8430 0.8420 0.8420 0.8420 0.8420
1541.664539 0.8420 0.8430 0.8430 0.8430 0.8430
1545.234154 0.8450 0.8450 0.8460 0.8460 0.8460
1548.803768 0.8460 0.8460 0.8480 0.8480 0.8480
1552.373382 0.8480 0.8480 0.8480 0.8480 0.8480
1555.942996 0.8480 0.8480 0.8490 0.8490 0.8490
1559.512611 0.8490 0.8490 0.8490 0.8490 0.8490
1563.082225 0.8490 0.8490 0.8490 0.8490 0.8490
1566.651839 0.8490 0.8490 0.8490 0.8490 0.8490
1570.221453 0.8490 0.8510 0.8520 0.8520 0.8520
1573.791067 0.8520 0.8520 0.8530 0.8520 0.8530
1577.360682 0.8530 0.8530 0.8520 0.8520 0.8520
1580.930296 0.8520 0.8520 0.8520 0.8530 0.8530
1584.499910 0.8530 0.8550 0.8530 0.8530 0.8530
1588.069524 0.8550 0.8550 0.8550 0.8550 0.8560
1591.639139 0.8560 0.8560 0.8560 0.8560 0.8560
1595.208753 0.8560 0.8560 0.8560 0.8560 0.8580
1598.778367 0.8580 0.8580 0.8580 0.8580 0.8580
1602.347981 0.8580 0.8580 0.8580 0.8590 0.8590
1605.917595 0.8590 0.8580 0.8580 0.8580 0.8580
1609.487210 0.8580 0.8580 0.8580 0.8580 0.8580
1613.056824 0.8580 0.8580 0.8580 0.8580 0.8580
1616.626438 0.8580 0.8580 0.8580 0.8580 0.8580
1620.196052 0.8580 0.8580 0.8580 0.8580 0.8580
1623.765666 0.8580 0.8580 0.8580 0.8600 0.8580
1627.335281 0.8580 0.8580 0.8580 0.8580 0.8580
1630.904895 0.8580 0.8560 0.8560 0.8560 0.8560
1634.474509 0.8560 0.8560 0.8560 0.8560 0.8560
1638.044123 0.8580 0.8580 0.8580 0.8580 0.8580
1641.613738 0.8590 0.8590 0.8600 0.8600 0.8600
1645.183352 0.8600 0.8600 0.8590 0.8590 0.8600
1648.752966 0.8600 0.8600 0.8600 0.8600 0.8620
1652.322580 0.8620 0.8620 0.8620 0.8600 0.8600
1655.892194 0.8600 0.8590 0.8600 0.8600 0.8600
1659.461809 0.8620 0.8620 0.8620 0.8650 0.8650
1663.031423 0.8660 0.8660 0.8660 0.8660 0.8680
1666.601037 0.8680 0.8680 0.8680 0.8680 0.8680
1670.170651 0.8680 0.8680 0.8680 0.8680 0.8680
1673.740266 0.8680 0.8680 0.8680 0.8680 0.8680
1677.309880 0.8680 0.8680 0.8680 0.8680 0.8680
1680.879494 0.8690 0.8690 0.8680 0.8680 0.8680
1684.449108 0.8690 0.8690 0.8690 0.8690 0.8690
1688.018722 0.8690 0.8690 0.8690 0.8690 0.8690
1691.588337 0.8690 0.8690 0.8690 0.8690 0.8690
1695.157951 0.8690 0.8690 0.8690 0.8690 0.8690
1698.727565 0.8690 0.8690 0.8690 0.8660 0.8660
1702.297179 0.8680 0.8680 0.8680 0.8680 0.8680
1705.866794 0.8680 0.8680 0.8680 0.8680 0.8680
1709.436408 0.8680 0.8680 0.8680 0.8680 0.8680
1713.006022 0.8680 0.8680 0.8680 0.8680 0.8690
1716.575636 0.8700 0.8690 0.8690 0.8690 0.8690
1720.145250 0.8690 0.8690 0.8690 0.8700 0.8700
1723.714865 0.8700 0.8700 0.8700 0.8690 0.8690
1727.284479 0.8690 0.8690 0.8690 0.8700 0.8680
1730.854093 0.8680 0.8680 0.8680 0.8680 0.8680
1734.423707 0.8680 0.8680 0.8680 0.8680 0.8680
1737.993321 0.8680 0.8680 0.8680 0.8680 0.8680
1741.562936 0.8680 0.8680 0.8680 0.8680 0.8680
1745.132550 0.8680 0.8680 0.8680 0.8680 0.8680
1748.702164 0.8680 0.8680 0.8680 0.8680 0.8680
1752.271778 0.8680 0.8680 0.8680 0.8680 0.8680
1755.841393 0.8680 0.8680 0.8680 0.8680 0.8680
1759.411007 0.8680 0.8680 0.8680 0.8680 0.8680
1762.980621 0.8680 0.8680 0.8680 0.8680 0.8680
1766.550235 0.8680 0.8680 0.8680 0.8680 0.8680
1770.119849 0.8680 0.8680 0.8680 0.8680 0.8680
1773.689464 0.8680 0.8680 0.8680 0.8680 0.8680
1777.259078 0.8680 0.8680 0.8680 0.8680 0.8680
1780.828692 0.8680 0.8680 0.8680 0.8680 0.8680
1784.398306 0.8700 0.8700 0.8700 0.8700 0.8700
1787.967921 0.8700 0.8700 0.8700 0.8700 0.8700
1791.537535 0.8700 0.8700 0.8700 0.8700 0.8700
1795.107149 0.8700 0.8700 0.8700 0.8700 0.8700
1798.676763 0.8700 0.8690 0.8700 0.8700 0.8700
1802.246377 0.8690 0.8690 0.8690 0.8690 0.8690
1805.815992 0.8690 0.8690 0.8690 0.8690 0.8720
1809.385606 0.8720 0.8720 0.8720 0.8720 0.8720
1812.955220 0.8720 0.8720 0.8720 0.8690 0.8720
1816.524834 0.8720 0.8720 0.8720 0.8720 0.8720
1820.094449 0.8720 0.8720 0.8720 0.8720 0.8720
1823.664063 0.8720 0.8730 0.8730 0.8700 0.8700
1827.233677 0.8700 0.8700 0.8700 0.8700 0.8700
1830.803291 0.8700 0.8700 0.8700 0.8700 0.8700
1834.372905 0.8700 0.8700 0.8700 0.8700 0.8700
1837.942520 0.8700 0.8700 0.8700 0.8700 0.8700
1841.512134 0.8700 0.8700 0.8700 0.8700 0.8700
1845.081748 0.8700 0.8720 0.8720 0.8730 0.8730
1848.651362 0.8730 0.8750 0.8750 0.8750 0.8730
1852.220976 0.8730 0.8730 0.8730 0.8730 0.8730
1855.790591 0.8730 0.8730 0.8730 0.8730 0.8730
1859.360205 0.8750 0.8750 0.8730 0.8730 0.8730
1862.929819 0.8730 0.8750 0.8750 0.8750 0.8750
1866.499433 0.8730 0.8730 0.8730 0.8750 0.8750
1870.069048 0.8720 0.8720 0.8720 0.8720 0.8720
1873.638662 0.8720 0.8720 0.8720 0.8720 0.8720
1877.208276 0.8720 0.8720 0.8720 0.8720 0.8720
1880.777890 0.8720 0.8720 0.8720 0.8720 0.8720
1884.347504 0.8720 0.8720 0.8720 0.8720 0.8720
1887.917119 0.8720 0.8720 0.8720 0.8730 0.8730
1891.486733 0.8730 0.8750 0.8750 0.8750 0.8750
1895.056347 0.8750 0.8750 0.8750 0.8750 0.8750
1898.625961 0.8750 0.8760 0.8730 0.8730 0.8730
1902.195576 0.8730 0.8730 0.8730 0.8730 0.8730
1905.765190 0.8730 0.8730 0.8730 0.8730 0.8730
1909.334804 0.8730 0.8730 0.8730 0.8750 0.8750
1912.904418 0.8750 0.8730 0.8730 0.8730 0.8750
1916.474032 0.8750 0.8750 0.8750 0.8760 0.8760
1920.043647 0.8750 0.8750 0.8750 0.8730 0.8730
1923.613261 0.8730 0.8760 0.8760 0.8750 0.8750
1927.182875 0.8750 0.8750 0.8750 0.8760 0.8760
1930.752489 0.8760 0.8760 0.8760 0.8760 0.8760
1934.322103 0.8760 0.8760 0.8760 0.8760 0.8760
1937.891718 0.8760 0.8760 0.8760 0.8750 0.8750
1941.461332 0.8750 0.8760 0.8750 0.8750 0.8730
1945.030946 0.8730 0.8750 0.8750 0.8750 0.8750
1948.600560 0.8760 0.8760 0.8760 0.8760 0.8760
1952.170175 0.8760 0.8750 0.8760 0.8760 0.8780
1955.739789 0.8780 0.8780 0.8780 0.8780 0.8780
1959.309403 0.8780 0.8780 0.8780 0.8780 0.8780
1962.879017 0.8780 0.8780 0.8780 0.8780 0.8780
1966.448631 0.8780 0.8780 0.8760 0.8780 0.8780
1970.018246 0.8790 0.8790 0.8790 0.8790 0.8800
1973.587860 0.8800 0.8820 0.8820 0.8800 0.8800
1977.157474 0.8800 0.8800 0.8820 0.8820 0.8830
1980.727088 0.8820 0.8820 0.8830 0.8830 0.8830
1984.296703 0.8830 0.8830 0.8830 0.8830 0.8830
1987.866317 0.8850 0.8850 0.8860 0.8860 0.8860
1991.435931 0.8860 0.8860 0.8860 0.8860 0.8850
1995.005545 0.8830 0.8830 0.8800 0.8730 0.8700
1998.575159 0.8630 0.8600 0.8580 0.8580 0.8580
2002.144774 0.8580 0.8580 0.8575 0.8570 0.8565
2005.714388 0.8560 0.8558 0.8555 0.8553 0.8550
2009.284002 0.8550 0.8550 0.8550 0.8550 0.8550
2012.853616 0.8550 0.8550 0.8550 0.8550 0.8550
2016.423231 0.8550 0.8550 0.8550 0.8550 0.8550
2019.992845 0.8550 0.8552 0.8555 0.8557 0.8560
2023.562459 0.8560 0.8560 0.8560 0.8560 0.8564
2027.132073 0.8569 0.8574 0.8579 0.8580 0.8580
2030.701687 0.8580 0.8580 0.8582 0.8584 0.8587
2034.271302 0.8589 0.8590 0.8590 0.8590 0.8590
2037.840916 0.8590 0.8590 0.8590 0.8590 0.8590
2041.410530 0.8590 0.8590 0.8590 0.8590 0.8590
2044.980144 0.8590 0.8590 0.8590 0.8590 0.8590
2048.549758 0.8590 0.8590 0.8590 0.8590 0.8590
