##TITLE=METHANAMINE, N-METHYL-
##JCAMP-DX=4.24
##DATA TYPE=INFRARED SPECTRUM
##CLASS=COBLENTZ
##ORIGIN=DOW CHEMICAL COMPANY
##OWNER=COBLENTZ SOCIETY
Collection (C) 2018 copyright by the U.S. Secretary of Commerce
on behalf of the United States of America. All rights reserved.
##DATE=1978/04/11
##NAMES=N-methylmethanamine
N,N-dimethylamine
DIMETHYL AMINE
##CAS REGISTRY NO=124-40-3
##MOLFORM=C2 H7 N
##SOURCE REFERENCE=COBLENTZ NO. 10486
##$NIST SOURCE=COBLENTZ
##$NIST IMAGE=cob10486
##SPECTROMETER/DATA SYSTEM=BECKMAN
##STATE=GAS (16 mmHg DILUTED TO A TOTAL PRESSURE OF 600 mmHg WITH N2)
##PATH LENGTH=10 CM CELL
##SAMPLING PROCEDURE=TRANSMISSION
##RESOLUTION=4
##DATA PROCESSING=DIGITIZED BY NIST FROM HARD COPY (FROM TWO SEGMENTS)
##XUNITS=1/CM
##YUNITS=TRANSMITTANCE
##XFACTOR=1.000000
##YFACTOR=1
##DELTAX=0.974253
##FIRSTX=203.479
##LASTX=3999.17
##FIRSTY=0.015
##MAXX=3999.17
##MINX=203.479
##MAXY=0.971
##MINY=0.012
##NPOINTS=3897
##XYDATA=(X++(Y..Y))
203.479000 0.0150 0.0140 0.0140 0.0140 0.0140
208.350267 0.0140 0.0140 0.0150 0.0140 0.0140
213.221533 0.0140 0.0140 0.0140 0.0140 0.0140
218.092800 0.0140 0.0140 0.0150 0.0150 0.0140
222.964066 0.0140 0.0140 0.0140 0.0140 0.0140
227.835333 0.0140 0.0140 0.0150 0.0140 0.0140
232.706600 0.0140 0.0140 0.0140 0.0140 0.0140
237.577866 0.0140 0.0140 0.0150 0.0150 0.0150
242.449133 0.0150 0.0150 0.0150 0.0140 0.0140
247.320399 0.0140 0.0140 0.0140 0.0120 0.0120
252.191666 0.0140 0.0140 0.0140 0.0140 0.0140
257.062933 0.0140 0.0140 0.0140 0.0150 0.0150
261.934199 0.0140 0.0140 0.0140 0.0140 0.0140
266.805466 0.0140 0.0140 0.0140 0.0140 0.0140
271.676732 0.0140 0.0140 0.0140 0.0140 0.0140
276.547999 0.0150 0.0150 0.0160 0.0180 0.0180
281.419266 0.0190 0.0200 0.0220 0.0230 0.0240
286.290532 0.0250 0.0250 0.0240 0.0160 0.0140
291.161799 0.0140 0.0140 0.0150 0.0150 0.0150
296.033065 0.0160 0.0160 0.0160 0.0180 0.0180
300.904332 0.0180 0.0180 0.0190 0.0200 0.0220
305.775599 0.0230 0.0230 0.0250 0.0270 0.0280
310.646865 0.0310 0.0310 0.0320 0.0340 0.0360
315.518132 0.0370 0.0370 0.0380 0.0400 0.0410
320.389398 0.0410 0.0440 0.0450 0.0450 0.0470
325.260665 0.0500 0.0510 0.0530 0.0540 0.0580
330.131932 0.0600 0.0630 0.0680 0.0710 0.0720
335.003198 0.0730 0.0790 0.0810 0.0840 0.0860
339.874465 0.0910 0.0990 0.1030 0.1070 0.1120
344.745731 0.1170 0.1230 0.1290 0.1340 0.1390
349.616998 0.1460 0.1510 0.1580 0.1630 0.1690
354.488265 0.1760 0.1810 0.1870 0.1940 0.2000
359.359531 0.2070 0.2130 0.2200 0.2270 0.2310
364.230798 0.2390 0.2470 0.2520 0.2600 0.2640
369.102064 0.2690 0.2740 0.2820 0.2900 0.2960
373.973331 0.3030 0.3090 0.3160 0.3220 0.3339
378.844598 0.3390 0.3450 0.3520 0.3580 0.3630
383.715864 0.3700 0.3760 0.3840 0.3910 0.3970
388.587131 0.4040 0.4100 0.4150 0.4220 0.4280
393.458397 0.4330 0.4400 0.4450 0.4500 0.4570
398.329664 0.4580 0.4680 0.4770 0.4840 0.4920
403.200931 0.4980 0.5060 0.5100 0.5150 0.5200
408.072197 0.5280 0.5360 0.5420 0.5500 0.5580
412.943464 0.5680 0.5720 0.5790 0.5850 0.5950
417.814730 0.6020 0.6070 0.6120 0.6200 0.6300
422.685997 0.6380 0.6460 0.6520 0.6580 0.6679
427.557264 0.6720 0.6760 0.6800 0.6890 0.6960
432.428530 0.7000 0.7030 0.7070 0.7130 0.7200
437.299797 0.7240 0.7270 0.7310 0.7350 0.7420
442.171063 0.7500 0.7510 0.7530 0.7590 0.7620
447.042330 0.7650 0.7700 0.7730 0.7770 0.7810
451.913597 0.7840 0.7880 0.7900 0.7920 0.7990
456.784863 0.8000 0.8010 0.8040 0.8050 0.8120
461.656130 0.8160 0.8170 0.8180 0.8190 0.8230
466.527396 0.8260 0.8300 0.8320 0.8350 0.8380
471.398663 0.8390 0.8430 0.8440 0.8470 0.8490
476.269930 0.8510 0.8520 0.8530 0.8540 0.8560
481.141196 0.8570 0.8600 0.8630 0.8650 0.8660
486.012463 0.8670 0.8690 0.8700 0.8730 0.8740
490.883729 0.8760 0.8760 0.8780 0.8780 0.8780
495.754996 0.8780 0.8760 0.8760 0.8750 0.8740
500.626263 0.8740 0.8750 0.8760 0.8780 0.8790
505.497529 0.8800 0.8830 0.8860 0.8890 0.8920
510.368796 0.8920 0.8980 0.9010 0.9040 0.9060
515.240062 0.9110 0.9140 0.9150 0.9180 0.9200
520.111329 0.9200 0.9220 0.9220 0.9220 0.9200
524.982596 0.9200 0.9200 0.9190 0.9180 0.9170
529.853862 0.9140 0.9110 0.9110 0.9100 0.9100
534.725129 0.9100 0.9090 0.9090 0.9090 0.9100
539.596395 0.9100 0.9100 0.9110 0.9130 0.9130
544.467662 0.9140 0.9150 0.9170 0.9200 0.9220
549.338929 0.9240 0.9270 0.9280 0.9300 0.9310
554.210195 0.9320 0.9320 0.9320 0.9320 0.9310
559.081462 0.9310 0.9310 0.9310 0.9300 0.9280
563.952728 0.9270 0.9260 0.9260 0.9240 0.9240
568.823995 0.9230 0.9220 0.9200 0.9190 0.9150
573.695262 0.9150 0.9140 0.9140 0.9130 0.9130
578.566528 0.9130 0.9130 0.9130 0.9130 0.9140
583.437795 0.9140 0.9150 0.9150 0.9170 0.9170
588.309061 0.9180 0.9190 0.9190 0.9200 0.9220
593.180328 0.9220 0.9220 0.9220 0.9220 0.9220
598.051595 0.9220 0.9220 0.9220 0.9200 0.9190
602.922861 0.9180 0.9170 0.9170 0.9150 0.9150
607.794128 0.9140 0.9130 0.9130 0.9110 0.9090
612.665394 0.9080 0.9050 0.9050 0.9040 0.9040
617.536661 0.9010 0.9010 0.9000 0.8980 0.8970
622.407928 0.8960 0.8950 0.8920 0.8920 0.8910
627.279194 0.8890 0.8880 0.8880 0.8880 0.8870
632.150461 0.8880 0.8870 0.8870 0.8870 0.8860
637.021727 0.8860 0.8840 0.8840 0.8830 0.8830
641.892994 0.8820 0.8820 0.8820 0.8800 0.8790
646.764261 0.8780 0.8760 0.8750 0.8740 0.8730
651.635527 0.8700 0.8690 0.8670 0.8670 0.8650
656.506794 0.8630 0.8630 0.8610 0.8580 0.8570
661.378060 0.8540 0.8510 0.8430 0.8400 0.8350
666.249327 0.8310 0.8250 0.8210 0.8130 0.8060
671.120594 0.7990 0.7820 0.7780 0.7730 0.7700
675.991860 0.7640 0.7560 0.7470 0.7380 0.7300
680.863127 0.7210 0.7110 0.6980 0.6870 0.6730
685.734393 0.6690 0.6640 0.6520 0.6410 0.6330
690.605660 0.6130 0.5990 0.5880 0.5790 0.5680
695.476927 0.5580 0.5470 0.5291 0.5220 0.4971
700.348193 0.4710 0.4680 0.4620 0.4580 0.4460
705.219460 0.4310 0.4180 0.4090 0.3980 0.3890
710.090726 0.3780 0.3650 0.3490 0.3430 0.3360
714.961993 0.3310 0.3260 0.3210 0.3160 0.3090
719.833260 0.3010 0.2950 0.2900 0.2830 0.2770
724.704526 0.2720 0.2660 0.2640 0.2620 0.2640
729.575793 0.2640 0.2650 0.2650 0.2680 0.2690
734.447059 0.2690 0.2700 0.2700 0.2720 0.2730
739.318326 0.2750 0.2820 0.2910 0.2990 0.3010
744.189593 0.2960 0.2900 0.2780 0.2750 0.2770
749.060859 0.2790 0.2860 0.2940 0.3000 0.3080
753.932126 0.3170 0.3349 0.3440 0.3540 0.3630
758.803392 0.3750 0.3870 0.3980 0.4100 0.4230
763.674659 0.4350 0.4480 0.4610 0.4739 0.4869
768.545926 0.5000 0.5140 0.5270 0.5400 0.5530
773.417192 0.5670 0.5800 0.5930 0.6040 0.6149
778.288459 0.6260 0.6370 0.6480 0.6700 0.6810
783.159725 0.6910 0.7020 0.7130 0.7240 0.7340
788.030992 0.7440 0.7530 0.7640 0.7740 0.7830
792.902259 0.7920 0.8030 0.8100 0.8190 0.8290
797.773525 0.8360 0.8450 0.8530 0.8600 0.8670
802.644792 0.8740 0.8800 0.8870 0.8910 0.8980
807.516058 0.9010 0.9050 0.9080 0.9110 0.9180
812.387325 0.9220 0.9260 0.9280 0.9310 0.9320
817.258592 0.9350 0.9390 0.9410 0.9440 0.9450
822.129858 0.9500 0.9520 0.9530 0.9530 0.9540
827.001125 0.9550 0.9570 0.9570 0.9580 0.9610
831.872391 0.9620 0.9630 0.9630 0.9660 0.9670
836.743658 0.9680 0.9680 0.9680 0.9680 0.9700
841.614925 0.9700 0.9710 0.9710 0.9710 0.9700
846.486191 0.9700 0.9700 0.9680 0.9680 0.9680
851.357458 0.9680 0.9680 0.9680 0.9670 0.9670
856.228724 0.9660 0.9660 0.9660 0.9660 0.9650
861.099991 0.9650 0.9650 0.9630 0.9620 0.9620
865.971258 0.9610 0.9610 0.9580 0.9580 0.9570
870.842524 0.9570 0.9550 0.9550 0.9550 0.9550
875.713791 0.9540 0.9540 0.9540 0.9530 0.9520
880.585057 0.9520 0.9500 0.9500 0.9490 0.9460
885.456324 0.9460 0.9450 0.9440 0.9430 0.9410
890.327591 0.9390 0.9360 0.9330 0.9320 0.9310
895.198857 0.9300 0.9280 0.9270 0.9260 0.9260
900.070124 0.9240 0.9230 0.9200 0.9180 0.9140
904.941390 0.9130 0.9090 0.9080 0.9050 0.9040
909.812657 0.9020 0.9010 0.8970 0.8950 0.8930
914.683924 0.8920 0.8910 0.8870 0.8860 0.8840
919.555190 0.8830 0.8830 0.8830 0.8840 0.8840
924.426457 0.8880 0.8910 0.8930 0.8960 0.8970
929.297723 0.9000 0.9010 0.8980 0.8970 0.8950
934.168990 0.8910 0.8860 0.8820 0.8780 0.8760
939.040257 0.8780 0.8790 0.8800 0.8820 0.8840
943.911523 0.8860 0.8880 0.8920 0.8930 0.8960
948.782790 0.9000 0.9010 0.9020 0.9040 0.9060
953.654056 0.9110 0.9130 0.9150 0.9180 0.9220
958.525323 0.9240 0.9260 0.9270 0.9280 0.9280
963.396590 0.9280 0.9270 0.9260 0.9240 0.9240
968.267856 0.9240 0.9240 0.9260 0.9270 0.9310
973.139123 0.9390 0.9440 0.9490 0.9500 0.9520
978.010389 0.9520 0.9530 0.9530 0.9540 0.9550
982.881656 0.9550 0.9570 0.9570 0.9550 0.9540
987.752923 0.9530 0.9520 0.9500 0.9480 0.9460
992.624189 0.9440 0.9370 0.9350 0.9310 0.9240
997.495456 0.9190 0.9150 0.9100 0.9050 0.8970
1002.366722 0.8870 0.8800 0.8730 0.8620 0.8530
1007.237989 0.8430 0.8320 0.8230 0.8140 0.8060
1012.109256 0.8010 0.8000 0.7990 0.8000 0.8040
1016.980522 0.8080 0.8090 0.8100 0.8100 0.8060
1021.851789 0.8040 0.7960 0.7730 0.7680 0.7650
1026.723055 0.7680 0.7870 0.7990 0.8050 0.8130
1031.594322 0.8210 0.8210 0.8170 0.8120 0.8050
1036.465589 0.8000 0.7950 0.7870 0.7820 0.7810
1041.336855 0.7810 0.7820 0.7830 0.7860 0.7900
1046.208122 0.7940 0.8010 0.8100 0.8180 0.8250
1051.079388 0.8310 0.8430 0.8530 0.8620 0.8710
1055.950655 0.8800 0.8870 0.8950 0.9010 0.9060
1060.821922 0.9090 0.9190 0.9230 0.9260 0.9280
1065.693188 0.9300 0.9310 0.9310 0.9300 0.9300
1070.564455 0.9300 0.9300 0.9280 0.9280 0.9280
1075.435721 0.9270 0.9260 0.9230 0.9220 0.9200
1080.306988 0.9200 0.9190 0.9190 0.9200 0.9200
1085.178255 0.9200 0.9220 0.9230 0.9240 0.9270
1090.049521 0.9280 0.9310 0.9320 0.9320 0.9320
1094.920788 0.9310 0.9310 0.9310 0.9310 0.9300
1099.792054 0.9280 0.9280 0.9270 0.9240 0.9220
1104.663321 0.9200 0.9180 0.9150 0.9130 0.9100
1109.534588 0.9080 0.9050 0.9010 0.8970 0.8930
1114.405854 0.8890 0.8840 0.8790 0.8730 0.8660
1119.277121 0.8580 0.8490 0.8410 0.8310 0.8210
1124.148387 0.8100 0.7990 0.7860 0.7720 0.7590
1129.019654 0.7430 0.7270 0.7110 0.6940 0.6740
1133.890921 0.6650 0.6550 0.6331 0.6161 0.6011
1138.762187 0.5890 0.5760 0.5620 0.5460 0.5250
1143.633454 0.5000 0.4870 0.4750 0.4571 0.4321
1148.504720 0.4310 0.4310 0.4430 0.4680 0.4720
1153.375987 0.4720 0.4630 0.4461 0.4360 0.4191
1158.247254 0.3920 0.3840 0.3840 0.4090 0.4140
1163.118520 0.4460 0.4849 0.4920 0.4850 0.4760
1167.989787 0.4540 0.4320 0.4200 0.4190 0.4200
1172.861053 0.4230 0.4360 0.4490 0.4669 0.4889
1177.732320 0.5050 0.5320 0.5530 0.5860 0.6230
1182.603587 0.6729 0.6940 0.7159 0.7419 0.7679
1187.474853 0.7910 0.8140 0.8340 0.8530 0.8690
1192.346120 0.8800 0.8890 0.8930 0.9000 0.9020
1197.217386 0.9050 0.9080 0.9100 0.9130 0.9150
1202.088653 0.9180 0.9190 0.9200 0.9220 0.9240
1206.959920 0.9260 0.9280 0.9300 0.9310 0.9320
1211.831186 0.9320 0.9330 0.9330 0.9330 0.9350
1216.702453 0.9360 0.9360 0.9370 0.9390 0.9390
1221.573719 0.9400 0.9400 0.9410 0.9410 0.9430
1226.444986 0.9430 0.9440 0.9440 0.9450 0.9450
1231.316253 0.9460 0.9480 0.9490 0.9500 0.9500
1236.187519 0.9500 0.9500 0.9520 0.9520 0.9520
1241.058786 0.9530 0.9530 0.9530 0.9530 0.9530
1245.930052 0.9540 0.9540 0.9550 0.9550 0.9550
1250.801319 0.9570 0.9570 0.9570 0.9570 0.9570
1255.672586 0.9580 0.9580 0.9580 0.9580 0.9580
1260.543852 0.9580 0.9580 0.9590 0.9590 0.9590
1265.415119 0.9590 0.9590 0.9590 0.9590 0.9590
1270.286385 0.9590 0.9590 0.9590 0.9590 0.9590
1275.157652 0.9590 0.9590 0.9590 0.9590 0.9590
1280.028919 0.9590 0.9590 0.9590 0.9590 0.9590
1284.900185 0.9590 0.9590 0.9590 0.9590 0.9590
1289.771452 0.9590 0.9590 0.9590 0.9590 0.9590
1294.642718 0.9590 0.9580 0.9580 0.9580 0.9580
1299.513985 0.9580 0.9580 0.9580 0.9580 0.9580
1304.385252 0.9580 0.9580 0.9580 0.9580 0.9570
1309.256518 0.9570 0.9570 0.9570 0.9570 0.9550
1314.127785 0.9550 0.9550 0.9540 0.9540 0.9540
1318.999051 0.9540 0.9540 0.9540 0.9540 0.9540
1323.870318 0.9540 0.9530 0.9530 0.9530 0.9530
1328.741585 0.9530 0.9530 0.9520 0.9520 0.9500
1333.612851 0.9500 0.9490 0.9490 0.9490 0.9480
1338.484118 0.9480 0.9460 0.9460 0.9460 0.9460
1343.355384 0.9450 0.9450 0.9450 0.9440 0.9430
1348.226651 0.9410 0.9410 0.9400 0.9390 0.9360
1353.097918 0.9330 0.9320 0.9320 0.9310 0.9270
1357.969184 0.9260 0.9230 0.9220 0.9220 0.9200
1362.840451 0.9200 0.9180 0.9180 0.9180 0.9170
1367.711717 0.9150 0.9140 0.9140 0.9140 0.9130
1372.582984 0.9130 0.9130 0.9110 0.9110 0.9110
1377.454251 0.9100 0.9090 0.9050 0.9040 0.9020
1382.325517 0.9000 0.8980 0.8950 0.8920 0.8880
1387.196784 0.8860 0.8840 0.8840 0.8840 0.8840
1392.068050 0.8840 0.8830 0.8830 0.8830 0.8830
1396.939317 0.8820 0.8820 0.8820 0.8800 0.8800
1401.810584 0.8800 0.8790 0.8790 0.8760 0.8760
1406.681850 0.8750 0.8740 0.8740 0.8730 0.8730
1411.553117 0.8710 0.8650 0.8620 0.8610 0.8570
1416.424383 0.8540 0.8520 0.8520 0.8510 0.8470
1421.295650 0.8400 0.8340 0.8260 0.8180 0.8080
1426.166917 0.8030 0.7970 0.7910 0.7830 0.7770
1431.038183 0.7720 0.7660 0.7620 0.7600 0.7570
1435.909450 0.7530 0.7520 0.7510 0.7500 0.7470
1440.780716 0.7400 0.7330 0.7120 0.6980 0.6800
1445.651983 0.6610 0.6560 0.6690 0.6680 0.6640
1450.523250 0.6600 0.6560 0.6460 0.6340 0.6170
1455.394516 0.6020 0.5900 0.5840 0.5790 0.5770
1460.265783 0.5770 0.5770 0.5760 0.5730 0.5590
1465.137049 0.5440 0.5280 0.5120 0.4811 0.4790
1470.008316 0.4810 0.5010 0.5070 0.5150 0.5220
1474.879583 0.5440 0.5630 0.5750 0.5840 0.5900
1479.750849 0.5980 0.6070 0.6150 0.6210 0.6250
1484.622116 0.6290 0.6290 0.6280 0.6260 0.6250
1489.493382 0.6260 0.6290 0.6380 0.6700 0.6810
1494.364649 0.6830 0.6850 0.6870 0.6900 0.6910
1499.235916 0.6940 0.6990 0.7080 0.7150 0.7200
1504.107182 0.7210 0.7260 0.7370 0.7470 0.7570
1508.978449 0.7660 0.7770 0.7860 0.7960 0.8050
1513.849715 0.8140 0.8230 0.8310 0.8400 0.8470
1518.720982 0.8540 0.8610 0.8670 0.8730 0.8780
1523.592249 0.8820 0.8870 0.8910 0.8930 0.8970
1528.463515 0.9000 0.9010 0.9020 0.9050 0.9110
1533.334782 0.9130 0.9140 0.9190 0.9220 0.9240
1538.206048 0.9240 0.9270 0.9270 0.9300 0.9300
1543.077315 0.9300 0.9300 0.9300 0.9280 0.9280
1547.948582 0.9280 0.9300 0.9300 0.9310 0.9330
1552.819848 0.9350 0.9360 0.9370 0.9390 0.9390
1557.691115 0.9390 0.9400 0.9430 0.9440 0.9440
1562.562381 0.9440 0.9440 0.9430 0.9410 0.9410
1567.433648 0.9410 0.9430 0.9440 0.9440 0.9450
1572.304915 0.9450 0.9450 0.9450 0.9450 0.9450
1577.176181 0.9450 0.9450 0.9450 0.9440 0.9440
1582.047448 0.9430 0.9430 0.9410 0.9410 0.9410
1586.918714 0.9410 0.9410 0.9410 0.9410 0.9410
1591.789981 0.9410 0.9410 0.9400 0.9400 0.9400
1596.661248 0.9400 0.9400 0.9400 0.9400 0.9400
1601.532514 0.9400 0.9400 0.9400 0.9400 0.9400
1606.403781 0.9400 0.9400 0.9400 0.9400 0.9400
1611.275047 0.9400 0.9390 0.9370 0.9360 0.9360
1616.146314 0.9360 0.9360 0.9360 0.9350 0.9330
1621.017581 0.9330 0.9330 0.9320 0.9310 0.9310
1625.888847 0.9310 0.9310 0.9310 0.9310 0.9310
1630.760114 0.9310 0.9320 0.9320 0.9320 0.9330
1635.631380 0.9330 0.9330 0.9330 0.9350 0.9350
1640.502647 0.9330 0.9320 0.9310 0.9280 0.9270
1645.373914 0.9280 0.9280 0.9300 0.9310 0.9320
1650.245180 0.9330 0.9330 0.9350 0.9360 0.9370
1655.116447 0.9400 0.9410 0.9440 0.9450 0.9440
1659.987713 0.9410 0.9320 0.9310 0.9310 0.9310
1664.858980 0.9310 0.9320 0.9330 0.9330 0.9330
1669.730247 0.9330 0.9330 0.9350 0.9360 0.9390
1674.601513 0.9390 0.9390 0.9390 0.9390 0.9400
1679.472780 0.9400 0.9400 0.9400 0.9400 0.9410
1684.344046 0.9430 0.9440 0.9450 0.9460 0.9460
1689.215313 0.9440 0.9430 0.9430 0.9430 0.9430
1694.086580 0.9430 0.9440 0.9450 0.9490 0.9500
1698.957846 0.9500 0.9520 0.9520 0.9530 0.9530
1703.829113 0.9530 0.9530 0.9520 0.9520 0.9520
1708.700379 0.9500 0.9490 0.9500 0.9500 0.9500
1713.571646 0.9520 0.9520 0.9520 0.9530 0.9520
1718.442913 0.9520 0.9530 0.9530 0.9530 0.9520
1723.314179 0.9520 0.9500 0.9500 0.9500 0.9500
1728.185446 0.9500 0.9500 0.9520 0.9530 0.9540
1733.056712 0.9550 0.9580 0.9610 0.9610 0.9610
1737.927979 0.9590 0.9590 0.9580 0.9580 0.9580
1742.799246 0.9570 0.9570 0.9570 0.9570 0.9580
1747.670512 0.9590 0.9610 0.9620 0.9630 0.9630
1752.541779 0.9630 0.9620 0.9620 0.9620 0.9620
1757.413045 0.9620 0.9620 0.9620 0.9620 0.9630
1762.284312 0.9630 0.9620 0.9620 0.9620 0.9620
1767.155579 0.9620 0.9610 0.9590 0.9590 0.9610
1772.026845 0.9620 0.9630 0.9630 0.9620 0.9620
1776.898112 0.9620 0.9620 0.9610 0.9590 0.9580
1781.769378 0.9580 0.9580 0.9580 0.9580 0.9580
1786.640645 0.9580 0.9580 0.9580 0.9580 0.9580
1791.511912 0.9570 0.9570 0.9570 0.9570 0.9570
1796.383178 0.9580 0.9570 0.9570 0.9570 0.9570
1801.254445 0.9570 0.9550 0.9550 0.9550 0.9540
1806.125711 0.9540 0.9540 0.9540 0.9530 0.9520
1810.996978 0.9520 0.9520 0.9520 0.9520 0.9520
1815.868245 0.9520 0.9530 0.9540 0.9530 0.9530
1820.739511 0.9530 0.9540 0.9550 0.9570 0.9570
1825.610778 0.9580 0.9580 0.9580 0.9580 0.9580
1830.482044 0.9580 0.9570 0.9550 0.9540 0.9540
1835.353311 0.9530 0.9530 0.9520 0.9520 0.9520
1840.224578 0.9520 0.9520 0.9540 0.9540 0.9540
1845.095844 0.9540 0.9540 0.9540 0.9530 0.9530
1849.967111 0.9530 0.9530 0.9520 0.9520 0.9520
1854.838377 0.9520 0.9520 0.9520 0.9500 0.9500
1859.709644 0.9490 0.9490 0.9490 0.9480 0.9480
1864.580911 0.9480 0.9480 0.9460 0.9460 0.9450
1869.452177 0.9450 0.9450 0.9440 0.9440 0.9430
1874.323444 0.9430 0.9430 0.9410 0.9410 0.9400
1879.194710 0.9400 0.9390 0.9390 0.9370 0.9370
1884.065977 0.9370 0.9360 0.9360 0.9360 0.9360
1888.937244 0.9360 0.9360 0.9360 0.9360 0.9360
1893.808510 0.9360 0.9360 0.9360 0.9370 0.9370
1898.679777 0.9370 0.9370 0.9370 0.9370 0.9370
1903.551043 0.9390 0.9390 0.9390 0.9390 0.9390
1908.422310 0.9390 0.9400 0.9400 0.9400 0.9400
1913.293577 0.9410 0.9410 0.9430 0.9430 0.9440
1918.164843 0.9450 0.9480 0.9490 0.9500 0.9520
1923.036110 0.9520 0.9520 0.9530 0.9530 0.9530
1927.907376 0.9540 0.9540 0.9550 0.9550 0.9570
1932.778643 0.9570 0.9580 0.9570 0.9580 0.9580
1937.649910 0.9580 0.9580 0.9590 0.9590 0.9590
1942.521176 0.9590 0.9590 0.9590 0.9590 0.9590
1947.392443 0.9590 0.9590 0.9590 0.9580 0.9580
1952.263709 0.9580 0.9580 0.9570 0.9570 0.9550
1957.134976 0.9550 0.9550 0.9550 0.9550 0.9550
1962.006243 0.9550 0.9550 0.9550 0.9540 0.9540
1966.877509 0.9540 0.9540 0.9540 0.9540 0.9540
1971.748776 0.9540 0.9540 0.9540 0.9540 0.9540
1976.620042 0.9530 0.9530 0.9530 0.9530 0.9520
1981.491309 0.9520 0.9520 0.9520 0.9520 0.9520
1986.362576 0.9520 0.9520 0.9500 0.9500 0.9500
1991.233842 0.9490 0.9480 0.9460 0.9460 0.9450
1996.105109 0.9450 0.9450 0.9450 0.9450 0.9450
2000.976375 0.9455 0.9460 0.9470 0.9480 0.9500
2005.847642 0.9520 0.9535 0.9550 0.9565 0.9580
2010.718909 0.9585 0.9590 0.9600 0.9610 0.9615
2015.590175 0.9620 0.9620 0.9620 0.9620 0.9620
2020.461442 0.9620 0.9620 0.9620 0.9620 0.9620
2025.332708 0.9620 0.9620 0.9620 0.9615 0.9610
2030.203975 0.9610 0.9609 0.9599 0.9590 0.9590
2035.075242 0.9589 0.9584 0.9580 0.9580 0.9579
2039.946508 0.9574 0.9569 0.9559 0.9549 0.9544
2044.817775 0.9540 0.9540 0.9539 0.9534 0.9528
2049.689041 0.9512 0.9499 0.9494 0.9489 0.9484
2054.560308 0.9478 0.9468 0.9459 0.9454 0.9449
2059.431575 0.9444 0.9437 0.9422 0.9409 0.9404
2064.302841 0.9399 0.9394 0.9388 0.9378 0.9369
2069.174108 0.9364 0.9359 0.9354 0.9348 0.9338
2074.045374 0.9330 0.9330 0.9329 0.9324 0.9319
2078.916641 0.9314 0.9310 0.9310 0.9309 0.9304
2083.787908 0.9300 0.9300 0.9300 0.9300 0.9302
2088.659174 0.9307 0.9312 0.9317 0.9322 0.9327
2093.530441 0.9335 0.9350 0.9362 0.9367 0.9374
2098.401707 0.9384 0.9390 0.9390 0.9394 0.9404
2103.272974 0.9414 0.9424 0.9434 0.9444 0.9452
2108.144241 0.9457 0.9464 0.9474 0.9482 0.9487
2113.015507 0.9492 0.9497 0.9504 0.9514 0.9522
2117.886774 0.9527 0.9530 0.9530 0.9532 0.9537
2122.758040 0.9540 0.9540 0.9542 0.9547 0.9550
2127.629307 0.9550 0.9554 0.9565 0.9570 0.9570
2132.500574 0.9570 0.9570 0.9570 0.9570 0.9570
2137.371840 0.9570 0.9570 0.9570 0.9570 0.9570
2142.243107 0.9570 0.9570 0.9570 0.9570 0.9570
2147.114373 0.9570 0.9570 0.9570 0.9570 0.9570
2151.985640 0.9570 0.9570 0.9570 0.9570 0.9570
2156.856907 0.9570 0.9570 0.9570 0.9570 0.9570
2161.728173 0.9570 0.9570 0.9570 0.9570 0.9564
2166.599440 0.9554 0.9550 0.9550 0.9550 0.9550
2171.470706 0.9550 0.9550 0.9550 0.9550 0.9550
2176.341973 0.9550 0.9550 0.9550 0.9550 0.9550
2181.213240 0.9550 0.9550 0.9550 0.9550 0.9550
2186.084506 0.9550 0.9550 0.9550 0.9550 0.9550
