##TITLE=Methacrylonitrile
##JCAMP-DX=4.24
##DATA TYPE=INFRARED SPECTRUM
##CLASS=COBLENTZ
##ORIGIN=DOW CHEMICAL COMPANY
##OWNER=Copyright (C) 1987 by the Coblentz Society
Collection (C) 2018 copyright by the U.S. Secretary of Commerce
on behalf of the United States of America. All rights reserved.
##DATE=1964
##NAMES=2-methylacrylonitrile
2-PROPENONITRILE, 2-METHYL-
##CAS REGISTRY NO=126-98-7
##MOLFORM=C4 H5 N
##SOURCE REFERENCE=COBLENTZ NO. 8812
##$NIST SOURCE=COBLENTZ
##$NIST IMAGE=cob8812
##SPECTROMETER/DATA SYSTEM=DOW KBr FOREPRISM-GRATING
##INSTRUMENT PARAMETERS=GRATING CHANGED AT 5.0, 7.5, 15.0 MICRON
##STATE=GAS (30 mmHg, N2 ADDED, TOTAL PRESSURE 600 mmHg)
##PATH LENGTH=5 CM
##SAMPLING PROCEDURE=TRANSMISSION
##RESOLUTION=2
##DATA PROCESSING=DIGITIZED BY COBLENTZ SOCIETY (BATCH II) FROM HARD COPY
##XUNITS=1/CM
##YUNITS=TRANSMITTANCE
##XFACTOR=1.0
##YFACTOR=1
##FIRSTX=458
##LASTX=3786
##FIRSTY=0.8913
##MAXX=3786
##MINX=458
##MAXY=0.9083
##MINY=0.0835
##NPOINTS=3329
##XYDATA=(X++(Y..Y))
458.000000 0.8913 0.8913 0.8913 0.8911 0.8907
463.000000 0.8904 0.8900 0.8897 0.8893 0.8887
468.000000 0.8881 0.8876 0.8870 0.8864 0.8858
473.000000 0.8853 0.8843 0.8832 0.8822 0.8811
478.000000 0.8801 0.8790 0.8780 0.8769 0.8758
483.000000 0.8748 0.8737 0.8727 0.8715 0.8702
488.000000 0.8689 0.8676 0.8663 0.8650 0.8637
493.000000 0.8624 0.8611 0.8598 0.8582 0.8560
498.000000 0.8538 0.8515 0.8493 0.8471 0.8449
503.000000 0.8427 0.8404 0.8380 0.8351 0.8321
508.000000 0.8292 0.8262 0.8233 0.8203 0.8174
513.000000 0.8144 0.8114 0.8085 0.8055 0.8026
518.000000 0.7996 0.7967 0.7947 0.7929 0.7911
523.000000 0.7893 0.7875 0.7857 0.7825 0.7783
528.000000 0.7742 0.7695 0.7627 0.7386 0.6538
533.000000 0.6208 0.6215 0.6487 0.7366 0.7400
538.000000 0.7428 0.7491 0.7674 0.7779 0.7819
543.000000 0.7843 0.7868 0.7888 0.7905 0.7919
548.000000 0.7933 0.7947 0.7960 0.7998 0.8049
553.000000 0.8107 0.8165 0.8221 0.8278 0.8329
558.000000 0.8372 0.8415 0.8449 0.8476 0.8504
563.000000 0.8531 0.8559 0.8577 0.8592 0.8597
568.000000 0.8603 0.8609 0.8613 0.8616 0.8619
573.000000 0.8622 0.8625 0.8628 0.8632 0.8635
578.000000 0.8639 0.8642 0.8646 0.8651 0.8656
583.000000 0.8661 0.8667 0.8674 0.8681 0.8687
588.000000 0.8694 0.8701 0.8707 0.8718 0.8729
593.000000 0.8740 0.8751 0.8765 0.8779 0.8794
598.000000 0.8809 0.8823 0.8837 0.8851 0.8865
603.000000 0.8878 0.8891 0.8904 0.8916 0.8925
608.000000 0.8932 0.8938 0.8945 0.8951 0.8956
613.000000 0.8960 0.8965 0.8969 0.8974 0.8978
618.000000 0.8983 0.8985 0.8991 0.8990 0.8992
623.000000 0.8995 0.8997 0.8999 0.8999 0.8999
628.000000 0.8999 0.8999 0.8999 0.8999 0.8999
633.000000 0.8999 0.8999 0.8997 0.8996 0.8995
638.000000 0.8993 0.8992 0.8991 0.8990 0.8988
643.000000 0.8985 0.8980 0.8975 0.8970 0.8965
648.000000 0.8960 0.8956 0.8953 0.8949 0.8946
653.000000 0.8943 0.8939 0.8936 0.8933 0.8930
658.000000 0.8927 0.8925 0.8922 0.8919 0.8916
663.000000 0.8913 0.8910 0.8906 0.8903 0.8900
668.000000 0.8896 0.8893 0.8890 0.8888 0.8887
673.000000 0.8886 0.8885 0.8884 0.8884 0.8883
678.000000 0.8882 0.8881 0.8881 0.8884 0.8887
683.000000 0.8890 0.8894 0.8897 0.8900 0.8903
688.000000 0.8906 0.8910 0.8913 0.8916 0.8919
693.000000 0.8922 0.8925 0.8928 0.8931 0.8934
698.000000 0.8938 0.8939 0.8938 0.8937 0.8937
703.000000 0.8936 0.8935 0.8929 0.8921 0.8914
708.000000 0.8906 0.8899 0.8892 0.8884 0.8873
713.000000 0.8862 0.8851 0.8840 0.8830 0.8819
718.000000 0.8808 0.8797 0.8778 0.8759 0.8740
723.000000 0.8721 0.8698 0.8673 0.8648 0.8623
728.000000 0.8600 0.8582 0.8563 0.8545 0.8528
733.000000 0.8521 0.8520 0.8518 0.8518 0.8518
738.000000 0.8519 0.8522 0.8520 0.8520 0.8521
743.000000 0.8522 0.8524 0.8528 0.8532 0.8536
748.000000 0.8540 0.8548 0.8560 0.8572 0.8583
753.000000 0.8602 0.8621 0.8640 0.8659 0.8678
758.000000 0.8698 0.8718 0.8737 0.8757 0.8777
763.000000 0.8803 0.8828 0.8853 0.8865 0.8873
768.000000 0.8879 0.8878 0.8878 0.8877 0.8877
773.000000 0.8876 0.8876 0.8876 0.8875 0.8873
778.000000 0.8872 0.8870 0.8869 0.8868 0.8869
783.000000 0.8870 0.8871 0.8872 0.8880 0.8889
788.000000 0.8898 0.8909 0.8920 0.8928 0.8932
793.000000 0.8936 0.8932 0.8921 0.8907 0.8885
798.000000 0.8863 0.8845 0.8832 0.8820 0.8816
803.000000 0.8811 0.8807 0.8802 0.8799 0.8795
808.000000 0.8803 0.8805 0.8808 0.8812 0.8817
813.000000 0.8823 0.8830 0.8837 0.8844 0.8847
818.000000 0.8850 0.8853 0.8856 0.8859 0.8861
823.000000 0.8863 0.8865 0.8866 0.8868 0.8870
828.000000 0.8871 0.8873 0.8874 0.8876 0.8877
833.000000 0.8879 0.8880 0.8881 0.8881 0.8882
838.000000 0.8882 0.8882 0.8882 0.8883 0.8883
843.000000 0.8883 0.8884 0.8884 0.8884 0.8885
848.000000 0.8885 0.8883 0.8882 0.8880 0.8879
853.000000 0.8877 0.8876 0.8874 0.8873 0.8871
858.000000 0.8870 0.8868 0.8867 0.8865 0.8864
863.000000 0.8862 0.8861 0.8859 0.8858 0.8856
868.000000 0.8855 0.8851 0.8848 0.8845 0.8842
873.000000 0.8838 0.8835 0.8832 0.8829 0.8826
878.000000 0.8822 0.8817 0.8806 0.8795 0.8783
883.000000 0.8772 0.8751 0.8718 0.8684 0.8646
888.000000 0.8599 0.8551 0.8504 0.8402 0.8270
893.000000 0.8138 0.8005 0.7873 0.7741 0.7608
898.000000 0.7476 0.7343 0.7211 0.7079 0.6946
903.000000 0.6795 0.6667 0.6570 0.6486 0.6390
908.000000 0.6268 0.6156 0.6056 0.5988 0.5920
913.000000 0.5868 0.5827 0.5786 0.5773 0.5759
918.000000 0.5744 0.5743 0.5741 0.5327 0.4266
923.000000 0.3205 0.2144 0.1083 0.0835 0.2131
928.000000 0.4173 0.5752 0.5737 0.5724 0.5682
933.000000 0.5672 0.5678 0.5687 0.5706 0.5727
938.000000 0.5747 0.5787 0.5837 0.5901 0.6017
943.000000 0.6154 0.6290 0.6427 0.6563 0.6700
948.000000 0.6836 0.6997 0.7105 0.7210 0.7396
953.000000 0.7534 0.7659 0.8302 0.8374 0.8414
958.000000 0.8439 0.8465 0.8490 0.8508 0.8527
963.000000 0.8546 0.8564 0.8583 0.8600 0.8613
968.000000 0.8627 0.8641 0.8653 0.8664 0.8676
973.000000 0.8687 0.8698 0.8706 0.8714 0.8722
978.000000 0.8730 0.8738 0.8742 0.8744 0.8772
983.000000 0.8748 0.8748 0.8741 0.8734 0.8727
988.000000 0.8721 0.8714 0.8703 0.8693 0.8682
993.000000 0.8672 0.8661 0.8650 0.8630 0.8611
998.000000 0.8591 0.8561 0.8527 0.8493 0.8457
1003.000000 0.8387 0.8315 0.8236 0.8211 0.8198
1008.000000 0.8172 0.8201 0.8211 0.8239 0.8284
1013.000000 0.8305 0.8312 0.8318 0.8351 0.8322
1018.000000 0.8295 0.8203 0.8156 0.8125 0.8117
1023.000000 0.8121 0.8115 0.8170 0.8211 0.8256
1028.000000 0.8306 0.8357 0.8408 0.8461 0.8515
1033.000000 0.8563 0.8608 0.8649 0.8674 0.8698
1038.000000 0.8723 0.8740 0.8749 0.8758 0.8767
1043.000000 0.8773 0.8772 0.8771 0.8776 0.8809
1048.000000 0.8820 0.8825 0.8827 0.8828 0.8830
1053.000000 0.8833 0.8837 0.8841 0.8845 0.8850
1058.000000 0.8854 0.8858 0.8865 0.8873 0.8873
1063.000000 0.8869 0.8865 0.8862 0.8858 0.8855
1068.000000 0.8851 0.8848 0.8846 0.8844 0.8841
1073.000000 0.8839 0.8837 0.8837 0.8837 0.8837
1078.000000 0.8837 0.8837 0.8837 0.8837 0.8837
1083.000000 0.8839 0.8841 0.8842 0.8844 0.8845
1088.000000 0.8847 0.8848 0.8850 0.8852 0.8853
1093.000000 0.8855 0.8857 0.8858 0.8860 0.8862
1098.000000 0.8864 0.8865 0.8866 0.8867 0.8868
1103.000000 0.8869 0.8870 0.8871 0.8872 0.8872
1108.000000 0.8872 0.8872 0.8872 0.8873 0.8873
1113.000000 0.8873 0.8873 0.8873 0.8873 0.8873
1118.000000 0.8874 0.8877 0.8880 0.8882 0.8885
1123.000000 0.8888 0.8896 0.8906 0.8917 0.8927
1128.000000 0.8935 0.8934 0.8932 0.8931 0.8926
1133.000000 0.8922 0.8918 0.8915 0.8912 0.8909
1138.000000 0.8907 0.8904 0.8912 0.8904 0.8904
1143.000000 0.8904 0.8904 0.8905 0.8906 0.8907
1148.000000 0.8909 0.8910 0.8911 0.8913 0.8914
1153.000000 0.8915 0.8917 0.8921 0.8925 0.8928
1158.000000 0.8932 0.8935 0.8939 0.8942 0.8946
1163.000000 0.8949 0.8953 0.8956 0.8959 0.8962
1168.000000 0.8966 0.8969 0.8972 0.8975 0.8978
1173.000000 0.8982 0.8985 0.8988 0.8991 0.8993
1178.000000 0.8996 0.8999 0.9002 0.9003 0.9005
1183.000000 0.9006 0.9007 0.9008 0.9010 0.9011
1188.000000 0.9012 0.9014 0.9015 0.9016 0.9018
1193.000000 0.9020 0.9022 0.9024 0.9027 0.9029
1198.000000 0.9031 0.9034 0.9036 0.9038 0.9041
1203.000000 0.9042 0.9042 0.9043 0.9043 0.9044
1208.000000 0.9044 0.9045 0.9045 0.9046 0.9047
1213.000000 0.9049 0.9050 0.9051 0.9053 0.9054
1218.000000 0.9056 0.9057 0.9058 0.9060 0.9061
1223.000000 0.9066 0.9071 0.9076 0.9082 0.9083
1228.000000 0.9078 0.9073 0.9067 0.9061 0.9054
1233.000000 0.9047 0.9040 0.9019 0.8994 0.8967
1238.000000 0.8939 0.8912 0.8885 0.8857 0.8820
1243.000000 0.8779 0.8738 0.8697 0.8638 0.8578
1248.000000 0.8518 0.8448 0.8376 0.8315 0.8256
1253.000000 0.8169 0.8084 0.8016 0.7949 0.7887
1258.000000 0.7826 0.7771 0.7735 0.7730 0.7745
1263.000000 0.7770 0.7815 0.7855 0.7878 0.7881
1268.000000 0.7886 0.7813 0.7513 0.7470 0.7637
1273.000000 0.8009 0.8013 0.7888 0.7786 0.7684
1278.000000 0.7625 0.7627 0.7637 0.7696 0.7833
1283.000000 0.7954 0.8105 0.8257 0.8387 0.8470
1288.000000 0.8517 0.8563 0.8612 0.8662 0.8713
1293.000000 0.8750 0.8786 0.8804 0.8816 0.8827
1298.000000 0.8833 0.8836 0.8839 0.8843 0.8843
1303.000000 0.8843 0.8843 0.8843 0.8843 0.8812
1308.000000 0.8843 0.8843 0.8843 0.8843 0.8841
1313.000000 0.8840 0.8839 0.8837 0.8836 0.8835
1318.000000 0.8833 0.8832 0.8833 0.8836 0.8839
1323.000000 0.8842 0.8844 0.8847 0.8850 0.8851
1328.000000 0.8850 0.8849 0.8848 0.8847 0.8847
1333.000000 0.8846 0.8845 0.8844 0.8843 0.8840
1338.000000 0.8837 0.8834 0.8831 0.8825 0.8813
1343.000000 0.8801 0.8788 0.8776 0.8764 0.8747
1348.000000 0.8729 0.8711 0.8693 0.8675 0.8657
1353.000000 0.8639 0.8621 0.8600 0.8577 0.8555
1358.000000 0.8532 0.8510 0.8487 0.8465 0.8443
1363.000000 0.8422 0.8400 0.8378 0.8356 0.8334
1368.000000 0.8308 0.8278 0.8247 0.8217 0.8180
1373.000000 0.8140 0.8121 0.8112 0.8112 0.8128
1378.000000 0.8127 0.8193 0.8280 0.8368 0.8455
1383.000000 0.8473 0.8457 0.8477 0.8176 0.8035
1388.000000 0.7895 0.7754 0.7669 0.7667 0.7655
1393.000000 0.7665 0.7680 0.7724 0.7773 0.7840
1398.000000 0.7914 0.7977 0.8010 0.8037 0.8060
1403.000000 0.8077 0.8090 0.8099 0.8108 0.8114
1408.000000 0.8120 0.8125 0.8128 0.8156 0.8117
1413.000000 0.8111 0.8106 0.8095 0.8084 0.8073
1418.000000 0.8063 0.8053 0.8028 0.8001 0.7968
1423.000000 0.7932 0.7884 0.7839 0.7837 0.7839
1428.000000 0.7843 0.7847 0.7850 0.7845 0.7840
1433.000000 0.7823 0.7770 0.7717 0.7666 0.7624
1438.000000 0.7583 0.7522 0.7457 0.7395 0.7332
1443.000000 0.7227 0.7098 0.6896 0.6703 0.6509
1448.000000 0.6316 0.6123 0.6035 0.6045 0.6418
1453.000000 0.6760 0.6723 0.6740 0.6706 0.6657
1458.000000 0.6613 0.6568 0.6520 0.6496 0.6510
1463.000000 0.6482 0.6530 0.6555 0.6570 0.6581
1468.000000 0.6588 0.6593 0.7069 0.7161 0.7205
1473.000000 0.7243 0.7275 0.7313 0.7351 0.7395
1478.000000 0.7452 0.7524 0.7624 0.7815 0.7988
1483.000000 0.8123 0.8249 0.8369 0.8459 0.8504
1488.000000 0.8548 0.8593 0.8630 0.8661 0.8691
1493.000000 0.8704 0.8716 0.8728 0.8740 0.8752
1498.000000 0.8764 0.8776 0.8788 0.8798 0.8808
1503.000000 0.8818 0.8822 0.8823 0.8824 0.8825
1508.000000 0.8825 0.8826 0.8826 0.8827 0.8827
1513.000000 0.8828 0.8828 0.8829 0.8828 0.8827
1518.000000 0.8826 0.8825 0.8825 0.8825 0.8825
1523.000000 0.8825 0.8825 0.8825 0.8825 0.8824
1528.000000 0.8824 0.8841 0.8823 0.8822 0.8822
1533.000000 0.8822 0.8821 0.8821 0.8820 0.8820
1538.000000 0.8819 0.8819 0.8819 0.8818 0.8816
1543.000000 0.8811 0.8806 0.8801 0.8795 0.8790
1548.000000 0.8785 0.8783 0.8783 0.8789 0.8797
1553.000000 0.8803 0.8808 0.8809 0.8806 0.8802
1558.000000 0.8798 0.8784 0.8770 0.8750 0.8731
1563.000000 0.8714 0.8712 0.8709 0.8704 0.8700
1568.000000 0.8696 0.8693 0.8688 0.8681 0.8675
1573.000000 0.8669 0.8665 0.8662 0.8659 0.8655
1578.000000 0.8652 0.8648 0.8643 0.8638 0.8631
1583.000000 0.8625 0.8619 0.8613 0.8606 0.8598
1588.000000 0.8586 0.8574 0.8560 0.8546 0.8532
1593.000000 0.8517 0.8503 0.8489 0.8472 0.8454
1598.000000 0.8435 0.8417 0.8399 0.8375 0.8345
1603.000000 0.8314 0.8284 0.8252 0.8217 0.8182
1608.000000 0.8147 0.8112 0.8070 0.8020 0.7970
1613.000000 0.7920 0.7873 0.7826 0.7779 0.7699
1618.000000 0.7615 0.7526 0.7421 0.7334 0.7327
1623.000000 0.7328 0.7342 0.7386 0.7469 0.7560
1628.000000 0.7650 0.7741 0.7804 0.7790 0.7761
1633.000000 0.7565 0.7369 0.7173 0.7140 0.7131
1638.000000 0.7112 0.7143 0.7182 0.7275 0.7436
1643.000000 0.7623 0.7766 0.7840 0.7892 0.7932
1648.000000 0.7975 0.8047 0.8122 0.8200 0.8287
1653.000000 0.8351 0.8377 0.8394 0.8410 0.8426
1658.000000 0.8441 0.8458 0.8475 0.8500 0.8531
1663.000000 0.8562 0.8601 0.8651 0.8691 0.8720
1668.000000 0.8749 0.8774 0.8786 0.8794 0.8801
1673.000000 0.8809 0.8816 0.8823 0.8829 0.8830
1678.000000 0.8832 0.8833 0.8833 0.8833 0.8833
1683.000000 0.8833 0.8833 0.8833 0.8833 0.8832
1688.000000 0.8832 0.8831 0.8830 0.8830 0.8828
1693.000000 0.8827 0.8825 0.8823 0.8822 0.8820
1698.000000 0.8818 0.8817 0.8815 0.8813 0.8812
1703.000000 0.8810 0.8808 0.8806 0.8804 0.8802
1708.000000 0.8801 0.8799 0.8798 0.8796 0.8795
1713.000000 0.8793 0.8791 0.8789 0.8787 0.8785
1718.000000 0.8783 0.8781 0.8779 0.8777 0.8775
1723.000000 0.8773 0.8771 0.8769 0.8767 0.8765
1728.000000 0.8763 0.8761 0.8760 0.8758 0.8756
1733.000000 0.8755 0.8755 0.8759 0.8796 0.8769
1738.000000 0.8773 0.8778 0.8782 0.8787 0.8792
1743.000000 0.8798 0.8804 0.8809 0.8815 0.8820
1748.000000 0.8826 0.8832 0.8836 0.8840 0.8843
1753.000000 0.8844 0.8846 0.8847 0.8848 0.8849
1758.000000 0.8850 0.8852 0.8853 0.8855 0.8857
1763.000000 0.8859 0.8861 0.8863 0.8864 0.8866
1768.000000 0.8868 0.8870 0.8871 0.8872 0.8872
1773.000000 0.8873 0.8874 0.8874 0.8875 0.8877
1778.000000 0.8879 0.8881 0.8883 0.8885 0.8886
1783.000000 0.8886 0.8886 0.8886 0.8886 0.8886
1788.000000 0.8887 0.8887 0.8887 0.8887 0.8887
1793.000000 0.8887 0.8887 0.8887 0.8887 0.8887
1798.000000 0.8887 0.8885 0.8884 0.8882 0.8880
1803.000000 0.8879 0.8877 0.8876 0.8873 0.8869
1808.000000 0.8866 0.8863 0.8859 0.8856 0.8853
1813.000000 0.8849 0.8846 0.8843 0.8839 0.8836
1818.000000 0.8832 0.8820 0.8807 0.8794 0.8782
1823.000000 0.8769 0.8756 0.8744 0.8722 0.8700
1828.000000 0.8678 0.8656 0.8634 0.8607 0.8572
1833.000000 0.8537 0.8502 0.8466 0.8429 0.8392
1838.000000 0.8355 0.8318 0.8277 0.8233 0.8190
1843.000000 0.8193 0.8198 0.8206 0.8212 0.8218
1848.000000 0.8239 0.8260 0.8300 0.8351 0.8374
1853.000000 0.8376 0.8396 0.8322 0.8247 0.8167
1858.000000 0.8148 0.8144 0.8117 0.8144 0.8147
1863.000000 0.8163 0.8183 0.8214 0.8250 0.8291
1868.000000 0.8352 0.8428 0.8501 0.8559 0.8609
1873.000000 0.8652 0.8691 0.8727 0.8762 0.8781
1878.000000 0.8800 0.8808 0.8815 0.8820 0.8822
1883.000000 0.8825 0.8827 0.8829 0.8830 0.8832
1888.000000 0.8834 0.8835 0.8836 0.8836 0.8837
1893.000000 0.8838 0.8839 0.8840 0.8843 0.8845
1898.000000 0.8847 0.8849 0.8851 0.8852 0.8853
1903.000000 0.8853 0.8854 0.8855 0.8856 0.8857
1908.000000 0.8858 0.8859 0.8860 0.8860 0.8861
1913.000000 0.8862 0.8863 0.8863 0.8863 0.8863
1918.000000 0.8863 0.8863 0.8863 0.8863 0.8863
1923.000000 0.8863 0.8863 0.8864 0.8866 0.8867
1928.000000 0.8868 0.8870 0.8871 0.8872 0.8874
1933.000000 0.8875 0.8876 0.8878 0.8879 0.8880
1938.000000 0.8882 0.8883 0.8884 0.8886 0.8887
1943.000000 0.8887 0.8888 0.8889 0.8889 0.8926
1948.000000 0.8891 0.8901 0.8911 0.8933 0.8947
1953.000000 0.8951 0.8950 0.8944 0.8934 0.8924
1958.000000 0.8912 0.8902 0.8895 0.8889 0.8885
1963.000000 0.8881 0.8877 0.8875 0.8874 0.8873
1968.000000 0.8872 0.8870 0.8868 0.8866 0.8864
1973.000000 0.8863 0.8863 0.8862 0.8861 0.8861
1978.000000 0.8861 0.8862 0.8863 0.8864 0.8865
1983.000000 0.8866 0.8866 0.8867 0.8868 0.8869
1988.000000 0.8870 0.8871 0.8872 0.8873 0.8873
1993.000000 0.8874 0.8875 0.8876 0.8877 0.8879
1998.000000 0.8881 0.8882 0.8884 0.8886 0.8888
2003.000000 0.8888 0.8889 0.8890 0.8891 0.8892
2008.000000 0.8893 0.8894 0.8895 0.8895 0.8896
2013.000000 0.8897 0.8898 0.8899 0.8900 0.8901
2018.000000 0.8902 0.8902 0.8903 0.8904 0.8905
2023.000000 0.8905 0.8906 0.8906 0.8907 0.8907
2028.000000 0.8908 0.8909 0.8910 0.8910 0.8911
2033.000000 0.8911 0.8912 0.8912 0.8913 0.8914
2038.000000 0.8915 0.8915 0.8916 0.8916 0.8917
2043.000000 0.8917 0.8918 0.8918 0.8919 0.8920
2048.000000 0.8921 0.8921 0.8922 0.8922 0.8923
2053.000000 0.8923 0.8924 0.8924 0.8925 0.8926
2058.000000 0.8927 0.8927 0.8928 0.8928 0.8929
2063.000000 0.8929 0.8930 0.8930 0.8931 0.8931
2068.000000 0.8932 0.8932 0.8933 0.8933 0.8934
2073.000000 0.8934 0.8935 0.8935 0.8936 0.8936
2078.000000 0.8937 0.8938 0.8939 0.8939 0.8940
2083.000000 0.8940 0.8940 0.8939 0.8939 0.8939
2088.000000 0.8939 0.8939 0.8939 0.8939 0.8939
2093.000000 0.8939 0.8939 0.8938 0.8938 0.8938
2098.000000 0.8938 0.8938 0.8938 0.8938 0.8938
2103.000000 0.8937 0.8937 0.8937 0.8937 0.8937
2108.000000 0.8937 0.8937 0.8937 0.8937 0.8937
2113.000000 0.8936 0.8936 0.8936 0.8936 0.8935
2118.000000 0.8935 0.8934 0.8933 0.8932 0.8932
2123.000000 0.8931 0.8931 0.8930 0.8930 0.8929
2128.000000 0.8929 0.8928 0.8928 0.8927 0.8927
2133.000000 0.8926 0.8925 0.8924 0.8924 0.8923
2138.000000 0.8923 0.8922 0.8922 0.8921 0.8921
2143.000000 0.8920 0.8920 0.8919 0.8919 0.8918
2148.000000 0.8918 0.8917 0.8916 0.8915 0.8915
2153.000000 0.8914 0.8914 0.8913 0.8913 0.8912
2158.000000 0.8912 0.8911 0.8911 0.8910 0.8910
2163.000000 0.8909 0.8909 0.8908 0.8908 0.8907
2168.000000 0.8907 0.8906 0.8906 0.8905 0.8905
2173.000000 0.8904 0.8904 0.8903 0.8903 0.8902
2178.000000 0.8902 0.8901 0.8901 0.8900 0.8900
2183.000000 0.8899 0.8898 0.8897 0.8897 0.8896
2188.000000 0.8896 0.8895 0.8895 0.8894 0.8893
2193.000000 0.8889 0.8886 0.8882 0.8879 0.8875
2198.000000 0.8872 0.8868 0.8865 0.8861 0.8858
2203.000000 0.8854 0.8851 0.8846 0.8841 0.8831
2208.000000 0.8821 0.8811 0.8801 0.8791 0.8781
2213.000000 0.8770 0.8760 0.8749 0.8738 0.8727
2218.000000 0.8716 0.8704 0.8693 0.8682 0.8671
2223.000000 0.8668 0.8666 0.8664 0.8663 0.8661
2228.000000 0.8660 0.8663 0.8667 0.8670 0.8674
2233.000000 0.8677 0.8681 0.8686 0.8691 0.8696
2238.000000 0.8701 0.8705 0.8710 0.8716 0.8723
2243.000000 0.8729 0.8736 0.8743 0.8750 0.8761
2248.000000 0.8773 0.8785 0.8798 0.8811 0.8824
2253.000000 0.8839 0.8854 0.8866 0.8878 0.8884
2258.000000 0.8891 0.8898 0.8905 0.8912 0.8919
2263.000000 0.8921 0.8924 0.8924 0.8925 0.8925
2268.000000 0.8926 0.8926 0.8927 0.8927 0.8928
2273.000000 0.8928 0.8928 0.8928 0.8929 0.8929
2278.000000 0.8930 0.8930 0.8930 0.8930 0.8930
2283.000000 0.8929 0.8929 0.8928 0.8927 0.8926
2288.000000 0.8926 0.8925 0.8924 0.8923 0.8923
2293.000000 0.8922 0.8921 0.8920 0.8920 0.8919
2298.000000 0.8918 0.8917 0.8917 0.8916 0.8915
2303.000000 0.8914 0.8914 0.8913 0.8913 0.8912
2308.000000 0.8912 0.8911 0.8911 0.8910 0.8909
2313.000000 0.8908 0.8908 0.8907 0.8907 0.8906
2318.000000 0.8906 0.8905 0.8904 0.8903 0.8902
2323.000000 0.8901 0.8900 0.8898 0.8897 0.8896
2328.000000 0.8895 0.8893 0.8892 0.8891 0.8890
2333.000000 0.8888 0.8887 0.8886 0.8885 0.8883
2338.000000 0.8882 0.8881 0.8880 0.8878 0.8877
2343.000000 0.8876 0.8875 0.8874 0.8873 0.8871
2348.000000 0.8870 0.8869 0.8868 0.8867 0.8866
2353.000000 0.8864 0.8863 0.8862 0.8861 0.8860
2358.000000 0.8859 0.8858 0.8857 0.8855 0.8854
2363.000000 0.8853 0.8852 0.8851 0.8850 0.8848
2368.000000 0.8847 0.8846 0.8845 0.8844 0.8843
2373.000000 0.8842 0.8841 0.8839 0.8838 0.8837
2378.000000 0.8836 0.8835 0.8834 0.8832 0.8831
2383.000000 0.8830 0.8830 0.8829 0.8829 0.8828
2388.000000 0.8828 0.8827 0.8827 0.8826 0.8826
2393.000000 0.8826 0.8826 0.8825 0.8825 0.8824
2398.000000 0.8824 0.8823 0.8823 0.8822 0.8822
2403.000000 0.8821 0.8832 0.8820 0.8820 0.8819
2408.000000 0.8819 0.8819 0.8819 0.8818 0.8818
2413.000000 0.8818 0.8818 0.8818 0.8818 0.8817
2418.000000 0.8817 0.8817 0.8817 0.8817 0.8817
2423.000000 0.8819 0.8822 0.8824 0.8826 0.8830
2428.000000 0.8834 0.8840 0.8846 0.8852 0.8859
2433.000000 0.8865 0.8871 0.8875 0.8879 0.8882
2438.000000 0.8886 0.8886 0.8886 0.8886 0.8886
2443.000000 0.8886 0.8886 0.8886 0.8886 0.8886
2448.000000 0.8886 0.8886 0.8886 0.8886 0.8886
2453.000000 0.8886 0.8886 0.8886 0.8886 0.8886
2458.000000 0.8886 0.8886 0.8886 0.8886 0.8886
2463.000000 0.8885 0.8885 0.8885 0.8885 0.8885
2468.000000 0.8885 0.8885 0.8885 0.8884 0.8884
2473.000000 0.8884 0.8884 0.8884 0.8884 0.8884
2478.000000 0.8884 0.8883 0.8883 0.8883 0.8883
2483.000000 0.8883 0.8883 0.8883 0.8884 0.8884
