##TITLE=2-BUTANOL, 1-AMINO-
##JCAMP-DX=4.24
$$ By DXEDIT 1.05 (RS McDonald)
##DATA TYPE=INFRARED SPECTRUM
##CLASS=COBLENTZ III
##ORIGIN=WYANDOTTE CHEMICALS CORP.
##OWNER=COBLENTZ SOC.
Collection (C) 2018 copyright by the U.S. Secretary of Commerce
on behalf of the United States of America. All rights reserved.
##DATE=1960/04/07
##NAMES=1-amino-2-butanol
##CAS REGISTRY NO=13552-21-1
##MOLFORM=C4 H11 N O
##BP=170.5 C (REDIST.)
##SOURCE REFERENCE=COBLENTZ NO. 05966
##$NIST SOURCE=COBLENTZ
##$NIST IMAGE=cob5966
##SPECTROMETER/DATA SYSTEM=BAIRD (GRATING)
##INSTRUMENT PARAMETERS=NaCl PRISM
##STATE=LIQUID (NEAT)
##PATH LENGTH=0.003 CM
##SAMPLING PROCEDURE=TRANSMISSION
##RESOLUTION=2
##DATA PROCESSING=DIGITIZED BY COBLENTZ SOCIETY (BATCH I) FROM HARD COPY
##XUNITS=1/CM
##YUNITS=TRANSMITTANCE
##XLABEL=Wavenumbers (cm-1)
##YLABEL=Transmittance
##XFACTOR=1
##YFACTOR=1
##DELTAX=1
##FIRSTX=4000
##LASTX=626
##FIRSTY=0.9542
##MAXX=4000
##MINX=626
##MAXY=0.9578
##MINY=0.0252
##NPOINTS=3375
##XYDATA=(X++(Y..Y))
4000.000000 0.9542 0.9543 0.9544 0.9545 0.9546
3995.000000 0.9547 0.9548 0.9549 0.9550 0.9551
3990.000000 0.9552 0.9553 0.9554 0.9555 0.9555
3985.000000 0.9556 0.9556 0.9557 0.9557 0.9557
3980.000000 0.9558 0.9558 0.9559 0.9559 0.9560
3975.000000 0.9560 0.9561 0.9561 0.9562 0.9562
3970.000000 0.9563 0.9563 0.9564 0.9564 0.9565
3965.000000 0.9565 0.9566 0.9566 0.9566 0.9567
3960.000000 0.9567 0.9568 0.9568 0.9568 0.9568
3955.000000 0.9570 0.9570 0.9570 0.9571 0.9571
3950.000000 0.9571 0.9571 0.9571 0.9571 0.9573
3945.000000 0.9573 0.9573 0.9574 0.9574 0.9574
3940.000000 0.9575 0.9575 0.9575 0.9575 0.9575
3935.000000 0.9575 0.9575 0.9575 0.9575 0.9575
3930.000000 0.9577 0.9577 0.9577 0.9578 0.9578
3925.000000 0.9578 0.9578 0.9578 0.9578 0.9578
3920.000000 0.9578 0.9578 0.9578 0.9577 0.9575
3915.000000 0.9574 0.9573 0.9571 0.9570 0.9568
3910.000000 0.9567 0.9566 0.9565 0.9563 0.9562
3905.000000 0.9561 0.9560 0.9559 0.9558 0.9556
3900.000000 0.9555 0.9554 0.9553 0.9551 0.9550
3895.000000 0.9549 0.9547 0.9546 0.9544 0.9543
3890.000000 0.9541 0.9540 0.9538 0.9537 0.9535
3885.000000 0.9533 0.9531 0.9528 0.9528 0.9525
3880.000000 0.9524 0.9521 0.9520 0.9518 0.9516
3875.000000 0.9514 0.9512 0.9510 0.9508 0.9506
3870.000000 0.9504 0.9503 0.9502 0.9501 0.9500
3865.000000 0.9499 0.9499 0.9498 0.9498 0.9497
3860.000000 0.9496 0.9496 0.9495 0.9495 0.9494
3855.000000 0.9493 0.9493 0.9492 0.9491 0.9491
3850.000000 0.9490 0.9490 0.9489 0.9489 0.9488
3845.000000 0.9488 0.9488 0.9487 0.9487 0.9487
3840.000000 0.9487 0.9487 0.9487 0.9488 0.9488
3835.000000 0.9488 0.9489 0.9489 0.9489 0.9490
3830.000000 0.9490 0.9490 0.9491 0.9491 0.9491
3825.000000 0.9492 0.9492 0.9492 0.9493 0.9493
3820.000000 0.9493 0.9494 0.9494 0.9494 0.9495
3815.000000 0.9495 0.9495 0.9496 0.9496 0.9496
3810.000000 0.9497 0.9497 0.9498 0.9498 0.9498
3805.000000 0.9499 0.9499 0.9499 0.9499 0.9499
3800.000000 0.9499 0.9500 0.9500 0.9500 0.9501
3795.000000 0.9501 0.9501 0.9502 0.9502 0.9502
3790.000000 0.9502 0.9502 0.9502 0.9503 0.9503
3785.000000 0.9504 0.9504 0.9504 0.9505 0.9505
3780.000000 0.9505 0.9506 0.9506 0.9506 0.9507
3775.000000 0.9507 0.9507 0.9507 0.9507 0.9507
3770.000000 0.9507 0.9507 0.9507 0.9506 0.9506
3765.000000 0.9505 0.9505 0.9505 0.9505 0.9505
3760.000000 0.9505 0.9504 0.9504 0.9504 0.9503
3755.000000 0.9503 0.9503 0.9502 0.9500 0.9499
3750.000000 0.9498 0.9492 0.9495 0.9494 0.9493
3745.000000 0.9492 0.9490 0.9489 0.9488 0.9487
3740.000000 0.9485 0.9484 0.9483 0.9482 0.9480
3735.000000 0.9478 0.9478 0.9477 0.9475 0.9474
3730.000000 0.9473 0.9471 0.9470 0.9468 0.9468
3725.000000 0.9466 0.9464 0.9461 0.9459 0.9457
3720.000000 0.9455 0.9452 0.9449 0.9447 0.9444
3715.000000 0.9441 0.9439 0.9436 0.9433 0.9430
3710.000000 0.9428 0.9425 0.9421 0.9418 0.9416
3705.000000 0.9413 0.9409 0.9406 0.9401 0.9397
3700.000000 0.9393 0.9389 0.9385 0.9381 0.9377
3695.000000 0.9373 0.9368 0.9364 0.9360 0.9356
3690.000000 0.9352 0.9348 0.9343 0.9339 0.9333
3685.000000 0.9328 0.9321 0.9317 0.9311 0.9305
3680.000000 0.9298 0.9291 0.9285 0.9278 0.9271
3675.000000 0.9264 0.9258 0.9251 0.9244 0.9237
3670.000000 0.9230 0.9224 0.9217 0.9210 0.9204
3665.000000 0.9197 0.9190 0.9183 0.9177 0.9170
3660.000000 0.9163 0.9155 0.9146 0.9138 0.9130
3655.000000 0.9121 0.9110 0.9099 0.9088 0.9075
3650.000000 0.9065 0.9053 0.9042 0.9030 0.9018
3645.000000 0.9007 0.8996 0.8984 0.8971 0.8960
3640.000000 0.8947 0.8935 0.8921 0.8906 0.8892
3635.000000 0.8877 0.8863 0.8848 0.8834 0.8818
3630.000000 0.8805 0.8790 0.8775 0.8763 0.8749
3625.000000 0.8735 0.8721 0.8708 0.8696 0.8685
3620.000000 0.8673 0.8661 0.8649 0.8637 0.8625
3615.000000 0.8614 0.8602 0.8590 0.8578 0.8566
3610.000000 0.8554 0.8542 0.8530 0.8518 0.8507
3605.000000 0.8495 0.8483 0.8471 0.8457 0.8439
3600.000000 0.8421 0.8403 0.8384 0.8366 0.8346
3595.000000 0.8325 0.8306 0.8286 0.8266 0.8246
3590.000000 0.8225 0.8206 0.8186 0.8165 0.8147
3585.000000 0.8130 0.8111 0.8094 0.8075 0.8061
3580.000000 0.8046 0.8030 0.8015 0.8000 0.7985
3575.000000 0.7969 0.7955 0.7940 0.7925 0.7910
3570.000000 0.7895 0.7880 0.7865 0.7850 0.7833
3565.000000 0.7811 0.7791 0.7771 0.7750 0.7728
3560.000000 0.7708 0.7687 0.7665 0.7645 0.7625
3555.000000 0.7604 0.7583 0.7561 0.7541 0.7519
3550.000000 0.7501 0.7483 0.7464 0.7445 0.7426
3545.000000 0.7408 0.7390 0.7371 0.7353 0.7334
3540.000000 0.7315 0.7297 0.7278 0.7261 0.7242
3535.000000 0.7225 0.7207 0.7190 0.7172 0.7155
3530.000000 0.7141 0.7126 0.7112 0.7099 0.7085
3525.000000 0.7071 0.7057 0.7043 0.7028 0.7015
3520.000000 0.7001 0.6987 0.6972 0.6958 0.6945
3515.000000 0.6931 0.6917 0.6903 0.6888 0.6856
3510.000000 0.6765 0.6674 0.6582 0.6491 0.6411
3505.000000 0.6358 0.6304 0.6250 0.6196 0.6157
3500.000000 0.6139 0.6122 0.6104 0.6087 0.6070
3495.000000 0.6052 0.6035 0.6018 0.6000 0.5968
3490.000000 0.5926 0.5884 0.5842 0.5800 0.5741
3485.000000 0.5676 0.5610 0.5546 0.5481 0.5442
3480.000000 0.5406 0.5370 0.5334 0.5298 0.5276
3475.000000 0.5253 0.5231 0.5208 0.5173 0.5094
3470.000000 0.5015 0.4936 0.4856 0.4797 0.4767
3465.000000 0.4737 0.4707 0.4677 0.4647 0.4617
3460.000000 0.4587 0.4556 0.4526 0.4496 0.4466
3455.000000 0.4436 0.4405 0.4375 0.4345 0.4314
3450.000000 0.4284 0.4254 0.4223 0.4193 0.4162
3445.000000 0.4131 0.4101 0.4071 0.4040 0.4009
3440.000000 0.3979 0.3949 0.3918 0.3888 0.3857
3435.000000 0.3826 0.3795 0.3764 0.3734 0.3704
3430.000000 0.3673 0.3643 0.3612 0.3580 0.3550
3425.000000 0.3518 0.3488 0.3458 0.3427 0.3396
3420.000000 0.3364 0.3334 0.3303 0.3272 0.3241
3415.000000 0.3209 0.3179 0.3148 0.3117 0.3087
3410.000000 0.3055 0.3024 0.2993 0.2962 0.2931
3405.000000 0.2899 0.2868 0.2837 0.2806 0.2774
3400.000000 0.2743 0.2712 0.2681 0.2650 0.2618
3395.000000 0.2587 0.2555 0.2524 0.2490 0.2444
3390.000000 0.2397 0.2350 0.2303 0.2262 0.2225
3385.000000 0.2189 0.2152 0.2115 0.2083 0.2051
3380.000000 0.2019 0.1986 0.1961 0.1944 0.1929
3375.000000 0.1913 0.1896 0.1882 0.1866 0.1850
3370.000000 0.1834 0.1818 0.1802 0.1785 0.1771
3365.000000 0.1754 0.1729 0.1701 0.1672 0.1643
3360.000000 0.1583 0.1410 0.1237 0.1064 0.0891
3355.000000 0.0821 0.0794 0.0768 0.0741 0.0718
3350.000000 0.0705 0.0691 0.0678 0.0665 0.0652
3345.000000 0.0638 0.0625 0.0612 0.0600 0.0594
3340.000000 0.0588 0.0582 0.0576 0.0574 0.0573
3335.000000 0.0572 0.0571 0.0571 0.0571 0.0571
3330.000000 0.0571 0.0571 0.0571 0.0571 0.0571
3325.000000 0.0571 0.0572 0.0572 0.0572 0.0572
3320.000000 0.0573 0.0576 0.0579 0.0582 0.0584
3315.000000 0.0588 0.0592 0.0595 0.0599 0.0602
3310.000000 0.0606 0.0609 0.0613 0.0616 0.0620
3305.000000 0.0623 0.0626 0.0630 0.0633 0.0636
3300.000000 0.0640 0.0643 0.0646 0.0647 0.0648
3295.000000 0.0650 0.0651 0.0647 0.0642 0.0637
3290.000000 0.0631 0.0626 0.0621 0.0615 0.0610
3285.000000 0.0605 0.0600 0.0595 0.0590 0.0585
3280.000000 0.0581 0.0577 0.0573 0.0555 0.0565
3275.000000 0.0561 0.0557 0.0553 0.0550 0.0547
3270.000000 0.0544 0.0541 0.0541 0.0540 0.0544
3265.000000 0.0547 0.0550 0.0552 0.0555 0.0558
3260.000000 0.0561 0.0565 0.0572 0.0578 0.0584
3255.000000 0.0591 0.0598 0.0605 0.0612 0.0619
3250.000000 0.0626 0.0633 0.0639 0.0646 0.0649
3245.000000 0.0650 0.0652 0.0654 0.0655 0.0657
3240.000000 0.0659 0.0660 0.0662 0.0664 0.0665
3235.000000 0.0667 0.0669 0.0671 0.0673 0.0675
3230.000000 0.0676 0.0677 0.0678 0.0679 0.0679
3225.000000 0.0678 0.0677 0.0675 0.0674 0.0673
3220.000000 0.0671 0.0670 0.0668 0.0667 0.0666
3215.000000 0.0664 0.0663 0.0662 0.0661 0.0659
3210.000000 0.0658 0.0656 0.0655 0.0653 0.0652
3205.000000 0.0650 0.0649 0.0648 0.0647 0.0645
3200.000000 0.0645 0.0644 0.0643 0.0643 0.0642
3195.000000 0.0641 0.0640 0.0640 0.0639 0.0638
3190.000000 0.0637 0.0637 0.0636 0.0636 0.0635
3185.000000 0.0635 0.0634 0.0634 0.0634 0.0634
3180.000000 0.0633 0.0633 0.0632 0.0632 0.0631
3175.000000 0.0631 0.0631 0.0631 0.0631 0.0631
3170.000000 0.0632 0.0632 0.0633 0.0635 0.0637
3165.000000 0.0639 0.0640 0.0642 0.0644 0.0646
3160.000000 0.0647 0.0649 0.0651 0.0653 0.0654
3155.000000 0.0656 0.0658 0.0660 0.0662 0.0663
3150.000000 0.0665 0.0667 0.0670 0.0674 0.0679
3145.000000 0.0683 0.0687 0.0692 0.0697 0.0701
3140.000000 0.0706 0.0711 0.0716 0.0720 0.0725
3135.000000 0.0730 0.0735 0.0740 0.0746 0.0752
3130.000000 0.0758 0.0764 0.0771 0.0779 0.0786
3125.000000 0.0794 0.0801 0.0808 0.0815 0.0822
3120.000000 0.0829 0.0837 0.0843 0.0851 0.0858
3115.000000 0.0865 0.0872 0.0880 0.0889 0.0897
3110.000000 0.0907 0.0916 0.0926 0.0936 0.0946
3105.000000 0.0956 0.0967 0.0976 0.0987 0.0996
3100.000000 0.1007 0.1017 0.1027 0.1038 0.1048
3095.000000 0.1059 0.1069 0.1082 0.1095 0.1108
3090.000000 0.1121 0.1136 0.1150 0.1165 0.1180
3085.000000 0.1194 0.1208 0.1223 0.1238 0.1252
3080.000000 0.1267 0.1282 0.1296 0.1311 0.1326
3075.000000 0.1341 0.1357 0.1373 0.1389 0.1405
3070.000000 0.1420 0.1436 0.1452 0.1468 0.1482
3065.000000 0.1496 0.1511 0.1525 0.1539 0.1553
3060.000000 0.1566 0.1580 0.1592 0.1607 0.1621
3055.000000 0.1634 0.1648 0.1662 0.1676 0.1692
3050.000000 0.1707 0.1722 0.1739 0.1757 0.1774
3045.000000 0.1792 0.1809 0.1826 0.1843 0.1861
3040.000000 0.1878 0.1895 0.1914 0.1929 0.1944
3035.000000 0.1959 0.1974 0.1984 0.1996 0.2008
3030.000000 0.2019 0.2029 0.2041 0.2052 0.2063
3025.000000 0.2074 0.2084 0.2096 0.2103 0.2110
3020.000000 0.2117 0.2123 0.2127 0.2130 0.2134
3015.000000 0.2135 0.2137 0.2138 0.2139 0.2139
3010.000000 0.2139 0.2139 0.2140 0.2140 0.2140
3005.000000 0.2140 0.2133 0.2126 0.2118 0.2110
3000.000000 0.2096 0.2083 0.2070 0.1974 0.1824
2995.000000 0.1675 0.1526 0.1487 0.1446 0.1408
2990.000000 0.1366 0.1322 0.1278 0.1234 0.1057
2985.000000 0.0857 0.0658 0.0509 0.0477 0.0448
2980.000000 0.0417 0.0394 0.0372 0.0351 0.0331
2975.000000 0.0320 0.0309 0.0298 0.0290 0.0284
2970.000000 0.0277 0.0271 0.0270 0.0268 0.0267
2965.000000 0.0266 0.0266 0.0265 0.0263 0.0263
2960.000000 0.0262 0.0261 0.0260 0.0259 0.0258
2955.000000 0.0256 0.0255 0.0254 0.0253 0.0252
2950.000000 0.0252 0.0252 0.0252 0.0252 0.0252
2945.000000 0.0252 0.0253 0.0253 0.0253 0.0253
2940.000000 0.0253 0.0253 0.0253 0.0253 0.0253
2935.000000 0.0253 0.0254 0.0254 0.0255 0.0255
2930.000000 0.0257 0.0259 0.0261 0.0263 0.0266
2925.000000 0.0267 0.0270 0.0273 0.0275 0.0277
2920.000000 0.0279 0.0282 0.0284 0.0287 0.0290
2915.000000 0.0293 0.0297 0.0300 0.0303 0.0306
2910.000000 0.0309 0.0312 0.0314 0.0316 0.0321
2905.000000 0.0324 0.0327 0.0331 0.0335 0.0339
2900.000000 0.0342 0.0346 0.0349 0.0353 0.0354
2895.000000 0.0355 0.0356 0.0356 0.0355 0.0354
2890.000000 0.0353 0.0349 0.0345 0.0341 0.0337
2885.000000 0.0334 0.0330 0.0328 0.0327 0.0325
2880.000000 0.0324 0.0323 0.0322 0.0321 0.0318
2875.000000 0.0317 0.0316 0.0316 0.0315 0.0314
2870.000000 0.0314 0.0315 0.0316 0.0316 0.0318
2865.000000 0.0320 0.0321 0.0322 0.0324 0.0325
2860.000000 0.0327 0.0329 0.0332 0.0335 0.0338
2855.000000 0.0342 0.0345 0.0354 0.0364 0.0374
2850.000000 0.0387 0.0403 0.0417 0.0433 0.0448
2845.000000 0.0464 0.0479 0.0498 0.0517 0.0536
2840.000000 0.0555 0.0574 0.0593 0.0612 0.0631
2835.000000 0.0650 0.0669 0.0688 0.0707 0.0727
2830.000000 0.0747 0.0767 0.0788 0.0815 0.0842
2825.000000 0.0869 0.0895 0.0922 0.0949 0.0975
2820.000000 0.1002 0.1029 0.1056 0.1083 0.1110
2815.000000 0.1137 0.1165 0.1192 0.1220 0.1246
2810.000000 0.1274 0.1301 0.1328 0.1356 0.1383
2805.000000 0.1412 0.1442 0.1471 0.1503 0.1537
2800.000000 0.1570 0.1601 0.1629 0.1659 0.1682
2795.000000 0.1699 0.1715 0.1731 0.1748 0.1764
2790.000000 0.1779 0.1796 0.1813 0.1829 0.1840
2785.000000 0.1851 0.1862 0.1872 0.1882 0.1891
2780.000000 0.1901 0.1911 0.1920 0.1929 0.1940
2775.000000 0.1950 0.1959 0.1969 0.1979 0.1986
2770.000000 0.1994 0.2001 0.2008 0.2014 0.2020
2765.000000 0.2027 0.2033 0.2039 0.2044 0.2051
2760.000000 0.2058 0.2064 0.2071 0.2077 0.2084
2755.000000 0.2090 0.2096 0.2102 0.2109 0.2115
2750.000000 0.2121 0.2127 0.2132 0.2138 0.2143
2745.000000 0.2148 0.2154 0.2159 0.2164 0.2170
2740.000000 0.2175 0.2180 0.2184 0.2190 0.2195
2735.000000 0.2201 0.2206 0.2211 0.2217 0.2222
2730.000000 0.2228 0.2233 0.2238 0.2244 0.2249
2725.000000 0.2256 0.2263 0.2270 0.2276 0.2283
2720.000000 0.2290 0.2299 0.2307 0.2320 0.2339
2715.000000 0.2358 0.2377 0.2396 0.2415 0.2434
2710.000000 0.2454 0.2474 0.2497 0.2523 0.2550
2705.000000 0.2576 0.2602 0.2628 0.2656 0.2685
2700.000000 0.2715 0.2745 0.2775 0.2806 0.2835
2695.000000 0.2866 0.2896 0.2927 0.2958 0.2988
2690.000000 0.3009 0.3031 0.3052 0.3071 0.3091
2685.000000 0.3110 0.3129 0.3149 0.3168 0.3188
2680.000000 0.3208 0.3228 0.3247 0.3266 0.3287
2675.000000 0.3307 0.3326 0.3348 0.3368 0.3390
2670.000000 0.3412 0.3434 0.3455 0.3477 0.3499
2665.000000 0.3521 0.3543 0.3564 0.3586 0.3608
2660.000000 0.3630 0.3652 0.3673 0.3695 0.3716
2655.000000 0.3736 0.3757 0.3778 0.3798 0.3818
2650.000000 0.3840 0.3860 0.3882 0.3903 0.3923
2645.000000 0.3944 0.3966 0.3987 0.4009 0.4030
2640.000000 0.4053 0.4075 0.4096 0.4118 0.4134
2635.000000 0.4150 0.4166 0.4182 0.4199 0.4212
2630.000000 0.4225 0.4238 0.4250 0.4262 0.4275
2625.000000 0.4278 0.4282 0.4285 0.4287 0.4290
2620.000000 0.4292 0.4294 0.4296 0.4298 0.4300
2615.000000 0.4302 0.4310 0.4319 0.4328 0.4337
2610.000000 0.4346 0.4355 0.4364 0.4373 0.4384
2605.000000 0.4395 0.4407 0.4423 0.4438 0.4454
2600.000000 0.4469 0.4485 0.4500 0.4515 0.4530
2595.000000 0.4546 0.4562 0.4577 0.4593 0.4608
2590.000000 0.4626 0.4643 0.4660 0.4679 0.4697
2585.000000 0.4715 0.4734 0.4752 0.4770 0.4788
2580.000000 0.4806 0.4822 0.4837 0.4852 0.4867
2575.000000 0.4882 0.4897 0.4912 0.4927 0.4941
2570.000000 0.4956 0.4971 0.4986 0.5001 0.5015
2565.000000 0.5030 0.5045 0.5060 0.5075 0.5090
2560.000000 0.5104 0.5119 0.5134 0.5149 0.5164
2555.000000 0.5179 0.5194 0.5209 0.5224 0.5239
2550.000000 0.5253 0.5268 0.5282 0.5297 0.5310
2545.000000 0.5327 0.5344 0.5362 0.5385 0.5408
2540.000000 0.5432 0.5455 0.5478 0.5501 0.5525
2535.000000 0.5548 0.5571 0.5595 0.5618 0.5642
2530.000000 0.5665 0.5688 0.5712 0.5735 0.5759
2525.000000 0.5782 0.5806 0.5830 0.5853 0.5877
2520.000000 0.5901 0.5925 0.5949 0.5972 0.5996
2515.000000 0.6020 0.6043 0.6067 0.6091 0.6115
2510.000000 0.6138 0.6162 0.6186 0.6210 0.6234
2505.000000 0.6258 0.6282 0.6306 0.6327 0.6345
2500.000000 0.6364 0.6376 0.6389 0.6401 0.6415
2495.000000 0.6428 0.6440 0.6453 0.6465 0.6478
2490.000000 0.6492 0.6505 0.6518 0.6531 0.6544
2485.000000 0.6557 0.6569 0.6583 0.6597 0.6611
2480.000000 0.6626 0.6642 0.6658 0.6672 0.6689
2475.000000 0.6704 0.6719 0.6735 0.6751 0.6765
2470.000000 0.6781 0.6794 0.6806 0.6817 0.6828
2465.000000 0.6839 0.6850 0.6861 0.6871 0.6883
2460.000000 0.6894 0.6905 0.6915 0.6926 0.6937
2455.000000 0.6948 0.6960 0.6971 0.6981 0.6992
2450.000000 0.7004 0.7015 0.7025 0.7037 0.7047
2445.000000 0.7058 0.7068 0.7080 0.7090 0.7101
2440.000000 0.7111 0.7122 0.7134 0.7145 0.7155
2435.000000 0.7165 0.7176 0.7187 0.7198 0.7208
2430.000000 0.7219 0.7231 0.7242 0.7251 0.7261
2425.000000 0.7269 0.7278 0.7289 0.7298 0.7307
2420.000000 0.7315 0.7325 0.7335 0.7344 0.7353
2415.000000 0.7361 0.7371 0.7380 0.7389 0.7399
2410.000000 0.7408 0.7417 0.7425 0.7436 0.7445
2405.000000 0.7454 0.7462 0.7471 0.7481 0.7490
2400.000000 0.7500 0.7508 0.7518 0.7526 0.7536
2395.000000 0.7545 0.7555 0.7564 0.7574 0.7583
2390.000000 0.7592 0.7601 0.7610 0.7619 0.7628
2385.000000 0.7638 0.7647 0.7657 0.7665 0.7675
2380.000000 0.7684 0.7694 0.7703 0.7711 0.7721
2375.000000 0.7731 0.7740 0.7749 0.7758 0.7768
2370.000000 0.7776 0.7786 0.7795 0.7804 0.7812
2365.000000 0.7821 0.7830 0.7838 0.7846 0.7854
2360.000000 0.7861 0.7869 0.7878 0.7886 0.7894
2355.000000 0.7901 0.7910 0.7918 0.7925 0.7934
2350.000000 0.7942 0.7951 0.7958 0.7967 0.7975
2345.000000 0.7983 0.7991 0.7999 0.8006 0.8014
2340.000000 0.8021 0.8028 0.8036 0.8044 0.8051
2335.000000 0.8058 0.8067 0.8074 0.8082 0.8090
2330.000000 0.8097 0.8101 0.8105 0.8107 0.8108
2325.000000 0.8111 0.8112 0.8115 0.8118 0.8119
2320.000000 0.8121 0.8125 0.8128 0.8130 0.8134
2315.000000 0.8137 0.8140 0.8143 0.8146 0.8149
2310.000000 0.8151 0.8156 0.8158 0.8164 0.8168
2305.000000 0.8175 0.8182 0.8189 0.8196 0.8202
2300.000000 0.8209 0.8216 0.8221 0.8237 0.8255
2295.000000 0.8273 0.8291 0.8309 0.8328 0.8345
2290.000000 0.8362 0.8378 0.8395 0.8411 0.8428
2285.000000 0.8445 0.8461 0.8477 0.8493 0.8509
2280.000000 0.8524 0.8540 0.8552 0.8564 0.8575
2275.000000 0.8588 0.8599 0.8610 0.8618 0.8625
2270.000000 0.8634 0.8641 0.8646 0.8648 0.8648
2265.000000 0.8648 0.8647 0.8646 0.8645 0.8645
2260.000000 0.8644 0.8642 0.8641 0.8640 0.8639
2255.000000 0.8638 0.8637 0.8636 0.8634 0.8633
2250.000000 0.8632 0.8628 0.8627 0.8625 0.8625
2245.000000 0.8631 0.8639 0.8652 0.8665 0.8674
2240.000000 0.8683 0.8692 0.8701 0.8710 0.8718
2235.000000 0.8728 0.8737 0.8746 0.8754 0.8760
2230.000000 0.8765 0.8768 0.8773 0.8777 0.8780
2225.000000 0.8784 0.8788 0.8791 0.8794 0.8797
2220.000000 0.8800 0.8803 0.8806 0.8809 0.8811
2215.000000 0.8815 0.8818 0.8821 0.8824 0.8827
2210.000000 0.8828 0.8828 0.8828 0.8828 0.8828
2205.000000 0.8828 0.8828 0.8828 0.8828 0.8828
2200.000000 0.8827 0.8827 0.8827 0.8827 0.8827
2195.000000 0.8827 0.8827 0.8827 0.8828 0.8828
2190.000000 0.8828 0.8828 0.8834 0.8840 0.8846
2185.000000 0.8851 0.8857 0.8863 0.8868 0.8875
2180.000000 0.8881 0.8887 0.8893 0.8899 0.8904
2175.000000 0.8911 0.8917 0.8923 0.8928 0.8934
2170.000000 0.8940 0.8946 0.8952 0.8957 0.8962
2165.000000 0.8966 0.8971 0.8975 0.8978 0.8983
2160.000000 0.8988 0.8992 0.8995 0.8999 0.9000
2155.000000 0.9002 0.9003 0.9004 0.9006 0.9007
2150.000000 0.9009 0.9010 0.9011 0.9013 0.9014
2145.000000 0.9016 0.9018 0.9018 0.9020 0.9021
2140.000000 0.9023 0.9025 0.9025 0.9027 0.9028
2135.000000 0.9030 0.9032 0.9034 0.9035 0.9036
2130.000000 0.9036 0.9036 0.9036 0.9036 0.9036
2125.000000 0.9035 0.9035 0.9035 0.9035 0.9035
2120.000000 0.9034 0.9034 0.9034 0.9034 0.9034
2115.000000 0.9034 0.9034 0.9033 0.9033 0.9031
2110.000000 0.9028 0.9027 0.9025 0.9023 0.9021
2105.000000 0.9018 0.9017 0.9014 0.9012 0.9010
2100.000000 0.9008 0.9006 0.9004 0.9002 0.9000
2095.000000 0.8997 0.8995 0.8993 0.8991 0.8989
2090.000000 0.8987 0.8985 0.8982 0.8980 0.8978
2085.000000 0.8975 0.8974 0.8971 0.8970 0.8968
2080.000000 0.8967 0.8964 0.8962 0.8961 0.8959
2075.000000 0.8956 0.8954 0.8953 0.8950 0.8948
2070.000000 0.8946 0.8944 0.8942 0.8940 0.8938
2065.000000 0.8937 0.8936 0.8936 0.8935 0.8933
2060.000000 0.8933 0.8932 0.8931 0.8930 0.8928
2055.000000 0.8928 0.8927 0.8925 0.8925 0.8925
2050.000000 0.8923 0.8921 0.8921 0.8921 0.8920
2045.000000 0.8918 0.8916 0.8915 0.8914 0.8912
2040.000000 0.8911 0.8909 0.8907 0.8906 0.8905
2035.000000 0.8903 0.8901 0.8900 0.8899 0.8897
2030.000000 0.8895 0.8894 0.8893 0.8891 0.8890
2025.000000 0.8888 0.8887 0.8885 0.8884 0.8882
2020.000000 0.8881 0.8878 0.8878 0.8875 0.8874
2015.000000 0.8871 0.8871 0.8870 0.8868 0.8866
2010.000000 0.8865 0.8863 0.8861 0.8860 0.8858
2005.000000 0.8853 0.8849 0.8846 0.8841 0.8837
2000.000000 0.8833 0.8828 0.8824 0.8820 0.8816
1995.000000 0.8812 0.8807 0.8802 0.8797 0.8792
1990.000000 0.8786 0.8781 0.8775 0.8770 0.8765
1985.000000 0.8759 0.8754 0.8749 0.8743 0.8738
