##TITLE=Bromocyclopentane
##JCAMP-DX=4.24
##DATA TYPE=INFRARED SPECTRUM
##CLASS=COBLENTZ III
##ORIGIN=DOW CHEMICAL COMPANY
##OWNER=COPYRIGHT (C) 1988 by COBLENTZ SOCIETY INC.
Collection (C) 2018 copyright by the U.S. Secretary of Commerce
on behalf of the United States of America. All rights reserved.
##DATE=1964/04/23
##CAS REGISTRY NO=137-43-9
##MOLFORM=C5 H9 Br
##SOURCE REFERENCE=COBLENTZ NO. 6386
##$NIST SOURCE=COBLENTZ
##$NIST IMAGE=cob6386
##SPECTROMETER/DATA SYSTEM=DOW KBr FOREPRISM-GRATING
##INSTRUMENT PARAMETERS=BLAZED AT 3.5, 12.0, 20.0 MICRON AND CHANGED AT 5.0, 7.5, 14.9 MICRON
##STATE=SOLUTION, FILTERED (CCl4 FOR 3800-1330, CS2 FOR 1330-400 CM^-^1)
##PATH LENGTH=0.011 CM, 0.011 CM
##SAMPLING PROCEDURE=TRANSMISSION
##RESOLUTION=2
##DATA PROCESSING=DIGITIZED BY COBLENTZ SOCIETY (BATCH I) FROM HARD COPY (ADJUSTED \subtractcm-1\only3600\)
##XUNITS=1/CM
##YUNITS=TRANSMITTANCE
##XFACTOR=1
##YFACTOR=1
##DELTAX=0.995540
##FIRSTX=3778.8
##LASTX=386.996
##FIRSTY=0.8874
##MAXX=3778.8
##MINX=386.996
##MAXY=0.9258
##MINY=0.119389
##NPOINTS=3408
##XYDATA=(X++(Y..Y))
3778.800000 0.8874 0.8874 0.8874 0.8873 0.8873
3773.822300 0.8872 0.8872 0.8871 0.8865 0.8861
3768.844601 0.8862 0.8868 0.8867 0.8857 0.8860
3763.866901 0.8860 0.8857 0.8849 0.8858 0.8858
3758.889202 0.8858 0.8857 0.8857 0.8857 0.8857
3753.911502 0.8856 0.8856 0.8856 0.8856 0.8856
3748.933803 0.8856 0.8858 0.8861 0.8858 0.8856
3743.956103 0.8856 0.8856 0.8856 0.8856 0.8856
3738.978404 0.8857 0.8857 0.8857 0.8857 0.8856
3734.000704 0.8856 0.8856 0.8856 0.8856 0.8856
3729.023005 0.8856 0.8856 0.8859 0.8865 0.8867
3724.045305 0.8867 0.8867 0.8863 0.8858 0.8860
3719.067606 0.8866 0.8868 0.8868 0.8868 0.8868
3714.089906 0.8868 0.8868 0.8869 0.8869 0.8869
3709.112207 0.8869 0.8869 0.8859 0.8859 0.8868
3704.134507 0.8870 0.8870 0.8870 0.8869 0.8872
3699.156808 0.8875 0.8871 0.8877 0.8877 0.8876
3694.179108 0.8875 0.8873 0.8873 0.8872 0.8871
3689.201408 0.8870 0.8870 0.8870 0.8870 0.8869
3684.223709 0.8862 0.8862 0.8863 0.8864 0.8865
3679.246009 0.8865 0.8866 0.8867 0.8867 0.8863
3674.268310 0.8858 0.8859 0.8860 0.8860 0.8861
3669.290610 0.8861 0.8862 0.8862 0.8863 0.8863
3664.312911 0.8864 0.8864 0.8865 0.8865 0.8866
3659.335211 0.8872 0.8875 0.8872 0.8874 0.8877
3654.357512 0.8881 0.8885 0.8889 0.8894 0.8900
3649.379812 0.8906 0.8913 0.8920 0.8923 0.8923
3644.402113 0.8922 0.8921 0.8920 0.8919 0.8917
3639.424413 0.8915 0.8911 0.8908 0.8906 0.8903
3634.446714 0.8901 0.8898 0.8896 0.8893 0.8891
3629.469014 0.8889 0.8885 0.8882 0.8879 0.8878
3624.491315 0.8875 0.8874 0.8874 0.8881 0.8879
3619.513615 0.8874 0.8865 0.8867 0.8871 0.8869
3614.535915 0.8866 0.8858 0.8749 0.8646 0.8585
3609.558216 0.8530 0.8529 0.8527 0.8525 0.8529
3604.580516 0.8570 0.8614 0.8668 0.8722 0.8777
3599.602817 0.8825 0.8850 0.8867 0.8871 0.8869
3594.625117 0.8867 0.8859 0.8834 0.8804 0.8759
3589.647418 0.8705 0.8654 0.8611 0.8565 0.8525
3584.669718 0.8499 0.8482 0.8478 0.8501 0.8556
3579.692019 0.8611 0.8666 0.8720 0.8774 0.8820
3574.714319 0.8857 0.8875 0.8876 0.8877 0.8878
3569.736620 0.8879 0.8880 0.8881 0.8880 0.8876
3564.758920 0.8880 0.8883 0.8881 0.8876 0.8875
3559.781221 0.8877 0.8878 0.8878 0.8880 0.8881
3554.803521 0.8882 0.8882 0.8882 0.8882 0.8884
3549.825822 0.8884 0.8885 0.8886 0.8887 0.8896
3544.848122 0.8888 0.8888 0.8896 0.8896 0.8894
3539.870423 0.8889 0.8896 0.8895 0.8895 0.8891
3534.892723 0.8890 0.8894 0.8894 0.8894 0.8888
3529.915023 0.8888 0.8885 0.8889 0.8892 0.8892
3524.937324 0.8892 0.8891 0.8891 0.8891 0.8889
3519.959624 0.8880 0.8880 0.8880 0.8880 0.8880
3514.981925 0.8881 0.8881 0.8881 0.8881 0.8881
3510.004225 0.8881 0.8881 0.8881 0.8881 0.8881
3505.026526 0.8881 0.8881 0.8881 0.8881 0.8881
3500.048826 0.8881 0.8881 0.8881 0.8881 0.8881
3495.071127 0.8881 0.8881 0.8881 0.8881 0.8881
3490.093427 0.8881 0.8881 0.8882 0.8883 0.8883
3485.115728 0.8883 0.8884 0.8884 0.8884 0.8884
3480.138028 0.8885 0.8885 0.8885 0.8885 0.8886
3475.160329 0.8886 0.8887 0.8887 0.8887 0.8887
3470.182629 0.8888 0.8888 0.8888 0.8888 0.8889
3465.204930 0.8889 0.8890 0.8890 0.8890 0.8890
3460.227230 0.8891 0.8891 0.8891 0.8891 0.8892
3455.249531 0.8892 0.8892 0.8892 0.8893 0.8893
3450.271831 0.8893 0.8893 0.8893 0.8893 0.8893
3445.294131 0.8893 0.8893 0.8893 0.8893 0.8893
3440.316432 0.8893 0.8893 0.8893 0.8893 0.8893
3435.338732 0.8893 0.8893 0.8893 0.8894 0.8894
3430.361033 0.8894 0.8894 0.8894 0.8894 0.8894
3425.383333 0.8893 0.8893 0.8893 0.8893 0.8893
3420.405634 0.8893 0.8893 0.8888 0.8887 0.8892
3415.427934 0.8893 0.8893 0.8893 0.8892 0.8891
3410.450235 0.8891 0.8891 0.8893 0.8897 0.8900
3405.472535 0.8904 0.8907 0.8910 0.8913 0.8917
3400.494836 0.8924 0.8928 0.8929 0.8931 0.8935
3395.517136 0.8939 0.8940 0.8940 0.8938 0.8935
3390.539437 0.8932 0.8929 0.8927 0.8924 0.8921
3385.561737 0.8920 0.8918 0.8916 0.8913 0.8911
3380.584038 0.8909 0.8907 0.8904 0.8901 0.8899
3375.606338 0.8897 0.8895 0.8893 0.8891 0.8890
3370.628638 0.8889 0.8888 0.8887 0.8886 0.8885
3365.650939 0.8884 0.8884 0.8889 0.8880 0.8880
3360.673239 0.8878 0.8876 0.8876 0.8875 0.8873
3355.695540 0.8872 0.8872 0.8871 0.8871 0.8872
3350.717840 0.8872 0.8872 0.8873 0.8874 0.8874
3345.740141 0.8875 0.8875 0.8876 0.8876 0.8876
3340.762441 0.8877 0.8882 0.8888 0.8886 0.8885
3335.784742 0.8884 0.8881 0.8882 0.8889 0.8894
3330.807042 0.8894 0.8888 0.8885 0.8885 0.8886
3325.829343 0.8887 0.8888 0.8888 0.8889 0.8890
3320.851643 0.8891 0.8891 0.8891 0.8890 0.8889
3315.873944 0.8888 0.8888 0.8887 0.8887 0.8887
3310.896244 0.8887 0.8886 0.8886 0.8885 0.8895
3305.918545 0.8895 0.8895 0.8894 0.8892 0.8885
3300.940845 0.8894 0.8893 0.8889 0.8881 0.8881
3295.963146 0.8879 0.8879 0.8879 0.8879 0.8878
3290.985446 0.8876 0.8876 0.8875 0.8874 0.8872
3286.007746 0.8872 0.8870 0.8868 0.8868 0.8867
3281.030047 0.8866 0.8864 0.8866 0.8873 0.8868
3276.052347 0.8860 0.8863 0.8868 0.8862 0.8857
3271.074648 0.8861 0.8864 0.8863 0.8862 0.8860
3266.096948 0.8859 0.8858 0.8857 0.8856 0.8855
3261.119249 0.8855 0.8855 0.8855 0.8855 0.8855
3256.141549 0.8855 0.8855 0.8855 0.8855 0.8849
3251.163850 0.8851 0.8856 0.8856 0.8856 0.8856
3246.186150 0.8856 0.8856 0.8856 0.8856 0.8856
3241.208451 0.8852 0.8851 0.8855 0.8856 0.8856
3236.230751 0.8856 0.8855 0.8855 0.8855 0.8855
3231.253052 0.8855 0.8855 0.8855 0.8855 0.8855
3226.275352 0.8855 0.8855 0.8855 0.8852 0.8844
3221.297653 0.8845 0.8855 0.8855 0.8855 0.8855
3216.319953 0.8856 0.8856 0.8857 0.8857 0.8858
3211.342254 0.8858 0.8858 0.8858 0.8859 0.8859
3206.364554 0.8860 0.8859 0.8852 0.8850 0.8851
3201.386854 0.8851 0.8851 0.8851 0.8852 0.8853
3196.409155 0.8857 0.8860 0.8858 0.8861 0.8859
3191.431455 0.8865 0.8866 0.8866 0.8867 0.8865
3186.453756 0.8862 0.8865 0.8869 0.8866 0.8860
3181.476056 0.8857 0.8857 0.8857 0.8857 0.8856
3176.498357 0.8856 0.8856 0.8855 0.8855 0.8855
3171.520657 0.8855 0.8854 0.8854 0.8853 0.8853
3166.542958 0.8853 0.8853 0.8852 0.8852 0.8852
3161.565258 0.8855 0.8860 0.8857 0.8857 0.8860
3156.587559 0.8860 0.8855 0.8856 0.8853 0.8849
3151.609859 0.8855 0.8858 0.8858 0.8857 0.8857
3146.632160 0.8857 0.8847 0.8845 0.8845 0.8844
3141.654460 0.8844 0.8843 0.8843 0.8845 0.8853
3136.676761 0.8852 0.8852 0.8852 0.8852 0.8851
3131.699061 0.8851 0.8850 0.8850 0.8849 0.8849
3126.721362 0.8848 0.8847 0.8847 0.8847 0.8846
3121.743662 0.8846 0.8846 0.8846 0.8845 0.8845
3116.765962 0.8845 0.8845 0.8844 0.8844 0.8844
3111.788263 0.8844 0.8843 0.8843 0.8843 0.8843
3106.810563 0.8842 0.8844 0.8849 0.8852 0.8852
3101.832864 0.8851 0.8850 0.8848 0.8849 0.8852
3096.855164 0.8852 0.8856 0.8864 0.8873 0.8877
3091.877465 0.8876 0.8874 0.8866 0.8859 0.8849
3086.899765 0.8837 0.8833 0.8834 0.8826 0.8814
3081.922066 0.8809 0.8807 0.8804 0.8802 0.8799
3076.944366 0.8800 0.8807 0.8809 0.8803 0.8804
3071.966667 0.8803 0.8790 0.8780 0.8774 0.8758
3066.988967 0.8760 0.8744 0.8735 0.8728 0.8720
3062.011268 0.8704 0.8697 0.8690 0.8686 0.8687
3057.033568 0.8680 0.8669 0.8656 0.8654 0.8646
3052.055869 0.8634 0.8628 0.8628 0.8623 0.8611
3047.078169 0.8598 0.8585 0.8578 0.8564 0.8556
3042.100469 0.8550 0.8542 0.8531 0.8518 0.8496
3037.122770 0.8476 0.8451 0.8419 0.8388 0.8358
3032.145070 0.8322 0.8290 0.8262 0.8232 0.8203
3027.167371 0.8177 0.8148 0.8122 0.8098 0.8071
3022.189671 0.8041 0.8009 0.7976 0.7947 0.7919
3017.211972 0.7881 0.7832 0.7777 0.7726 0.7676
3012.234272 0.7627 0.7581 0.7537 0.7493 0.7448
3007.256573 0.7393 0.7338 0.7285 0.7227 0.7060
3002.278873 0.6835 0.6432 0.5950 0.5622 0.5354
2997.301174 0.4670 0.3809 0.3464 0.3345 0.3029
2992.323474 0.2621 0.2415 0.2308 0.2200 0.2092
2987.345775 0.1984 0.1877 0.1793 0.1722 0.1631
2982.368075 0.1529 0.1447 0.1377 0.1344 0.1324
2977.390376 0.1322 0.1326 0.1335 0.1352 0.1374
2972.412676 0.1399 0.1433 0.1474 0.1530 0.1598
2967.434977 0.1674 0.1759 0.1844 0.1928 0.2016
2962.457277 0.2106 0.2186 0.2256 0.2318 0.2370
2957.479577 0.2430 0.2500 0.2578 0.2664 0.2752
2952.501878 0.2839 0.2925 0.3012 0.3098 0.3184
2947.524178 0.3269 0.3353 0.3438 0.3525 0.3612
2942.546479 0.3698 0.3784 0.3870 0.3958 0.4045
2937.568779 0.4130 0.4216 0.4284 0.4328 0.4365
2932.591080 0.4391 0.4414 0.4434 0.4452 0.4469
2927.613380 0.4484 0.4495 0.4505 0.4512 0.4520
2922.635681 0.4526 0.4530 0.4533 0.4536 0.4535
2917.657981 0.4534 0.4532 0.4529 0.4525 0.4521
2912.680282 0.4520 0.4520 0.4521 0.4525 0.4535
2907.702582 0.4549 0.4560 0.4571 0.4586 0.4616
2902.724883 0.4682 0.4751 0.4829 0.4906 0.4984
2897.747183 0.5063 0.5140 0.5218 0.5296 0.5360
2892.769484 0.5390 0.5424 0.5403 0.5402 0.5390
2887.791784 0.5366 0.5294 0.5132 0.4605 0.4120
2882.814085 0.3803 0.3527 0.3553 0.3590 0.3789
2877.836385 0.3993 0.4223 0.4461 0.4695 0.4927
2872.858685 0.5152 0.5363 0.5482 0.5601 0.5720
2867.880986 0.5840 0.5959 0.6076 0.6169 0.6250
2862.903286 0.6248 0.6250 0.6213 0.6176 0.6042
2857.925587 0.5909 0.5770 0.5640 0.5592 0.5533
2852.947887 0.5609 0.5676 0.5823 0.5970 0.6117
2847.970188 0.6263 0.6410 0.6563 0.6710 0.6856
2842.992488 0.7007 0.7170 0.7466 0.7758 0.7826
2838.014789 0.7899 0.7990 0.8078 0.8132 0.8189
2833.037089 0.8227 0.8264 0.8301 0.8339 0.8380
2828.059390 0.8408 0.8439 0.8466 0.8479 0.8500
2823.081690 0.8523 0.8528 0.8548 0.8562 0.8572
2818.103991 0.8577 0.8587 0.8599 0.8610 0.8622
2813.126291 0.8632 0.8643 0.8652 0.8661 0.8670
2808.148592 0.8684 0.8697 0.8707 0.8715 0.8723
2803.170892 0.8732 0.8740 0.8747 0.8753 0.8759
2798.193192 0.8764 0.8768 0.8774 0.8779 0.8784
2793.215493 0.8788 0.8791 0.8791 0.8799 0.8800
2788.237793 0.8803 0.8806 0.8811 0.8817 0.8826
2783.260094 0.8828 0.8826 0.8833 0.8842 0.8848
2778.282394 0.8853 0.8859 0.8865 0.8871 0.8877
2773.304695 0.8882 0.8888 0.8893 0.8897 0.8899
2768.326995 0.8899 0.8899 0.8900 0.8900 0.8900
2763.349296 0.8900 0.8901 0.8901 0.8902 0.8902
2758.371596 0.8902 0.8903 0.8904 0.8905 0.8906
2753.393897 0.8906 0.8907 0.8909 0.8909 0.8910
2748.416197 0.8912 0.8913 0.8914 0.8916 0.8917
2743.438498 0.8919 0.8921 0.8923 0.8924 0.8926
2738.460798 0.8927 0.8929 0.8931 0.8933 0.8934
2733.483099 0.8936 0.8937 0.8939 0.8940 0.8942
2728.505399 0.8943 0.8944 0.8946 0.8947 0.8949
2723.527700 0.8951 0.8953 0.8954 0.8955 0.8956
2718.550000 0.8957 0.8959 0.8960 0.8962 0.8963
2713.572300 0.8964 0.8966 0.8967 0.8969 0.8970
2708.594601 0.8971 0.8972 0.8974 0.8975 0.8977
2703.616901 0.8978 0.8980 0.8981 0.8983 0.8986
2698.639202 0.8988 0.8989 0.8991 0.8992 0.8994
2693.661502 0.8995 0.8997 0.8999 0.9001 0.9002
2688.683803 0.9004 0.9005 0.9007 0.9008 0.9010
2683.706103 0.9012 0.9013 0.9016 0.9017 0.9017
2678.728404 0.9018 0.9019 0.9020 0.9021 0.9022
2673.750704 0.9023 0.9024 0.9025 0.9026 0.9027
2668.773005 0.9027 0.9028 0.9028 0.9028 0.9028
2663.795305 0.9029 0.9029 0.9030 0.9030 0.9031
2658.817606 0.9031 0.9035 0.9043 0.9044 0.9044
2653.839906 0.9044 0.9044 0.9043 0.9039 0.9033
2648.862207 0.9034 0.9039 0.9044 0.9043 0.9037
2643.884507 0.9033 0.9034 0.9040 0.9036 0.9033
2638.906808 0.9033 0.9034 0.9034 0.9034 0.9035
2633.929108 0.9046 0.9046 0.9045 0.9036 0.9038
2628.951408 0.9047 0.9048 0.9048 0.9048 0.9048
2623.973709 0.9049 0.9049 0.9050 0.9050 0.9051
2618.996009 0.9051 0.9052 0.9052 0.9053 0.9053
2614.018310 0.9054 0.9054 0.9054 0.9053 0.9053
2609.040610 0.9053 0.9053 0.9050 0.9048 0.9044
2604.062911 0.9042 0.9036 0.9030 0.9024 0.9017
2599.085211 0.9012 0.9007 0.9003 0.9000 0.8999
2594.107512 0.8999 0.8997 0.8996 0.8995 0.8994
2589.129812 0.8994 0.8994 0.8996 0.8998 0.9001
2584.152113 0.9005 0.9007 0.9010 0.9013 0.9015
2579.174413 0.9018 0.9021 0.9024 0.9026 0.9029
2574.196714 0.9032 0.9033 0.9035 0.9036 0.9038
2569.219014 0.9038 0.9039 0.9039 0.9039 0.9039
2564.241315 0.9040 0.9040 0.9041 0.9041 0.9042
2559.263615 0.9042 0.9042 0.9042 0.9043 0.9043
2554.285915 0.9044 0.9044 0.9045 0.9045 0.9046
2549.308216 0.9046 0.9047 0.9047 0.9048 0.9048
2544.330516 0.9049 0.9050 0.9051 0.9051 0.9052
2539.352817 0.9052 0.9053 0.9053 0.9054 0.9054
2534.375117 0.9055 0.9055 0.9056 0.9056 0.9057
2529.397418 0.9058 0.9059 0.9059 0.9060 0.9060
2524.419718 0.9061 0.9061 0.9062 0.9062 0.9063
2519.442019 0.9063 0.9064 0.9064 0.9065 0.9066
2514.464319 0.9067 0.9067 0.9068 0.9068 0.9069
2509.486620 0.9069 0.9070 0.9070 0.9070 0.9070
2504.508920 0.9070 0.9070 0.9071 0.9072 0.9072
2499.531221 0.9073 0.9073 0.9073 0.9073 0.9073
2494.553521 0.9074 0.9075 0.9076 0.9077 0.9077
2489.575822 0.9078 0.9078 0.9078 0.9077 0.9077
2484.598122 0.9078 0.9080 0.9080 0.9082 0.9088
2479.620423 0.9090 0.9088 0.9088 0.9088 0.9088
2474.642723 0.9088 0.9088 0.9088 0.9088 0.9088
2469.665023 0.9088 0.9088 0.9088 0.9088 0.9088
2464.687324 0.9088 0.9088 0.9088 0.9088 0.9087
2459.709624 0.9087 0.9085 0.9080 0.9079 0.9077
2454.731925 0.9073 0.9075 0.9080 0.9082 0.9079
2449.754225 0.9074 0.9079 0.9081 0.9080 0.9080
2444.776526 0.9079 0.9079 0.9078 0.9078 0.9077
2439.798826 0.9076 0.9074 0.9073 0.9072 0.9071
2434.821127 0.9070 0.9069 0.9068 0.9067 0.9066
2429.843427 0.9065 0.9064 0.9063 0.9063 0.9063
2424.865728 0.9063 0.9063 0.9063 0.9063 0.9062
2419.888028 0.9062 0.9062 0.9062 0.9062 0.9062
2414.910329 0.9062 0.9062 0.9062 0.9062 0.9061
2409.932629 0.9061 0.9063 0.9067 0.9062 0.9070
2404.954930 0.9068 0.9067 0.9066 0.9066 0.9066
2399.977230 0.9067 0.9067 0.9067 0.9067 0.9068
2394.999531 0.9068 0.9069 0.9069 0.9070 0.9071
2390.021831 0.9071 0.9082 0.9081 0.9074 0.9068
2385.044131 0.9052 0.9041 0.9026 0.9015 0.9022
2380.066432 0.9023 0.9029 0.9036 0.9043 0.9048
2375.088732 0.9051 0.9057 0.9064 0.9067 0.9068
2370.111033 0.9070 0.9065 0.9064 0.9067 0.9071
2365.133333 0.9075 0.9079 0.9083 0.9088 0.9092
2360.155634 0.9106 0.9113 0.9122 0.9127 0.9135
2355.177934 0.9138 0.9133 0.9128 0.9122 0.9114
2350.200235 0.9102 0.9099 0.9102 0.9112 0.9118
2345.222535 0.9119 0.9113 0.9109 0.9108 0.9110
2340.244836 0.9112 0.9106 0.9113 0.9118 0.9114
2335.267136 0.9114 0.9127 0.9134 0.9137 0.9139
2330.289437 0.9148 0.9147 0.9141 0.9138 0.9138
2325.311737 0.9138 0.9138 0.9134 0.9128 0.9121
2320.334038 0.9115 0.9109 0.9103 0.9097 0.9092
2315.356338 0.9088 0.9084 0.9079 0.9075 0.9071
2310.378638 0.9067 0.9063 0.9059 0.9055 0.9052
2305.400939 0.9049 0.9045 0.9042 0.9038 0.9035
2300.423239 0.9032 0.9031 0.9033 0.9032 0.9030
2295.445540 0.9029 0.9028 0.9026 0.9024 0.9023
2290.467840 0.9022 0.9021 0.9017 0.9011 0.9011
2285.490141 0.9011 0.9012 0.9007 0.9003 0.9006
2280.512441 0.9010 0.9013 0.9011 0.9008 0.9011
2275.534742 0.9009 0.9007 0.9011 0.9013 0.9014
2270.557042 0.9016 0.9020 0.9022 0.9026 0.9032
2265.579343 0.9035 0.9036 0.9040 0.9046 0.9050
2260.601643 0.9050 0.9054 0.9057 0.9057 0.9061
2255.623944 0.9067 0.9069 0.9067 0.9069 0.9071
2250.646244 0.9069 0.9064 0.9067 0.9069 0.9071
2245.668545 0.9073 0.9070 0.9067 0.9069 0.9071
2240.690845 0.9074 0.9075 0.9076 0.9077 0.9077
2235.713146 0.9076 0.9070 0.9069 0.9070 0.9071
2230.735446 0.9071 0.9072 0.9073 0.9074 0.9074
2225.757746 0.9075 0.9076 0.9077 0.9077 0.9074
2220.780047 0.9067 0.9067 0.9067 0.9067 0.9067
2215.802347 0.9067 0.9067 0.9068 0.9069 0.9070
2210.824648 0.9071 0.9073 0.9074 0.9075 0.9076
2205.846948 0.9078 0.9078 0.9080 0.9081 0.9083
2200.869249 0.9084 0.9085 0.9085 0.9089 0.9089
2195.891549 0.9088 0.9083 0.9093 0.9089 0.9083
2190.913850 0.9084 0.9085 0.9085 0.9086 0.9087
2185.936150 0.9088 0.9088 0.9095 0.9093 0.9090
2180.958451 0.9091 0.9092 0.9092 0.9102 0.9104
2175.980751 0.9105 0.9105 0.9106 0.9106 0.9106
2171.003052 0.9106 0.9107 0.9106 0.9096 0.9095
2166.025352 0.9095 0.9095 0.9095 0.9095 0.9095
2161.047653 0.9095 0.9095 0.9095 0.9095 0.9095
2156.069953 0.9095 0.9095 0.9095 0.9094 0.9094
2151.092254 0.9094 0.9094 0.9094 0.9094 0.9094
2146.114554 0.9094 0.9094 0.9094 0.9094 0.9094
2141.136854 0.9094 0.9094 0.9093 0.9093 0.9093
2136.159155 0.9093 0.9093 0.9093 0.9092 0.9092
2131.181455 0.9092 0.9092 0.9092 0.9092 0.9091
2126.203756 0.9091 0.9091 0.9091 0.9091 0.9084
2121.226056 0.9088 0.9091 0.9091 0.9091 0.9090
2116.248357 0.9090 0.9090 0.9090 0.9091 0.9092
2111.270657 0.9094 0.9095 0.9097 0.9099 0.9101
2106.292958 0.9102 0.9104 0.9105 0.9107 0.9108
2101.315258 0.9110 0.9111 0.9113 0.9109 0.9106
2096.337559 0.9112 0.9117 0.9114 0.9117 0.9123
2091.359859 0.9125 0.9127 0.9130 0.9132 0.9134
2086.382160 0.9135 0.9137 0.9139 0.9141 0.9142
2081.404460 0.9143 0.9144 0.9144 0.9145 0.9145
2076.426761 0.9146 0.9147 0.9148 0.9148 0.9149
2071.449061 0.9149 0.9150 0.9151 0.9152 0.9152
2066.471362 0.9153 0.9153 0.9154 0.9155 0.9156
2061.493662 0.9156 0.9156 0.9157 0.9157 0.9158
2056.515962 0.9164 0.9168 0.9168 0.9168 0.9166
2051.538263 0.9163 0.9165 0.9165 0.9160 0.9157
2046.560563 0.9156 0.9156 0.9156 0.9156 0.9155
2041.582864 0.9155 0.9155 0.9155 0.9154 0.9154
2036.605164 0.9154 0.9154 0.9153 0.9153 0.9153
2031.627465 0.9153 0.9152 0.9152 0.9152 0.9155
2026.649765 0.9156 0.9152 0.9156 0.9161 0.9161
2021.672066 0.9161 0.9160 0.9160 0.9160 0.9160
2016.694366 0.9159 0.9159 0.9159 0.9158 0.9157
2011.716667 0.9157 0.9157 0.9157 0.9156 0.9156
2006.738967 0.9156 0.9157 0.9157 0.9158 0.9158
2001.761268 0.9157 0.9155 0.9151 0.9138 0.9108
1996.783568 0.9079 0.9058 0.9047 0.9038 0.9032
1991.805869 0.9034 0.9038 0.9041 0.9041 0.9041
1986.828169 0.9038 0.9030 0.9027 0.9026 0.9025
1981.850469 0.9025 0.9025 0.9026 0.9026 0.9018
1976.872770 0.9020 0.9021 0.9023 0.9025 0.9030
1971.895070 0.9034 0.9038 0.9042 0.9046 0.9050
1966.917371 0.9054 0.9064 0.9063 0.9061 0.9068
1961.939671 0.9072 0.9072 0.9073 0.9073 0.9074
1956.961972 0.9074 0.9075 0.9075 0.9066 0.9065
1951.984272 0.9067 0.9068 0.9068 0.9061 0.9063
1947.006573 0.9065 0.9067 0.9069 0.9071 0.9074
1942.028873 0.9076 0.9079 0.9083 0.9087 0.9091
1937.051174 0.9094 0.9098 0.9101 0.9105 0.9108
1932.073474 0.9111 0.9114 0.9119 0.9122 0.9125
1927.095775 0.9128 0.9131 0.9134 0.9137 0.9140
1922.118075 0.9142 0.9145 0.9148 0.9151 0.9153
1917.140376 0.9154 0.9155 0.9156 0.9157 0.9158
1912.162676 0.9159 0.9160 0.9161 0.9162 0.9163
1907.184977 0.9170 0.9173 0.9173 0.9173 0.9171
1902.207277 0.9170 0.9168 0.9167 0.9165 0.9162
1897.229577 0.9159 0.9156 0.9153 0.9150 0.9146
1892.251878 0.9142 0.9136 0.9125 0.9119 0.9116
1887.274178 0.9112 0.9108 0.9106 0.9109 0.9111
1882.296479 0.9111 0.9110 0.9108 0.9107 0.9107
1877.318779 0.9107 0.9107 0.9114 0.9118 0.9118
1872.341080 0.9118 0.9118 0.9118 0.9118 0.9119
1867.363380 0.9120 0.9121 0.9122 0.9123 0.9124
1862.385681 0.9125 0.9126 0.9127 0.9128 0.9130
1857.407981 0.9135 0.9137 0.9135 0.9134 0.9134
1852.430282 0.9134 0.9135 0.9135 0.9135 0.9135
1847.452582 0.9135 0.9135 0.9135 0.9136 0.9136
1842.474883 0.9136 0.9137 0.9137 0.9138 0.9138
1837.497183 0.9139 0.9137 0.9132 0.9129 0.9129
1832.519484 0.9129 0.9130 0.9130 0.9131 0.9131
1827.541784 0.9132 0.9132 0.9132 0.9133 0.9133
1822.564085 0.9134 0.9134 0.9135 0.9140 0.9147
1817.586385 0.9147 0.9147 0.9147 0.9147 0.9147
1812.608685 0.9147 0.9147 0.9148 0.9146 0.9141
1807.630986 0.9137 0.9137 0.9137 0.9135 0.9128
1802.653286 0.9126 0.9127 0.9126 0.9126 0.9126
1797.675587 0.9126 0.9127 0.9131 0.9134 0.9137
1792.697887 0.9140 0.9142 0.9145 0.9149 0.9152
1787.720188 0.9155 0.9158 0.9163 0.9167 0.9171
1782.742488 0.9175 0.9180 0.9184 0.9187 0.9189
