##TITLE=ETHANOL, 2-AMINO-
##JCAMP-DX=4.24
##DATA TYPE=INFRARED SPECTRUM
##CLASS=COBLENTZ III
##ORIGIN=DOW CHEMICAL COMPANY
##OWNER=COBLENTZ SOCIETY
Collection (C) 2018 copyright by the U.S. Secretary of Commerce
on behalf of the United States of America. All rights reserved.
##DATE=1960/03/07
##NAMES=2-aminoethanol
##CAS REGISTRY NO=141-43-5
##MOLFORM=C2 H7 N O
##SOURCE REFERENCE=COBLENTZ NO. 10106
##$NIST SOURCE=COBLENTZ
##$NIST IMAGE=cob10106
##SPECTROMETER/DATA SYSTEM=DOW KBr FOREPRISM-GRATING
##INSTRUMENT PARAMETERS=BLAZED AT 3.5, 12.0, 20.0 MICRON, CHANGED AT 5.0, 7.5, 14.9 MICRON
##STATE=LIQUID (NEAT)
##PATH LENGTH=CAPILLARY, KBr PLATES
##SAMPLING PROCEDURE=TRANSMISSION
##RESOLUTION=4
##DATA PROCESSING=DIGITIZED BY NIST FROM HARD COPY (FROM TWO SEGMENTS)
##XUNITS=1/CM
##YUNITS=TRANSMITTANCE
##XFACTOR=1.000000
##YFACTOR=1
##DELTAX=0.852881
##FIRSTX=398.294
##LASTX=3794.46
##FIRSTY=0.796
##MAXX=3794.46
##MINX=398.294
##MAXY=1.003
##MINY=0.193186
##NPOINTS=3983
##XYDATA=(X++(Y..Y))
398.294000 0.7960 0.7960 0.7960 0.7940 0.7940
402.558403 0.7940 0.7940 0.7940 0.7940 0.7930
406.822805 0.7930 0.7930 0.7930 0.7930 0.7930
411.087208 0.7930 0.7930 0.7930 0.7940 0.7940
415.351611 0.7940 0.7940 0.7940 0.7940 0.7940
419.616014 0.7940 0.7940 0.7960 0.7960 0.7960
423.880416 0.7970 0.7970 0.7970 0.7980 0.7980
428.144819 0.7980 0.8000 0.8000 0.8010 0.8010
432.409222 0.8010 0.8010 0.8020 0.8020 0.8040
436.673625 0.8050 0.8050 0.8060 0.8060 0.8080
440.938027 0.8080 0.8080 0.8090 0.8090 0.8100
445.202430 0.8100 0.8100 0.8100 0.8120 0.8120
449.466833 0.8120 0.8120 0.8120 0.8130 0.8130
453.731235 0.8130 0.8130 0.8130 0.8130 0.8130
457.995638 0.8130 0.8130 0.8130 0.8140 0.8160
462.260041 0.8170 0.8170 0.8180 0.8200 0.8200
466.524444 0.8200 0.8200 0.8210 0.8210 0.8210
470.788846 0.8220 0.8240 0.8240 0.8240 0.8250
475.053249 0.8250 0.8280 0.8280 0.8290 0.8290
479.317652 0.8320 0.8330 0.8340 0.8360 0.8360
483.582054 0.8370 0.8380 0.8400 0.8410 0.8420
487.846457 0.8420 0.8440 0.8450 0.8450 0.8450
492.110860 0.8460 0.8480 0.8480 0.8480 0.8480
496.375263 0.8460 0.8460 0.8440 0.8440 0.8420
500.639665 0.8400 0.8380 0.8360 0.8340 0.8330
504.904068 0.8320 0.8300 0.8280 0.8240 0.8210
509.168471 0.8180 0.8180 0.8140 0.8130 0.8130
513.432874 0.8120 0.8120 0.8120 0.8120 0.8130
517.697276 0.8140 0.8140 0.8160 0.8160 0.8170
521.961679 0.8180 0.8210 0.8220 0.8250 0.8260
526.226082 0.8290 0.8300 0.8330 0.8360 0.8420
530.490484 0.8490 0.8500 0.8520 0.8540 0.8540
534.754887 0.8570 0.8580 0.8600 0.8610 0.8620
539.019290 0.8620 0.8640 0.8680 0.8690 0.8690
543.283693 0.8690 0.8690 0.8700 0.8700 0.8700
547.548095 0.8720 0.8720 0.8720 0.8730 0.8740
551.812498 0.8740 0.8760 0.8760 0.8760 0.8760
556.076901 0.8760 0.8740 0.8730 0.8720 0.8720
560.341303 0.8700 0.8700 0.8700 0.8690 0.8690
564.605706 0.8690 0.8680 0.8650 0.8640 0.8620
568.870109 0.8620 0.8620 0.8620 0.8620 0.8620
573.134512 0.8620 0.8620 0.8640 0.8640 0.8640
577.398914 0.8640 0.8640 0.8640 0.8640 0.8640
581.663317 0.8650 0.8660 0.8660 0.8690 0.8700
585.927720 0.8700 0.8700 0.8720 0.8720 0.8720
590.192123 0.8720 0.8720 0.8720 0.8720 0.8720
594.456525 0.8720 0.8720 0.8720 0.8720 0.8720
598.720928 0.8730 0.8730 0.8730 0.8720 0.8720
602.985331 0.8720 0.8700 0.8700 0.8700 0.8690
607.249733 0.8690 0.8680 0.8680 0.8660 0.8650
611.514136 0.8650 0.8640 0.8640 0.8640 0.8640
615.778539 0.8640 0.8640 0.8640 0.8620 0.8620
620.042942 0.8610 0.8600 0.8600 0.8580 0.8580
624.307344 0.8580 0.8580 0.8580 0.8570 0.8570
628.571747 0.8560 0.8560 0.8560 0.8540 0.8530
632.836150 0.8530 0.8530 0.8530 0.8530 0.8530
637.100552 0.8520 0.8520 0.8520 0.8500 0.8500
641.364955 0.8500 0.8500 0.8500 0.8500 0.8500
645.629358 0.8500 0.8500 0.8490 0.8490 0.8480
649.893761 0.8480 0.8480 0.8460 0.8460 0.8450
654.158163 0.8420 0.8410 0.8410 0.8410 0.8400
658.422566 0.8400 0.8400 0.8400 0.8380 0.8380
662.686969 0.8380 0.8380 0.8380 0.8380 0.8380
666.951372 0.8370 0.8370 0.8370 0.8370 0.8370
671.215774 0.8360 0.8360 0.8360 0.8360 0.8340
675.480177 0.8340 0.8340 0.8330 0.8330 0.8330
679.744580 0.8320 0.8320 0.8300 0.8300 0.8300
684.008982 0.8300 0.8300 0.8290 0.8290 0.8290
688.273385 0.8290 0.8290 0.8280 0.8280 0.8260
692.537788 0.8250 0.8220 0.8220 0.8220 0.8220
696.802191 0.8210 0.8210 0.8210 0.8200 0.8200
701.066593 0.8200 0.8180 0.8180 0.8180 0.8170
705.330996 0.8170 0.8170 0.8160 0.8160 0.8160
709.595399 0.8160 0.8160 0.8160 0.8130 0.8130
713.859802 0.8120 0.8100 0.8100 0.8100 0.8100
718.124204 0.8100 0.8100 0.8100 0.8100 0.8090
722.388607 0.8090 0.8080 0.8080 0.8090 0.8090
726.653010 0.8090 0.8090 0.8090 0.8090 0.8090
730.917412 0.8080 0.8060 0.8060 0.8060 0.8050
735.181815 0.8050 0.8050 0.8040 0.8040 0.8020
739.446218 0.8020 0.8020 0.8020 0.8010 0.8010
743.710621 0.8010 0.8010 0.8000 0.8000 0.8000
747.975023 0.7980 0.7980 0.7970 0.7970 0.7960
752.239426 0.7960 0.7960 0.7940 0.7940 0.7930
756.503829 0.7930 0.7930 0.7920 0.7920 0.7920
760.768231 0.7920 0.7920 0.7900 0.7900 0.7900
765.032634 0.7890 0.7890 0.7880 0.7880 0.7860
769.297037 0.7850 0.7820 0.7810 0.7810 0.7810
773.561440 0.7810 0.7810 0.7810 0.7810 0.7800
777.825842 0.7800 0.7780 0.7780 0.7760 0.7740
782.090245 0.7740 0.7730 0.7730 0.7720 0.7700
786.354648 0.7690 0.7690 0.7680 0.7660 0.7660
790.619051 0.7650 0.7640 0.7610 0.7610 0.7600
794.883453 0.7600 0.7600 0.7580 0.7580 0.7580
799.147856 0.7580 0.7580 0.7570 0.7560 0.7530
803.412259 0.7500 0.7490 0.7480 0.7470 0.7450
807.676661 0.7440 0.7430 0.7430 0.7410 0.7400
811.941064 0.7350 0.7290 0.7270 0.7270 0.7240
816.205467 0.7170 0.7150 0.7120 0.7110 0.7090
820.469870 0.7070 0.7050 0.7000 0.7000 0.6970
824.734272 0.6930 0.6880 0.6800 0.6770 0.6760
828.998675 0.6750 0.6690 0.6670 0.6640 0.6610
833.263078 0.6570 0.6530 0.6510 0.6490 0.6480
837.527480 0.6450 0.6410 0.6390 0.6350 0.6310
841.791883 0.6310 0.6250 0.6240 0.6230 0.6210
846.056286 0.6200 0.6200 0.6190 0.6190 0.6190
850.320689 0.6190 0.6170 0.6130 0.6070 0.6040
854.585091 0.6010 0.5960 0.5920 0.5880 0.5830
858.849494 0.5790 0.5760 0.5650 0.5600 0.5530
863.113897 0.5490 0.5440 0.5400 0.5360 0.5350
867.378300 0.5360 0.5370 0.5390 0.5400 0.5410
871.642702 0.5450 0.5480 0.5480 0.5520 0.5550
875.907105 0.5570 0.5610 0.5640 0.5720 0.5750
880.171508 0.5850 0.5890 0.6000 0.6090 0.6150
884.435910 0.6200 0.6210 0.6240 0.6250 0.6270
888.700313 0.6280 0.6280 0.6270 0.6270 0.6250
892.964716 0.6240 0.6210 0.6200 0.6200 0.6190
897.229119 0.6160 0.6160 0.6150 0.6120 0.6110
901.493521 0.6050 0.6030 0.6010 0.5990 0.5960
905.757924 0.5950 0.5950 0.5930 0.5910 0.5890
910.022327 0.5880 0.5870 0.5800 0.5750 0.5720
914.286729 0.5650 0.5640 0.5630 0.5610 0.5590
918.551132 0.5550 0.5550 0.5510 0.5480 0.5410
922.815535 0.5370 0.5360 0.5350 0.5330 0.5270
927.079938 0.5230 0.5190 0.5160 0.5150 0.5110
931.344340 0.5080 0.5040 0.5010 0.5000 0.4950
935.608743 0.4920 0.4900 0.4880 0.4840 0.4840
939.873146 0.4830 0.4820 0.4790 0.4750 0.4710
944.137549 0.4680 0.4660 0.4630 0.4630 0.4620
948.401951 0.4600 0.4600 0.4600 0.4590 0.4590
952.666354 0.4590 0.4590 0.4590 0.4590 0.4600
956.930757 0.4600 0.4620 0.4620 0.4620 0.4630
961.195159 0.4640 0.4660 0.4670 0.4680 0.4680
965.459562 0.4700 0.4720 0.4720 0.4750 0.4760
969.723965 0.4790 0.4800 0.4820 0.4860 0.4870
973.988368 0.4880 0.4900 0.4950 0.5000 0.5000
978.252770 0.5010 0.5040 0.5090 0.5110 0.5130
982.517173 0.5150 0.5160 0.5160 0.5170 0.5190
986.781576 0.5190 0.5190 0.5200 0.5200 0.5210
991.045978 0.5210 0.5210 0.5210 0.5210 0.5210
995.310381 0.5210 0.5210 0.5210 0.5210 0.5210
999.574784 0.5230 0.5230 0.5240 0.5290 0.5310
1003.839187 0.5320 0.5350 0.5360 0.5370 0.5390
1008.103589 0.5440 0.5450 0.5470 0.5480 0.5490
1012.367992 0.5490 0.5490 0.5490 0.5480 0.5470
1016.632395 0.5430 0.5370 0.5330 0.5330 0.5210
1020.896798 0.5050 0.4860 0.4700 0.4600 0.4480
1025.161200 0.4440 0.4360 0.4270 0.4111 0.4020
1029.425603 0.3980 0.3870 0.3790 0.3740 0.3720
1033.690006 0.3720 0.3720 0.3740 0.3750 0.3780
1037.954408 0.3800 0.3830 0.3860 0.3940 0.3980
1042.218811 0.4100 0.4120 0.4220 0.4270 0.4420
1046.483214 0.4580 0.4760 0.4940 0.5010 0.5190
1050.747617 0.5320 0.5590 0.5760 0.5910 0.5950
1055.012019 0.5960 0.5970 0.5960 0.5930 0.5920
1059.276422 0.5910 0.5870 0.5830 0.5730 0.5650
1063.540825 0.5630 0.5560 0.5470 0.5360 0.5240
1067.805228 0.5150 0.5040 0.4960 0.4830 0.4700
1072.069630 0.4550 0.4390 0.4310 0.4160 0.4100
1076.334033 0.4080 0.4070 0.4070 0.4070 0.4070
1080.598436 0.4080 0.4140 0.4200 0.4300 0.4310
1084.862838 0.4470 0.4620 0.4760 0.4900 0.5040
1089.127241 0.5190 0.5430 0.5640 0.5920 0.6320
1093.391644 0.6370 0.6530 0.6640 0.6760 0.6840
1097.656047 0.6910 0.6930 0.6970 0.7000 0.7050
1101.920449 0.7090 0.7120 0.7160 0.7190 0.7230
1106.184852 0.7240 0.7290 0.7370 0.7410 0.7450
1110.449255 0.7530 0.7580 0.7690 0.7770 0.7880
1114.713657 0.7920 0.7970 0.8020 0.8090 0.8130
1118.978060 0.8170 0.8200 0.8320 0.8340 0.8400
1123.242463 0.8460 0.8520 0.8560 0.8600 0.8610
1127.506866 0.8640 0.8690 0.8720 0.8760 0.8780
1131.771268 0.8820 0.8890 0.8900 0.8900 0.8920
1136.035671 0.8920 0.8930 0.8930 0.8930 0.8940
1140.300074 0.8940 0.8960 0.8970 0.8970 0.8970
1144.564477 0.8970 0.8970 0.8960 0.8930 0.8920
1148.828879 0.8920 0.8900 0.8900 0.8890 0.8890
1153.093282 0.8890 0.8880 0.8840 0.8820 0.8810
1157.357685 0.8780 0.8760 0.8740 0.8730 0.8730
1161.622087 0.8720 0.8700 0.8700 0.8690 0.8690
1165.886490 0.8660 0.8650 0.8650 0.8650 0.8650
1170.150893 0.8650 0.8650 0.8660 0.8660 0.8660
1174.415296 0.8660 0.8660 0.8690 0.8690 0.8700
1178.679698 0.8700 0.8700 0.8700 0.8720 0.8780
1182.944101 0.8840 0.8890 0.8940 0.8980 0.9020
1187.208504 0.9060 0.9100 0.9100 0.9130 0.9130
1191.472906 0.9170 0.9180 0.9180 0.9220 0.9260
1195.737309 0.9280 0.9280 0.9290 0.9290 0.9300
1200.001712 0.9300 0.9320 0.9320 0.9300 0.9300
1204.266115 0.9300 0.9320 0.9320 0.9300 0.9280
1208.530517 0.9280 0.9280 0.9280 0.9260 0.9250
1212.794920 0.9240 0.9220 0.9210 0.9210 0.9210
1217.059323 0.9200 0.9180 0.9170 0.9140 0.9140
1221.323726 0.9120 0.9100 0.9080 0.9060 0.9060
1225.588128 0.9060 0.9050 0.9050 0.9040 0.9020
1229.852531 0.9020 0.9020 0.9010 0.9010 0.9010
1234.116934 0.9000 0.8940 0.8930 0.8920 0.8900
1238.381336 0.8880 0.8850 0.8850 0.8850 0.8820
1242.645739 0.8820 0.8810 0.8810 0.8810 0.8800
1246.910142 0.8800 0.8800 0.8800 0.8800 0.8800
1251.174545 0.8800 0.8780 0.8780 0.8780 0.8780
1255.438947 0.8780 0.8780 0.8800 0.8800 0.8800
1259.703350 0.8800 0.8800 0.8800 0.8800 0.8800
1263.967753 0.8800 0.8800 0.8800 0.8800 0.8800
1268.232155 0.8800 0.8810 0.8810 0.8810 0.8810
1272.496558 0.8810 0.8800 0.8800 0.8780 0.8770
1276.760961 0.8760 0.8740 0.8730 0.8730 0.8720
1281.025364 0.8690 0.8660 0.8660 0.8650 0.8640
1285.289766 0.8580 0.8540 0.8520 0.8500 0.8500
1289.554169 0.8490 0.8460 0.8420 0.8380 0.8360
1293.818572 0.8340 0.8320 0.8300 0.8260 0.8240
1298.082975 0.8200 0.8140 0.8120 0.8090 0.8050
1302.347377 0.8000 0.8000 0.7980 0.7960 0.7940
1306.611780 0.7930 0.7930 0.7900 0.7860 0.7840
1310.876183 0.7810 0.7800 0.7770 0.7770 0.7770
1315.140585 0.7760 0.7760 0.7760 0.7760 0.7760
1319.404988 0.7760 0.7760 0.7760 0.7760 0.7760
1323.669391 0.7760 0.7760 0.7760 0.7760 0.7740
1327.933794 0.7740 0.7740 0.7740 0.7730 0.7700
1332.198196 0.7690 0.7680 0.7650 0.7610 0.7600
1336.462599 0.7580 0.7570 0.7570 0.7560 0.7540
1340.727002 0.7490 0.7450 0.7440 0.7410 0.7400
1344.991405 0.7370 0.7330 0.7270 0.7210 0.7160
1349.255807 0.7120 0.7080 0.7040 0.6990 0.6920
1353.520210 0.6770 0.6760 0.6750 0.6720 0.6720
1357.784613 0.6710 0.6710 0.6710 0.6710 0.6720
1362.049015 0.6800 0.6840 0.6910 0.6930 0.6970
1366.313418 0.6990 0.7030 0.7120 0.7190 0.7210
1370.577821 0.7240 0.7250 0.7390 0.7410 0.7440
1374.842224 0.7470 0.7500 0.7530 0.7580 0.7600
1379.106626 0.7620 0.7640 0.7650 0.7660 0.7680
1383.371029 0.7680 0.7690 0.7690 0.7700 0.7720
1387.635432 0.7720 0.7730 0.7730 0.7740 0.7740
1391.899834 0.7760 0.7760 0.7760 0.7770 0.7800
1396.164237 0.7800 0.7810 0.7820 0.7840 0.7860
1400.428640 0.7920 0.7930 0.7960 0.7960 0.7970
1404.693043 0.7970 0.7960 0.7940 0.7940 0.7930
1408.957445 0.7930 0.7930 0.7930 0.7920 0.7920
1413.221848 0.7880 0.7850 0.7840 0.7840 0.7840
1417.486251 0.7820 0.7810 0.7780 0.7730 0.7650
1421.750654 0.7640 0.7610 0.7580 0.7570 0.7570
1426.015056 0.7560 0.7560 0.7500 0.7480 0.7470
1430.279459 0.7450 0.7410 0.7390 0.7360 0.7350
1434.543862 0.7330 0.7310 0.7290 0.7240 0.7160
1438.808264 0.7090 0.7080 0.7070 0.7050 0.6990
1443.072667 0.6930 0.6910 0.6890 0.6890 0.6840
1447.337070 0.6800 0.6770 0.6760 0.6760 0.6730
1451.601473 0.6710 0.6690 0.6690 0.6680 0.6650
1455.865875 0.6630 0.6600 0.6510 0.6490 0.6490
1460.130278 0.6510 0.6520 0.6530 0.6550 0.6550
1464.394681 0.6560 0.6560 0.6590 0.6600 0.6610
1468.659083 0.6630 0.6640 0.6640 0.6610 0.6610
1472.923486 0.6650 0.6650 0.6750 0.6790 0.6830
1477.187889 0.6840 0.6910 0.6920 0.6930 0.6930
1481.452292 0.6950 0.6990 0.7050 0.7080 0.7130
1485.716694 0.7160 0.7210 0.7250 0.7270 0.7310
1489.981097 0.7320 0.7390 0.7410 0.7520 0.7540
1494.245500 0.7570 0.7570 0.7600 0.7610 0.7620
1498.509903 0.7720 0.7730 0.7730 0.7780 0.7850
1502.774305 0.7880 0.7900 0.7900 0.7920 0.7930
1507.038708 0.7940 0.7970 0.8000 0.8010 0.8020
1511.303111 0.8050 0.8060 0.8090 0.8120 0.8120
1515.567513 0.8140 0.8160 0.8170 0.8210 0.8240
1519.831916 0.8250 0.8250 0.8260 0.8280 0.8290
1524.096319 0.8290 0.8290 0.8300 0.8300 0.8300
1528.360722 0.8320 0.8320 0.8320 0.8320 0.8320
1532.625124 0.8320 0.8320 0.8320 0.8290 0.8290
1536.889527 0.8290 0.8280 0.8260 0.8260 0.8250
1541.153930 0.8250 0.8240 0.8240 0.8220 0.8200
1545.418332 0.8180 0.8170 0.8160 0.8130 0.8100
1549.682735 0.8100 0.8090 0.8080 0.8040 0.8010
1553.947138 0.8000 0.7970 0.7960 0.7940 0.7930
1558.211541 0.7920 0.7770 0.7760 0.7730 0.7720
1562.475943 0.7700 0.7690 0.7610 0.7570 0.7520
1566.740346 0.7440 0.7430 0.7400 0.7390 0.7330
1571.004749 0.7230 0.7160 0.7110 0.7070 0.7050
1575.269152 0.7010 0.6929 0.6770 0.6670 0.6630
1579.533554 0.6610 0.6550 0.6480 0.6410 0.6330
1583.797957 0.6280 0.6170 0.6050 0.6010 0.5920
1588.062360 0.5890 0.5840 0.5790 0.5720 0.5630
1592.326762 0.5550 0.5470 0.5430 0.5400 0.5400
1596.591165 0.5390 0.5390 0.5390 0.5390 0.5400
1600.855568 0.5410 0.5430 0.5450 0.5480 0.5510
1605.119971 0.5520 0.5560 0.5630 0.5690 0.5730
1609.384373 0.5760 0.5890 0.5970 0.6050 0.6150
1613.648776 0.6200 0.6310 0.6430 0.6510 0.6600
1617.913179 0.6750 0.6770 0.6830 0.6930 0.7070
1622.177582 0.7160 0.7280 0.7360 0.7400 0.7410
1626.441984 0.7440 0.7490 0.7560 0.7600 0.7610
1630.706387 0.7690 0.7770 0.7820 0.7850 0.7860
1634.970790 0.7900 0.7940 0.7980 0.8040 0.8040
1639.235192 0.8060 0.8080 0.8100 0.8120 0.8120
1643.499595 0.8120 0.8130 0.8130 0.8140 0.8220
1647.763998 0.8260 0.8280 0.8280 0.8280 0.8290
1652.028401 0.8300 0.8300 0.8300 0.8320 0.8320
1656.292803 0.8330 0.8330 0.8330 0.8330 0.8340
1660.557206 0.8360 0.8360 0.8380 0.8380 0.8370
1664.821609 0.8370 0.8380 0.8380 0.8380 0.8370
1669.086011 0.8370 0.8400 0.8420 0.8460 0.8460
1673.350414 0.8480 0.8480 0.8500 0.8500 0.8540
1677.614817 0.8560 0.8570 0.8570 0.8580 0.8600
1681.879220 0.8620 0.8640 0.8640 0.8660 0.8700
1686.143622 0.8700 0.8700 0.8720 0.8720 0.8720
1690.408025 0.8740 0.8760 0.8770 0.8770 0.8770
1694.672428 0.8770 0.8780 0.8820 0.8820 0.8850
1698.936831 0.8860 0.8880 0.8890 0.8890 0.8900
1703.201233 0.8900 0.8920 0.8930 0.8930 0.8940
1707.465636 0.8960 0.8980 0.9000 0.9000 0.9010
1711.730039 0.9010 0.9010 0.9010 0.9010 0.8980
1715.994441 0.8980 0.9010 0.9020 0.9060 0.9080
1720.258844 0.9080 0.9100 0.9100 0.9100 0.9100
1724.523247 0.9100 0.9100 0.9100 0.9100 0.9090
1728.787650 0.9090 0.9100 0.9120 0.9120 0.9120
1733.052052 0.9120 0.9130 0.9140 0.9160 0.9160
1737.316455 0.9160 0.9160 0.9160 0.9140 0.9140
1741.580858 0.9140 0.9170 0.9170 0.9170 0.9180
1745.845260 0.9180 0.9200 0.9200 0.9200 0.9210
1750.109663 0.9220 0.9220 0.9220 0.9220 0.9220
1754.374066 0.9210 0.9210 0.9210 0.9240 0.9240
1758.638469 0.9240 0.9220 0.9220 0.9240 0.9260
1762.902871 0.9280 0.9260 0.9260 0.9260 0.9280
1767.167274 0.9260 0.9260 0.9260 0.9260 0.9260
1771.431677 0.9260 0.9260 0.9280 0.9280 0.9260
1775.696080 0.9260 0.9250 0.9250 0.9250 0.9250
1779.960482 0.9260 0.9260 0.9280 0.9280 0.9290
1784.224885 0.9280 0.9290 0.9290 0.9280 0.9290
1788.489288 0.9290 0.9290 0.9290 0.9290 0.9290
1792.753690 0.9290 0.9290 0.9300 0.9300 0.9300
1797.018093 0.9300 0.9300 0.9320 0.9320 0.9320
1801.282496 0.9330 0.9320 0.9320 0.9320 0.9320
1805.546899 0.9300 0.9290 0.9280 0.9280 0.9280
1809.811301 0.9280 0.9280 0.9300 0.9300 0.9320
1814.075704 0.9320 0.9320 0.9320 0.9320 0.9290
1818.340107 0.9290 0.9280 0.9280 0.9280 0.9260
1822.604509 0.9260 0.9280 0.9280 0.9280 0.9290
1826.868912 0.9300 0.9300 0.9300 0.9300 0.9290
1831.133315 0.9280 0.9260 0.9260 0.9260 0.9280
1835.397718 0.9280 0.9290 0.9290 0.9320 0.9320
1839.662120 0.9320 0.9320 0.9320 0.9320 0.9300
1843.926523 0.9280 0.9250 0.9220 0.9250 0.9260
1848.190926 0.9280 0.9280 0.9280 0.9280 0.9290
1852.455329 0.9290 0.9290 0.9290 0.9290 0.9290
1856.719731 0.9290 0.9290 0.9290 0.9290 0.9290
1860.984134 0.9290 0.9280 0.9280 0.9280 0.9280
1865.248537 0.9280 0.9260 0.9260 0.9260 0.9260
1869.512939 0.9260 0.9250 0.9250 0.9260 0.9260
1873.777342 0.9280 0.9280 0.9320 0.9320 0.9290
1878.041745 0.9280 0.9280 0.9280 0.9280 0.9260
1882.306148 0.9260 0.9280 0.9280 0.9280 0.9280
1886.570550 0.9280 0.9290 0.9290 0.9280 0.9280
1890.834953 0.9260 0.9250 0.9240 0.9240 0.9250
1895.099356 0.9250 0.9280 0.9300 0.9320 0.9320
1899.363758 0.9320 0.9290 0.9250 0.9240 0.9220
1903.628161 0.9220 0.9220 0.9220 0.9220 0.9220
1907.892564 0.9220 0.9220 0.9220 0.9240 0.9240
1912.156967 0.9260 0.9260 0.9260 0.9260 0.9260
1916.421369 0.9260 0.9260 0.9250 0.9240 0.9240
1920.685772 0.9240 0.9240 0.9250 0.9250 0.9250
1924.950175 0.9260 0.9260 0.9260 0.9260 0.9260
1929.214578 0.9260 0.9260 0.9250 0.9240 0.9240
1933.478980 0.9240 0.9220 0.9220 0.9220 0.9220
1937.743383 0.9220 0.9240 0.9240 0.9250 0.9250
1942.007786 0.9250 0.9250 0.9250 0.9260 0.9260
1946.272188 0.9260 0.9260 0.9260 0.9260 0.9260
1950.536591 0.9280 0.9280 0.9260 0.9260 0.9250
1954.800994 0.9250 0.9250 0.9240 0.9240 0.9250
1959.065397 0.9480 0.9570 0.9560 0.9420 0.9300
1963.329799 0.9280 0.9260 0.9260 0.9260 0.9260
1967.594202 0.9260 0.9260 0.9250 0.9250 0.9250
1971.858605 0.9240 0.9240 0.9240 0.9240 0.9250
1976.123008 0.9260 0.9280 0.9280 0.9280 0.9260
1980.387410 0.9260 0.9250 0.9260 0.9260 0.9260
1984.651813 0.9260 0.9260 0.9260 0.9260 0.9260
1988.916216 0.9260 0.9260 0.9260 0.9280 0.9280
1993.180618 0.9280 0.9280 0.9260 0.9260 0.9260
1997.445021 0.9250 0.9240 0.9120 0.9120 0.9170
2001.709424 0.9220 0.9230 0.9240 0.9240 0.9240
2005.973827 0.9240 0.9240 0.9240 0.9240 0.9230
2010.238229 0.9220 0.9215 0.9210 0.9205 0.9200
2014.502632 0.9190 0.9180 0.9180 0.9180 0.9175
2018.767035 0.9170 0.9170 0.9170 0.9190 0.9210
2023.031437 0.9210 0.9210 0.9215 0.9220 0.9220
2027.295840 0.9220 0.9220 0.9220 0.9220 0.9220
2031.560243 0.9220 0.9220 0.9215 0.9210 0.9205
2035.824646 0.9200 0.9200 0.9200 0.9200 0.9200
2040.089048 0.9205 0.9210 0.9210 0.9210 0.9210
2044.353451 0.9210 0.9215 0.9220 0.9220 0.9220
2048.617854 0.9220 0.9220 0.9220 0.9220 0.9215
2052.882257 0.9210 0.9210 0.9210 0.9205 0.9200
2057.146659 0.9190 0.9180 0.9175 0.9170 0.9170
2061.411062 0.9170 0.9185 0.9200 0.9200 0.9200
2065.675465 0.9200 0.9200 0.9205 0.9210 0.9205
2069.939867 0.9200 0.9190 0.9180 0.9175 0.9170
2074.204270 0.9170 0.9170 0.9165 0.9160 0.9160
2078.468673 0.9160 0.9150 0.9140 0.9140 0.9140
2082.733076 0.9140 0.9140 0.9140 0.9140 0.9150
2086.997478 0.9160 0.9160 0.9160 0.9160 0.9160
2091.261881 0.9160 0.9160 0.9160 0.9160 0.9160
2095.526284 0.9160 0.9165 0.9170 0.9170 0.9170
2099.790686 0.9175 0.9180 0.9180 0.9180 0.9180
2104.055089 0.9180 0.9180 0.9180 0.9180 0.9180
2108.319492 0.9175 0.9170 0.9170 0.9170 0.9175
2112.583895 0.9180 0.9180 0.9180 0.9180 0.9180
2116.848297 0.9180 0.9180 0.9180 0.9180 0.9180
2121.112700 0.9180 0.9190 0.9200 0.9200 0.9200
2125.377103 0.9200 0.9200 0.9190 0.9180 0.9180
2129.641506 0.9180 0.9175 0.9170 0.9156 0.9141
