##TITLE=ACETIC ACID, ETHYL ESTER
##JCAMP-DX=4.24
##DATA TYPE=INFRARED SPECTRUM
##CLASS=COBLENTZ
##ORIGIN=DOW CHEMICAL COMPANY
##OWNER=COBLENTZ SOCIETY
Collection (C) 2018 copyright by the U.S. Secretary of Commerce
on behalf of the United States of America. All rights reserved.
##DATE=1964
##NAMES=ethyl acetate
ETHYL ACETATE
##CAS REGISTRY NO=141-78-6
##MOLFORM=C4 H8 O2
##SOURCE REFERENCE=COBLENTZ NO. 8774
##$NIST SOURCE=COBLENTZ
##$NIST IMAGE=cob-r8774
##SPECTROMETER/DATA SYSTEM=DOW KBr FOREPRISM-GRATING
##INSTRUMENT PARAMETERS=GRATING CHANGED AT 5.0, 7.5, 15.0 MICRON
##STATE=GAS (20 mmHg, N2 ADDED, TOTAL PRESSURE 600 mmHg)
##PATH LENGTH=5 CM
##SAMPLING PROCEDURE=TRANSMISSION
##RESOLUTION=2
##DATA PROCESSING=DIGITIZED BY NIST FROM HARD COPY (FROM TWO SEGMENTS)
##XUNITS=1/CM
##YUNITS=TRANSMITTANCE
##XFACTOR=1.000000
##YFACTOR=1
##DELTAX=0.936038
##FIRSTX=380.655
##LASTX=3782.22
##FIRSTY=0.982
##MAXX=3782.22
##MINX=380.655
##MAXY=1.005
##MINY=0.004
##NPOINTS=3635
##XYDATA=(X++(Y..Y))
380.655000 0.9820 0.9820 0.9820 0.9820 0.9820
385.335188 0.9820 0.9820 0.9820 0.9820 0.9820
390.015376 0.9820 0.9820 0.9820 0.9820 0.9820
394.695564 0.9820 0.9810 0.9810 0.9810 0.9810
399.375751 0.9810 0.9810 0.9810 0.9810 0.9810
404.055939 0.9810 0.9810 0.9810 0.9810 0.9810
408.736127 0.9810 0.9790 0.9790 0.9790 0.9790
413.416315 0.9780 0.9780 0.9780 0.9780 0.9780
418.096503 0.9780 0.9780 0.9780 0.9790 0.9790
422.776691 0.9810 0.9810 0.9810 0.9810 0.9810
427.456879 0.9790 0.9790 0.9790 0.9780 0.9780
432.137066 0.9780 0.9780 0.9760 0.9750 0.9730
436.817254 0.9720 0.9720 0.9690 0.9680 0.9680
441.497442 0.9660 0.9660 0.9650 0.9630 0.9630
446.177630 0.9620 0.9620 0.9600 0.9590 0.9590
450.857818 0.9570 0.9540 0.9530 0.9520 0.9500
455.538006 0.9500 0.9500 0.9490 0.9490 0.9490
460.218194 0.9490 0.9500 0.9520 0.9530 0.9540
464.898382 0.9540 0.9570 0.9590 0.9620 0.9630
469.578569 0.9660 0.9680 0.9680 0.9700 0.9730
474.258757 0.9730 0.9760 0.9780 0.9810 0.9810
478.938945 0.9820 0.9840 0.9840 0.9850 0.9860
483.619133 0.9860 0.9880 0.9890 0.9910 0.9910
488.299321 0.9910 0.9910 0.9920 0.9920 0.9920
492.979509 0.9920 0.9940 0.9940 0.9940 0.9940
497.659697 0.9940 0.9950 0.9950 0.9950 0.9950
502.339884 0.9950 0.9950 0.9950 0.9950 0.9970
507.020072 0.9970 0.9970 0.9970 0.9970 0.9970
511.700260 0.9970 0.9970 0.9970 0.9970 0.9970
516.380448 0.9970 0.9970 0.9970 0.9970 0.9970
521.060636 0.9970 0.9970 0.9970 0.9970 0.9970
525.740824 0.9970 0.9970 0.9970 0.9970 0.9970
530.421012 0.9980 0.9970 0.9970 0.9970 0.9970
535.101199 0.9970 0.9980 0.9980 0.9980 0.9980
539.781387 0.9980 0.9980 0.9980 0.9980 0.9980
544.461575 0.9980 0.9980 1.0000 1.0000 1.0010
549.141763 1.0010 1.0010 1.0010 1.0000 1.0000
553.821951 1.0000 1.0000 0.9980 0.9980 0.9980
558.502139 0.9980 1.0000 1.0000 1.0000 1.0000
563.182327 1.0000 1.0000 1.0000 1.0000 1.0000
567.862514 1.0000 1.0000 1.0000 0.9980 0.9980
572.542702 0.9980 0.9980 0.9970 0.9970 0.9950
577.222890 0.9950 0.9940 0.9920 0.9910 0.9890
581.903078 0.9880 0.9860 0.9850 0.9840 0.9820
586.583266 0.9810 0.9790 0.9780 0.9720 0.9690
591.263454 0.9660 0.9620 0.9590 0.9570 0.9560
595.943642 0.9490 0.9470 0.9460 0.9440 0.9400
600.623829 0.9330 0.9270 0.9180 0.9011 0.8980
605.304017 0.9010 0.9020 0.9050 0.9080 0.9090
609.984205 0.9110 0.9120 0.9140 0.9140 0.9140
614.664393 0.9120 0.9110 0.9080 0.9060 0.8980
619.344581 0.8960 0.8900 0.8880 0.8800 0.8730
624.024769 0.8660 0.8590 0.8570 0.8590 0.8610
628.704957 0.8630 0.8700 0.8730 0.8750 0.8760
633.385145 0.8760 0.8760 0.8770 0.8770 0.8790
638.065332 0.8850 0.8880 0.8890 0.8920 0.8960
642.745520 0.9020 0.9170 0.9360 0.9460 0.9570
647.425708 0.9680 0.9780 0.9790 0.9840 0.9860
652.105896 0.9910 0.9920 0.9920 0.9940 0.9940
656.786084 0.9940 0.9940 0.9940 0.9940 0.9940
661.466272 0.9940 0.9940 0.9940 0.9950 0.9950
666.146460 0.9950 0.9940 0.9950 0.9950 0.9950
670.826647 0.9950 0.9950 0.9970 0.9970 0.9970
675.506835 0.9970 0.9970 0.9970 0.9970 0.9970
680.187023 0.9970 0.9980 0.9980 0.9980 0.9980
684.867211 1.0000 1.0000 1.0000 1.0000 1.0010
689.547399 1.0010 1.0010 1.0010 1.0010 1.0010
694.227587 1.0010 1.0000 1.0000 1.0000 1.0000
698.907775 1.0000 1.0000 1.0000 1.0000 1.0010
703.587962 1.0010 1.0010 1.0010 1.0020 1.0020
708.268150 1.0020 1.0020 1.0020 1.0020 1.0020
712.948338 1.0020 1.0020 1.0020 1.0020 1.0020
717.628526 1.0020 1.0020 1.0040 1.0040 1.0040
722.308714 1.0040 1.0040 1.0040 1.0040 1.0040
726.988902 1.0040 1.0040 1.0040 1.0040 1.0040
731.669090 1.0040 1.0050 1.0050 1.0050 1.0050
736.349277 1.0050 1.0050 1.0050 1.0040 1.0040
741.029465 1.0040 1.0040 1.0040 1.0040 1.0020
745.709653 1.0020 1.0000 1.0000 1.0000 1.0000
750.389841 0.9980 0.9980 0.9980 0.9970 0.9970
755.070029 0.9970 0.9970 0.9950 0.9940 0.9940
759.750217 0.9920 0.9890 0.9890 0.9880 0.9860
764.430405 0.9850 0.9850 0.9840 0.9820 0.9790
769.110592 0.9760 0.9730 0.9700 0.9690 0.9660
773.790780 0.9630 0.9540 0.9520 0.9490 0.9460
778.470968 0.9440 0.9410 0.9380 0.9370 0.9340
783.151156 0.9330 0.9330 0.9340 0.9340 0.9330
787.831344 0.9310 0.9300 0.9300 0.9280 0.9270
792.511532 0.9270 0.9280 0.9300 0.9310 0.9330
797.191720 0.9370 0.9400 0.9440 0.9460 0.9490
801.871908 0.9570 0.9560 0.9570 0.9590 0.9620
806.552095 0.9630 0.9660 0.9680 0.9700 0.9720
811.232283 0.9750 0.9760 0.9780 0.9780 0.9780
815.912471 0.9780 0.9780 0.9780 0.9760 0.9750
820.592659 0.9750 0.9730 0.9720 0.9720 0.9720
825.272847 0.9700 0.9700 0.9650 0.9620 0.9590
829.953035 0.9570 0.9540 0.9500 0.9500 0.9440
834.633223 0.9370 0.9340 0.9310 0.9210 0.9150
839.313410 0.9140 0.9110 0.9050 0.8990 0.8950
843.993598 0.8930 0.8930 0.8930 0.8920 0.8920
848.673786 0.8900 0.8900 0.8900 0.8890 0.8890
853.353974 0.8890 0.8890 0.8890 0.8890 0.8900
858.034162 0.8900 0.8920 0.8930 0.8930 0.8960
862.714350 0.9020 0.9150 0.9180 0.9240 0.9340
867.394538 0.9360 0.9410 0.9470 0.9560 0.9590
872.074725 0.9630 0.9680 0.9730 0.9760 0.9790
876.754913 0.9810 0.9820 0.9840 0.9850 0.9880
881.435101 0.9890 0.9910 0.9920 0.9920 0.9920
886.115289 0.9940 0.9940 0.9940 0.9950 0.9950
890.795477 0.9950 0.9950 0.9950 0.9940 0.9940
895.475665 0.9920 0.9890 0.9880 0.9840 0.9820
900.155853 0.9810 0.9760 0.9720 0.9660 0.9541
904.836040 0.9490 0.9410 0.9370 0.9340 0.9310
909.516228 0.9210 0.9170 0.9150 0.9140 0.9080
914.196416 0.9040 0.9010 0.9010 0.8990 0.8960
918.876604 0.8950 0.8930 0.8920 0.8850 0.8820
923.556792 0.8800 0.8790 0.8790 0.8770 0.8750
928.236980 0.8730 0.8720 0.8700 0.8690 0.8690
932.917168 0.8700 0.8730 0.8760 0.8830 0.8850
937.597355 0.8880 0.8880 0.8880 0.8880 0.8880
942.277543 0.8890 0.9050 0.9050 0.8980 0.8960
946.957731 0.8980 0.8990 0.9139 0.9329 0.9459
951.637919 0.9530 0.9660 0.9780 0.9790 0.9820
956.318107 0.9840 0.9860 0.9880 0.9880 0.9890
960.998295 0.9890 0.9890 0.9890 0.9880 0.9880
965.678483 0.9860 0.9860 0.9860 0.9860 0.9850
970.358671 0.9850 0.9840 0.9840 0.9820 0.9820
975.038858 0.9810 0.9810 0.9790 0.9760 0.9730
979.719046 0.9700 0.9700 0.9680 0.9650 0.9600
984.399234 0.9570 0.9540 0.9540 0.9490 0.9460
989.079422 0.9430 0.9360 0.9340 0.9300 0.9250
993.759610 0.9220 0.9210 0.9200 0.9200 0.9180
998.439798 0.9180 0.9180 0.9150 0.9150 0.9140
1003.119986 0.9140 0.9140 0.9140 0.9150 0.9150
1007.800173 0.9170 0.9170 0.9180 0.9180 0.9180
1012.480361 0.9200 0.9210 0.9210 0.9210 0.9200
1017.160549 0.9200 0.9180 0.9170 0.9150 0.9120
1021.840737 0.9080 0.9020 0.8980 0.8890 0.8860
1026.520925 0.8790 0.8700 0.8560 0.8281 0.8160
1031.201113 0.8030 0.7801 0.7481 0.7251 0.6862
1035.881301 0.6780 0.6580 0.6290 0.5901 0.5311
1040.561488 0.5071 0.4621 0.4172 0.3822 0.3372
1045.241676 0.3180 0.2920 0.2451 0.2380 0.2280
1049.921864 0.2180 0.2090 0.1990 0.1881 0.1781
1054.602052 0.1750 0.1740 0.1720 0.1720 0.1710
1059.282240 0.1710 0.1720 0.1740 0.1780 0.1810
1063.962428 0.1860 0.1960 0.2060 0.2130 0.2359
1068.642616 0.2769 0.3109 0.3279 0.3608 0.4614
1073.322803 0.4970 0.5020 0.5170 0.5459 0.5580
1078.002991 0.5690 0.5879 0.6009 0.6249 0.6379
1082.683179 0.6430 0.6550 0.6640 0.6740 0.6840
1087.363367 0.6930 0.6930 0.6930 0.6910 0.6910
1092.043555 0.6900 0.6870 0.6830 0.6800 0.6740
1096.723743 0.6670 0.6640 0.6610 0.6560 0.6540
1101.403931 0.6460 0.6430 0.6420 0.6420 0.6430
1106.084118 0.6430 0.6460 0.6540 0.6669 0.6769
1110.764306 0.6780 0.6780 0.6780 0.6780 0.6800
1115.444494 0.6880 0.6960 0.7129 0.7309 0.7579
1120.124682 0.7930 0.8060 0.8190 0.8320 0.8480
1124.804870 0.8600 0.8630 0.8690 0.8700 0.8720
1129.485058 0.8730 0.8820 0.8860 0.8920 0.8990
1134.165246 0.9060 0.9140 0.9140 0.9200 0.9220
1138.845434 0.9330 0.9340 0.9360 0.9370 0.9380
1143.525621 0.9380 0.9400 0.9400 0.9410 0.9410
1148.205809 0.9410 0.9400 0.9400 0.9370 0.9370
1152.885997 0.9370 0.9370 0.9360 0.9360 0.9340
1157.566185 0.9340 0.9330 0.9330 0.9310 0.9310
1162.246373 0.9300 0.9300 0.9300 0.9300 0.9300
1166.926561 0.9300 0.9310 0.9310 0.9310 0.9310
1171.606749 0.9330 0.9330 0.9330 0.9340 0.9340
1176.286936 0.9340 0.9340 0.9340 0.9340 0.9330
1180.967124 0.9330 0.9310 0.9300 0.9280 0.9270
1185.647312 0.9220 0.9200 0.9180 0.9170 0.9140
1190.327500 0.9120 0.9110 0.9080 0.9020 0.8930
1195.007688 0.8900 0.8890 0.8790 0.8720 0.8600
1199.687876 0.8450 0.8370 0.8251 0.8091 0.7841
1204.368064 0.7640 0.7410 0.7220 0.7060 0.6900
1209.048251 0.6740 0.6581 0.6381 0.6161 0.5871
1213.728439 0.5210 0.5070 0.4940 0.4561 0.4341
1218.408627 0.4061 0.3801 0.3601 0.3272 0.3002
1223.088815 0.2550 0.2030 0.1840 0.1561 0.1251
1227.769003 0.0622 0.0490 0.0430 0.0301 0.0071
1232.449191 0.0040 0.0040 0.0040 0.0040 0.0040
1237.129379 0.0040 0.0040 0.0050 0.0050 0.0050
1241.809566 0.0050 0.0050 0.0050 0.0050 0.0050
1246.489754 0.0050 0.0050 0.0070 0.0070 0.0070
1251.169942 0.0080 0.0100 0.0110 0.0150 0.0170
1255.850130 0.0210 0.0300 0.0370 0.0460 0.0520
1260.530318 0.0680 0.0970 0.1260 0.1420 0.1929
1265.210506 0.2149 0.2409 0.2699 0.2989 0.3289
1269.890694 0.3570 0.3850 0.4080 0.4270 0.4330
1274.570882 0.4340 0.4380 0.4460 0.4659 0.4859
1279.251069 0.5130 0.5420 0.5610 0.5780 0.6219
1283.931257 0.6778 0.6929 0.7159 0.7409 0.7569
1288.611445 0.7580 0.7700 0.7920 0.7930 0.7920
1293.291633 0.7890 0.7860 0.7840 0.7810 0.7730
1297.971821 0.7680 0.7650 0.7630 0.7550 0.7470
1302.652009 0.7380 0.7151 0.7120 0.7120 0.7130
1307.332197 0.7150 0.7160 0.7180 0.7190 0.7200
1312.012384 0.7220 0.7260 0.7290 0.7320 0.7360
1316.692572 0.7390 0.7470 0.7570 0.7600 0.7670
1321.372760 0.7790 0.7959 0.8189 0.8349 0.8479
1326.052948 0.8600 0.8730 0.8880 0.8930 0.8980
1330.733136 0.9060 0.9140 0.9299 0.9310 0.9310
1335.413324 0.9310 0.9310 0.9300 0.9300 0.9270
1340.093512 0.9250 0.9220 0.9200 0.9170 0.9120
1344.773699 0.9110 0.9080 0.9020 0.8950 0.8890
1349.453887 0.8850 0.8691 0.8501 0.8162 0.8031
1354.134075 0.7800 0.7500 0.7390 0.7230 0.7070
1358.814263 0.6910 0.6780 0.6710 0.6581 0.6252
1363.494451 0.4971 0.4790 0.4590 0.4410 0.4221
1368.174639 0.4041 0.3861 0.3671 0.3372 0.3221
1372.854827 0.3090 0.2870 0.2840 0.2860 0.2870
1377.535014 0.2920 0.2890 0.2860 0.2840 0.2840
1382.215202 0.2890 0.2920 0.2990 0.3030 0.3050
1386.895390 0.3160 0.3270 0.3350 0.3589 0.3918
1391.575578 0.4240 0.4630 0.5149 0.5360 0.5559
1396.255766 0.5939 0.6189 0.6359 0.6459 0.6669
1400.935954 0.6860 0.7030 0.7200 0.7340 0.7350
1405.616142 0.7380 0.7420 0.7480 0.7570 0.7640
1410.296329 0.7730 0.7870 0.7950 0.8030 0.8030
1414.976517 0.8120 0.8160 0.8270 0.8280 0.8280
1419.656705 0.8280 0.8290 0.8290 0.8280 0.8280
1424.336893 0.8270 0.8240 0.8240 0.8210 0.8180
1429.017081 0.8160 0.8150 0.8120 0.8090 0.8090
1433.697269 0.8060 0.8050 0.8020 0.7960 0.7950
1438.377457 0.7930 0.7920 0.7900 0.7860 0.7830
1443.057645 0.7790 0.7770 0.7740 0.7710 0.7710
1447.737832 0.7700 0.7650 0.7630 0.7600 0.7550
1452.418020 0.7500 0.7480 0.7420 0.7410 0.7410
1457.098208 0.7420 0.7420 0.7420 0.7440 0.7440
1461.778396 0.7440 0.7440 0.7440 0.7450 0.7450
1466.458584 0.7450 0.7450 0.7470 0.7470 0.7470
1471.138772 0.7480 0.7480 0.7500 0.7540 0.7550
1475.818960 0.7580 0.7600 0.7630 0.7640 0.7670
1480.499147 0.7680 0.7730 0.7770 0.7919 0.7960
1485.179335 0.8060 0.8090 0.8150 0.8280 0.8310
1489.859523 0.8370 0.8410 0.8430 0.8450 0.8480
1494.539711 0.8500 0.8510 0.8560 0.8600 0.8670
1499.219899 0.8690 0.8770 0.8820 0.8880 0.8930
1503.900087 0.8980 0.8990 0.9010 0.9020 0.9040
1508.580275 0.9060 0.9080 0.9090 0.9170 0.9170
1513.260462 0.9200 0.9210 0.9220 0.9240 0.9250
1517.940650 0.9270 0.9280 0.9300 0.9300 0.9300
1522.620838 0.9310 0.9310 0.9310 0.9330 0.9330
1527.301026 0.9330 0.9340 0.9340 0.9340 0.9340
1531.981214 0.9340 0.9340 0.9340 0.9340 0.9340
1536.661402 0.9340 0.9340 0.9340 0.9340 0.9340
1541.341590 0.9330 0.9330 0.9330 0.9340 0.9340
1546.021777 0.9340 0.9340 0.9340 0.9340 0.9340
1550.701965 0.9340 0.9340 0.9340 0.9340 0.9340
1555.382153 0.9330 0.9330 0.9330 0.9330 0.9330
1560.062341 0.9330 0.9330 0.9330 0.9340 0.9340
1564.742529 0.9360 0.9370 0.9380 0.9400 0.9410
1569.422717 0.9410 0.9430 0.9430 0.9430 0.9440
1574.102905 0.9460 0.9470 0.9470 0.9490 0.9500
1578.783092 0.9520 0.9520 0.9530 0.9540 0.9540
1583.463280 0.9560 0.9570 0.9570 0.9590 0.9590
1588.143468 0.9600 0.9600 0.9600 0.9620 0.9620
1592.823656 0.9620 0.9620 0.9620 0.9620 0.9620
1597.503844 0.9620 0.9600 0.9600 0.9600 0.9600
1602.184032 0.9600 0.9590 0.9590 0.9590 0.9590
1606.864220 0.9590 0.9570 0.9570 0.9570 0.9570
1611.544408 0.9570 0.9570 0.9560 0.9560 0.9560
1616.224595 0.9540 0.9530 0.9530 0.9530 0.9530
1620.904783 0.9530 0.9530 0.9520 0.9520 0.9520
1625.584971 0.9520 0.9520 0.9520 0.9520 0.9520
1630.265159 0.9520 0.9500 0.9500 0.9490 0.9490
1634.945347 0.9490 0.9500 0.9500 0.9500 0.9500
1639.625535 0.9520 0.9520 0.9500 0.9500 0.9490
1644.305723 0.9490 0.9470 0.9470 0.9470 0.9470
1648.985910 0.9470 0.9470 0.9470 0.9470 0.9460
1653.666098 0.9440 0.9440 0.9440 0.9440 0.9430
1658.346286 0.9430 0.9410 0.9400 0.9400 0.9400
1663.026474 0.9380 0.9380 0.9380 0.9370 0.9370
1667.706662 0.9360 0.9360 0.9360 0.9340 0.9330
1672.386850 0.9330 0.9310 0.9310 0.9300 0.9300
1677.067038 0.9280 0.9270 0.9270 0.9250 0.9250
1681.747225 0.9240 0.9240 0.9210 0.9200 0.9180
1686.427413 0.9170 0.9170 0.9150 0.9150 0.9140
1691.107601 0.9140 0.9120 0.9120 0.9110 0.9110
1695.787789 0.9090 0.9090 0.9090 0.9090 0.9090
1700.467977 0.9090 0.9080 0.9080 0.9060 0.9050
1705.148165 0.9040 0.9020 0.9020 0.9010 0.8990
1709.828353 0.8960 0.8960 0.8950 0.8950 0.8900
1714.508540 0.8880 0.8860 0.8830 0.8830 0.8820
1719.188728 0.8820 0.8820 0.8790 0.8750 0.8660
1723.868916 0.8560 0.8510 0.8400 0.8310 0.8151
1728.549104 0.7990 0.7920 0.7840 0.7640 0.7420
1733.229292 0.7101 0.6811 0.6720 0.6481 0.6231
1737.909480 0.5940 0.5361 0.5130 0.4691 0.4251
1742.589668 0.3752 0.3292 0.3131 0.2812 0.2512
1747.269855 0.2160 0.1830 0.1650 0.0981 0.0661
1751.950043 0.0361 0.0330 0.0300 0.0270 0.0240
1756.630231 0.0230 0.0230 0.0240 0.0260 0.0290
1761.310419 0.0300 0.0300 0.0290 0.0270 0.0240
1765.990607 0.0210 0.0200 0.0180 0.0180 0.0200
1770.670795 0.0240 0.0260 0.0290 0.0399 0.0489
1775.350983 0.0650 0.0790 0.1000 0.1200 0.1489
1780.031171 0.1580 0.2018 0.2608 0.3277 0.3449
1784.711358 0.3750 0.3980 0.4490 0.5139 0.5419
1789.391546 0.5689 0.6139 0.6608 0.7188 0.7737
1794.071734 0.8270 0.8350 0.8510 0.8690 0.8790
1798.751922 0.8890 0.8920 0.8990 0.9090 0.9140
1803.432110 0.9180 0.9210 0.9210 0.9240 0.9250
1808.112298 0.9250 0.9250 0.9250 0.9270 0.9270
1812.792486 0.9270 0.9270 0.9270 0.9270 0.9270
1817.472673 0.9270 0.9270 0.9250 0.9250 0.9250
1822.152861 0.9240 0.9240 0.9240 0.9240 0.9240
1826.833049 0.9240 0.9240 0.9240 0.9240 0.9240
1831.513237 0.9240 0.9240 0.9240 0.9240 0.9250
1836.193425 0.9250 0.9250 0.9250 0.9250 0.9270
1840.873613 0.9280 0.9300 0.9300 0.9310 0.9330
1845.553801 0.9330 0.9340 0.9340 0.9360 0.9360
1850.233988 0.9370 0.9380 0.9380 0.9400 0.9400
1854.914176 0.9400 0.9400 0.9400 0.9410 0.9410
1859.594364 0.9410 0.9410 0.9430 0.9430 0.9430
1864.274552 0.9430 0.9430 0.9430 0.9430 0.9430
1868.954740 0.9430 0.9430 0.9430 0.9440 0.9440
1873.634928 0.9440 0.9440 0.9430 0.9430 0.9430
1878.315116 0.9430 0.9430 0.9410 0.9410 0.9410
1882.995303 0.9400 0.9400 0.9400 0.9400 0.9380
1887.675491 0.9400 0.9400 0.9410 0.9410 0.9400
1892.355679 0.9380 0.9380 0.9380 0.9380 0.9380
1897.035867 0.9370 0.9370 0.9370 0.9370 0.9370
1901.716055 0.9370 0.9370 0.9380 0.9380 0.9380
1906.396243 0.9400 0.9400 0.9410 0.9430 0.9430
1911.076431 0.9440 0.9460 0.9470 0.9470 0.9490
1915.756618 0.9500 0.9530 0.9530 0.9530 0.9540
1920.436806 0.9560 0.9570 0.9570 0.9590 0.9590
1925.116994 0.9590 0.9590 0.9590 0.9600 0.9620
1929.797182 0.9620 0.9620 0.9630 0.9630 0.9630
1934.477370 0.9630 0.9630 0.9630 0.9630 0.9630
1939.157558 0.9630 0.9630 0.9650 0.9650 0.9630
1943.837746 0.9630 0.9630 0.9630 0.9630 0.9630
1948.517934 0.9630 0.9620 0.9630 0.9630 0.9620
1953.198121 0.9620 0.9620 0.9620 0.9620 0.9620
1957.878309 0.9620 0.9620 0.9620 0.9600 0.9600
1962.558497 0.9600 0.9600 0.9600 0.9620 0.9620
1967.238685 0.9620 0.9600 0.9600 0.9600 0.9600
1971.918873 0.9590 0.9590 0.9590 0.9590 0.9590
1976.599061 0.9600 0.9600 0.9600 0.9600 0.9600
1981.279249 0.9600 0.9600 0.9590 0.9590 0.9590
1985.959436 0.9590 0.9590 0.9570 0.9570 0.9570
1990.639624 0.9570 0.9570 0.9560 0.9560 0.9560
1995.319812 0.9560 0.9540 0.9540 0.9520 0.9490
2000.000000 0.9470 0.9465 0.9460 0.9450 0.9440
2004.680188 0.9440 0.9440 0.9440 0.9440 0.9440
2009.360376 0.9440 0.9440 0.9440 0.9440 0.9440
2014.040564 0.9440 0.9440 0.9440 0.9440 0.9449
2018.720751 0.9460 0.9460 0.9460 0.9460 0.9460
2023.400939 0.9465 0.9470 0.9470 0.9470 0.9479
2028.081127 0.9489 0.9495 0.9500 0.9500 0.9500
2032.761315 0.9509 0.9519 0.9524 0.9529 0.9530
2037.441503 0.9530 0.9530 0.9530 0.9534 0.9539
2042.121691 0.9540 0.9540 0.9540 0.9540 0.9540
2046.801879 0.9540 0.9536 0.9531 0.9530 0.9530
2051.482066 0.9530 0.9530 0.9526 0.9521 0.9520
2056.162254 0.9520 0.9520 0.9520 0.9512 0.9502
2060.842442 0.9500 0.9500 0.9496 0.9491 0.9490
2065.522630 0.9490 0.9482 0.9472 0.9466 0.9461
2070.202818 0.9452 0.9442 0.9412 0.9377 0.9358
2074.883006 0.9343 0.9328 0.9313 0.9310 0.9310
2079.563194 0.9310 0.9310 0.9310 0.9310 0.9310
2084.243382 0.9310 0.9318 0.9328 0.9330 0.9330
2088.923569 0.9330 0.9330 0.9330 0.9330 0.9334
2093.603757 0.9339 0.9340 0.9340 0.9340 0.9340
2098.283945 0.9340 0.9340 0.9347 0.9357 0.9364
2102.964133 0.9369 0.9374 0.9379 0.9391 0.9406
2107.644321 0.9417 0.9427 0.9440 0.9455 0.9463
2112.324509 0.9469 0.9477 0.9487 0.9493 0.9498
2117.004697 0.9507 0.9517 0.9523 0.9528 0.9533
2121.684884 0.9538 0.9547 0.9557 0.9563 0.9568
2126.365072 0.9570 0.9570 0.9576 0.9586 0.9590
2131.045260 0.9590 0.9590 0.9590 0.9590 0.9590
2135.725448 0.9590 0.9590 0.9590 0.9590 0.9584
2140.405636 0.9574 0.9570 0.9570 0.9567 0.9562
2145.085824 0.9560 0.9560 0.9554 0.9544 0.9540
2149.766012 0.9540 0.9540 0.9540 0.9540 0.9540
2154.446199 0.9540 0.9540 0.9546 0.9556 0.9560
2159.126387 0.9560 0.9560 0.9560 0.9560 0.9560
2163.806575 0.9560 0.9560 0.9560 0.9560 0.9560
2168.486763 0.9560 0.9560 0.9560 0.9560 0.9560
2173.166951 0.9563 0.9568 0.9570 0.9570 0.9570
2177.847139 0.9570 0.9570 0.9570 0.9570 0.9570
2182.527327 0.9570 0.9570 0.9570 0.9570 0.9570
2187.207514 0.9570 0.9570 0.9570 0.9570 0.9570
2191.887702 0.9575 0.9585 0.9590 0.9590 0.9590
2196.567890 0.9590 0.9590 0.9590 0.9590 0.9590
2201.248078 0.9592 0.9597 0.9600 0.9600 0.9600
2205.928266 0.9600 0.9600 0.9600 0.9600 0.9600
2210.608454 0.9600 0.9600 0.9600 0.9600 0.9600
2215.288642 0.9600 0.9600 0.9600 0.9598 0.9593
2219.968829 0.9590 0.9590 0.9590 0.9590 0.9590
2224.649017 0.9590 0.9590 0.9590 0.9586 0.9576
2229.329205 0.9570 0.9570 0.9570 0.9570 0.9570
2234.009393 0.9570 0.9570 0.9570 0.9574 0.9584
2238.689581 0.9590 0.9590 0.9590 0.9590 0.9590
2243.369769 0.9590 0.9590 0.9590 0.9592 0.9597
2248.049957 0.9603 0.9613 0.9620 0.9620 0.9622
2252.730145 0.9627 0.9630 0.9630 0.9633 0.9643
2257.410332 0.9650 0.9650 0.9652 0.9657 0.9660
2262.090520 0.9660 0.9660 0.9660 0.9660 0.9660
2266.770708 0.9660 0.9660 0.9660 0.9660 0.9660
2271.450896 0.9660 0.9660 0.9660 0.9660 0.9660
2276.131084 0.9656 0.9641 0.9630 0.9630 0.9630
2280.811272 0.9630 0.9629 0.9624 0.9620 0.9620
