##TITLE=ETHYLENEIMINE
$$ CHEMIRAD CORP.
##JCAMP-DX=4.24
##DATA TYPE=INFRARED SPECTRUM
##CLASS=COBLENTZ
##ORIGIN=WYANDOTTE CHEMICALS CORP., WYANDOTTE, MICHIGAN, USA
##OWNER=COBLENTZ SOCIETY
Collection (C) 2018 copyright by the U.S. Secretary of Commerce
on behalf of the United States of America. All rights reserved.
##DATE=Not specified, most likely prior to 1970
##NAMES=aziridine
##CAS REGISTRY NO=151-56-4
##MOLFORM=C2 H5 N
##SOURCE REFERENCE=COBLENTZ NO. 2839
##$NIST SOURCE=COBLENTZ
##$NIST IMAGE=cob2839
##SPECTROMETER/DATA SYSTEM=Not specified, most likely a prism, grating, or hybrid spectrometer.
##STATE=LIQUID
##PATH LENGTH=0.003 CM
##SAMPLING PROCEDURE=TRANSMISSION
##RESOLUTION=4
##DATA PROCESSING=DIGITIZED BY NIST FROM HARD COPY
##XUNITS=MICROMETERS
##YUNITS=TRANSMITTANCE
##XFACTOR=1.000000
##YFACTOR=1
##DELTAX=000.006626
##FIRSTX=2.08
##LASTX=15.9996
##FIRSTY=0.985
##MAXX=15.9996
##MINX=2.08
##MAXY=0.988
##MINY=0.013
##NPOINTS=2102
##XYDATA=(X++(Y..Y))
2.080000 0.9850 0.9760 0.9660 0.9550 0.9360
2.113144 0.9150 0.8850 0.8680 0.8570 0.8550
2.146000 0.8550 0.8580 0.8780 0.9000 0.9260
2.179144 0.9530 0.9550 0.9560 0.9560 0.9580
2.212000 0.9580 0.9580 0.9560 0.9550 0.9530
2.245144 0.9510 0.9510 0.9500 0.9500 0.9460
2.278000 0.9430 0.9410 0.9310 0.9300 0.9310
2.311144 0.9330 0.9380 0.9410 0.9460 0.9500
2.345000 0.9500 0.9510 0.9530 0.9530 0.9550
2.378144 0.9580 0.9600 0.9610 0.9650 0.9680
2.411000 0.9700 0.9710 0.9730 0.9750 0.9760
2.444144 0.9780 0.9830 0.9850 0.9850 0.9880
2.477000 0.9880 0.9880 0.9860 0.9860 0.9850
2.510144 0.9830 0.9810 0.9780 0.9710 0.9580
2.543000 0.9460 0.9400 0.9300 0.9150 0.9100
2.576144 0.9080 0.9080 0.9110 0.9210 0.9310
2.610000 0.9430 0.9580 0.9610 0.9610 0.9650
2.643144 0.9650 0.9660 0.9680 0.9700 0.9710
2.676000 0.9730 0.9750 0.9760 0.9780 0.9780
2.709144 0.9800 0.9810 0.9830 0.9830 0.9830
2.742000 0.9830 0.9810 0.9810 0.9800 0.9780
2.775144 0.9780 0.9750 0.9700 0.9680 0.9630
2.808000 0.9500 0.9380 0.9330 0.9310 0.9300
2.841144 0.9280 0.9230 0.9200 0.9110 0.9030
2.875000 0.8930 0.8850 0.8750 0.8650 0.8530
2.908144 0.8430 0.8320 0.8200 0.8080 0.7970
2.941000 0.7840 0.7700 0.7570 0.7440 0.7300
2.974144 0.7150 0.7140 0.7050 0.7020 0.6670
3.007000 0.6340 0.5990 0.5560 0.5000 0.3900
3.040144 0.3100 0.2620 0.1970 0.1170 0.0840
3.073000 0.0390 0.0310 0.0280 0.0260 0.0260
3.106144 0.0280 0.0310 0.0330 0.0360 0.0390
3.140000 0.0410 0.0430 0.0590 0.0840 0.0960
3.173144 0.1160 0.1410 0.1710 0.2040 0.2400
3.206000 0.2790 0.3170 0.3330 0.3330 0.3300
3.239144 0.2670 0.1940 0.1190 0.0710 0.0690
3.272000 0.0710 0.1660 0.2420 0.2450 0.2440
3.305144 0.1820 0.1260 0.0960 0.0510 0.0490
3.338000 0.0510 0.1670 0.2470 0.3630 0.4510
3.371144 0.4650 0.4750 0.4760 0.4800 0.4810
3.405000 0.4830 0.4830 0.4810 0.4250 0.4060
3.438144 0.3930 0.3750 0.3730 0.3750 0.5440
3.471000 0.6390 0.7000 0.7420 0.7690 0.7850
3.504144 0.7950 0.8020 0.8080 0.8200 0.8400
3.537000 0.8500 0.8570 0.8650 0.8700 0.8730
3.570144 0.8770 0.8800 0.8830 0.8870 0.8900
3.603000 0.8930 0.8950 0.8970 0.8970 0.8980
3.636144 0.8980 0.8970 0.8970 0.8950 0.8930
3.670000 0.8900 0.8880 0.8870 0.8850 0.8820
3.703144 0.8820 0.8800 0.8780 0.8750 0.8730
3.736000 0.8700 0.8670 0.8630 0.8600 0.8570
3.769144 0.8520 0.8500 0.8470 0.8450 0.8430
3.802000 0.8380 0.8330 0.8270 0.8230 0.8230
3.835144 0.8220 0.8180 0.8180 0.8150 0.8150
3.868000 0.8130 0.8120 0.8120 0.8100 0.8030
3.901144 0.8030 0.7950 0.7870 0.7840 0.7720
3.935000 0.7590 0.7470 0.7400 0.7350 0.7320
3.968144 0.7300 0.7300 0.7340 0.7370 0.7420
4.001000 0.7490 0.7540 0.7590 0.7650 0.7720
4.034144 0.7790 0.7850 0.7940 0.8020 0.8120
4.067000 0.8220 0.8320 0.8430 0.8480 0.8520
4.100144 0.8550 0.8580 0.8600 0.8630 0.8650
4.133000 0.8650 0.8630 0.8550 0.8480 0.8400
4.166144 0.8330 0.8250 0.8220 0.8200 0.8170
4.200000 0.8130 0.8100 0.8080 0.8070 0.8070
4.233144 0.8080 0.8100 0.8120 0.8120 0.8150
4.266000 0.8170 0.8200 0.8220 0.8230 0.8230
4.299144 0.8150 0.8130 0.8120 0.8120 0.8130
4.332000 0.8130 0.8150 0.8150 0.8170 0.8170
4.365144 0.8170 0.8150 0.8130 0.8120 0.8120
4.398000 0.8130 0.8130 0.8150 0.8150 0.8170
4.431144 0.8170 0.8180 0.8200 0.8220 0.8230
4.465000 0.8250 0.8250 0.8250 0.8230 0.8220
4.498144 0.8200 0.8180 0.8150 0.8130 0.8120
4.531000 0.8100 0.8080 0.8020 0.7970 0.7920
4.564144 0.7890 0.7850 0.7800 0.7750 0.7700
4.597000 0.7620 0.7520 0.7490 0.7400 0.7340
4.630144 0.7240 0.7150 0.7050 0.6970 0.6890
4.664000 0.6870 0.6870 0.6910 0.7150 0.7300
4.697144 0.7420 0.7500 0.7590 0.7690 0.7720
4.730000 0.7750 0.7720 0.7670 0.7540 0.7400
4.763144 0.7390 0.7400 0.7420 0.7500 0.7590
4.796000 0.7640 0.7690 0.7700 0.7720 0.7740
4.829144 0.7740 0.7720 0.7720 0.7700 0.7690
4.862000 0.7640 0.7550 0.7470 0.7390 0.7340
4.895144 0.7290 0.7240 0.7220 0.7240 0.7300
4.929000 0.7350 0.7450 0.7540 0.7650 0.7720
4.962144 0.7770 0.7800 0.7820 0.7840 0.7870
4.995000 0.7920 0.8000 0.8100 0.8170 0.8250
5.028144 0.8330 0.8400 0.8420 0.8420 0.8420
5.061000 0.8430 0.8450 0.8520 0.8530 0.8580
5.094144 0.8620 0.8650 0.8720 0.8750 0.8780
5.127000 0.8800 0.8780 0.8720 0.8650 0.8550
5.160144 0.8480 0.8420 0.8400 0.8370 0.8350
5.194000 0.8370 0.8430 0.8500 0.8620 0.8680
5.227144 0.8720 0.8730 0.8730 0.8700 0.8670
5.260000 0.8600 0.8580 0.8580 0.8580 0.8580
5.293144 0.8600 0.8620 0.8630 0.8630 0.8650
5.326000 0.8650 0.8630 0.8630 0.8620 0.8580
5.359144 0.8550 0.8520 0.8500 0.8480 0.8480
5.392000 0.8500 0.8500 0.8520 0.8530 0.8550
5.425144 0.8580 0.8630 0.8650 0.8670 0.8700
5.459000 0.8700 0.8680 0.8650 0.8630 0.8600
5.492144 0.8550 0.8530 0.8520 0.8520 0.8500
5.525000 0.8480 0.8480 0.8470 0.8470 0.8470
5.558144 0.8480 0.8500 0.8520 0.8530 0.8550
5.591000 0.8570 0.8580 0.8630 0.8720 0.8750
5.624144 0.8770 0.8780 0.8800 0.8830 0.8870
5.657000 0.8900 0.8930 0.8950 0.8970 0.8970
5.690144 0.8970 0.8970 0.8970 0.8970 0.8970
5.724000 0.8950 0.8930 0.8930 0.8920 0.8900
5.757144 0.8850 0.8830 0.8820 0.8820 0.8780
5.790000 0.8780 0.8770 0.8750 0.8730 0.8730
5.823144 0.8730 0.8730 0.8730 0.8730 0.8730
5.856000 0.8720 0.8720 0.8720 0.8720 0.8720
5.889144 0.8720 0.8720 0.8720 0.8720 0.8720
5.922000 0.8720 0.8720 0.8700 0.8700 0.8650
5.955144 0.8630 0.8620 0.8600 0.8530 0.8500
5.989000 0.8450 0.8450 0.8430 0.8420 0.8400
6.022144 0.8380 0.8370 0.8350 0.8320 0.8250
6.055000 0.8200 0.8100 0.8050 0.7970 0.7840
6.088144 0.7620 0.7520 0.7420 0.7350 0.7300
6.121000 0.7290 0.7300 0.7390 0.7470 0.7550
6.154144 0.7640 0.7740 0.7850 0.7950 0.8070
6.187000 0.8130 0.8150 0.8200 0.8220 0.8230
6.220144 0.8230 0.8250 0.8250 0.8250 0.8250
6.254000 0.8250 0.8250 0.8250 0.8250 0.8250
6.287144 0.8250 0.8250 0.8250 0.8270 0.8270
6.320000 0.8280 0.8300 0.8300 0.8320 0.8330
6.353144 0.8330 0.8350 0.8370 0.8370 0.8380
6.386000 0.8380 0.8370 0.8370 0.8370 0.8350
6.419144 0.8330 0.8320 0.8320 0.8320 0.8320
6.452000 0.8320 0.8320 0.8300 0.8300 0.8300
6.485144 0.8280 0.8280 0.8280 0.8270 0.8270
6.519000 0.8270 0.8250 0.8250 0.8250 0.8230
6.552144 0.8230 0.8220 0.8200 0.8180 0.8170
6.585000 0.8150 0.8130 0.8120 0.8100 0.8070
6.618144 0.8030 0.8020 0.8000 0.7970 0.7920
6.651000 0.7900 0.7870 0.7840 0.7770 0.7650
6.684144 0.7620 0.7520 0.7500 0.7420 0.7340
6.717000 0.7220 0.7120 0.7020 0.6910 0.6810
6.750144 0.6790 0.6790 0.6860 0.6860 0.6840
6.784000 0.6820 0.6740 0.6660 0.6490 0.6260
6.817144 0.6070 0.5690 0.5380 0.5000 0.4980
6.850000 0.5000 0.5430 0.5910 0.6240 0.6490
6.883144 0.6710 0.6860 0.6970 0.7070 0.7140
6.916000 0.7200 0.7270 0.7290 0.7300 0.7340
6.949144 0.7370 0.7400 0.7440 0.7470 0.7490
6.982000 0.7500 0.7500 0.7520 0.7540 0.7550
7.015144 0.7550 0.7570 0.7570 0.7570 0.7570
7.049000 0.7570 0.7550 0.7540 0.7540 0.7520
7.082144 0.7520 0.7500 0.7490 0.7470 0.7440
7.115000 0.7390 0.7370 0.7350 0.7340 0.7320
7.148144 0.7300 0.7290 0.7270 0.7270 0.7250
7.181000 0.7240 0.7240 0.7220 0.7200 0.7170
7.214144 0.7170 0.7140 0.7100 0.7050 0.7020
7.248000 0.6970 0.6940 0.6890 0.6860 0.6840
7.281144 0.6820 0.6820 0.6810 0.6770 0.6740
7.314000 0.6690 0.6660 0.6570 0.6510 0.6460
7.347144 0.6390 0.6340 0.6270 0.6220 0.6160
7.380000 0.6120 0.6070 0.6010 0.5930 0.5840
7.413144 0.5760 0.5680 0.5590 0.5530 0.5430
7.446000 0.5310 0.5210 0.5080 0.4960 0.4850
7.479144 0.4760 0.4650 0.4510 0.4380 0.4230
7.513000 0.4100 0.3950 0.3820 0.3670 0.3550
7.546144 0.3420 0.3320 0.3230 0.3150 0.3100
7.579000 0.3020 0.2920 0.2840 0.2750 0.2690
7.612144 0.2640 0.2570 0.2520 0.2490 0.2450
7.645000 0.2440 0.2400 0.2370 0.2320 0.2290
7.678144 0.2270 0.2270 0.2250 0.2240 0.2240
7.711000 0.2200 0.2170 0.2140 0.2120 0.2100
7.744144 0.2090 0.2050 0.2050 0.2040 0.2000
7.778000 0.1970 0.1970 0.1940 0.1920 0.1860
7.811144 0.1810 0.1790 0.1760 0.1720 0.1710
7.844000 0.1690 0.1670 0.1660 0.1660 0.1640
7.877144 0.1640 0.1620 0.1620 0.1620 0.1640
7.910000 0.1640 0.1660 0.1670 0.1710 0.1740
7.943144 0.1790 0.1820 0.1870 0.1920 0.1940
7.976000 0.1960 0.1970 0.2000 0.2040 0.2090
8.009144 0.2140 0.2150 0.2170 0.2190 0.2200
8.043000 0.2200 0.2220 0.2240 0.2270 0.2290
8.076144 0.2290 0.2300 0.2300 0.2320 0.2320
8.109000 0.2320 0.2300 0.2300 0.2270 0.2150
8.142144 0.1990 0.1870 0.1690 0.1490 0.1270
8.175000 0.1040 0.0830 0.0640 0.0480 0.0360
8.208144 0.0290 0.0230 0.0210 0.0190 0.0190
8.241000 0.0230 0.0410 0.0510 0.0630 0.0810
8.274144 0.1010 0.1260 0.1520 0.1790 0.2070
8.308000 0.2370 0.2650 0.2940 0.3180 0.3550
8.341144 0.3870 0.4150 0.4380 0.4580 0.4760
8.374000 0.4930 0.5060 0.5190 0.5290 0.5410
8.407144 0.5530 0.5630 0.5760 0.5880 0.5890
8.440000 0.5980 0.6010 0.6040 0.6110 0.6160
8.473144 0.6210 0.6220 0.6240 0.6310 0.6320
8.506000 0.6340 0.6360 0.6370 0.6390 0.6410
8.539144 0.6420 0.6460 0.6470 0.6470 0.6490
8.573000 0.6490 0.6490 0.6490 0.6470 0.6460
8.606144 0.6460 0.6460 0.6440 0.6420 0.6410
8.639000 0.6390 0.6340 0.6290 0.6170 0.6110
8.672144 0.6060 0.6020 0.5930 0.5810 0.5680
8.705000 0.5560 0.5430 0.5240 0.5030 0.4830
8.738144 0.4610 0.4410 0.4180 0.4100 0.3920
8.771000 0.3730 0.3720 0.3720 0.3770 0.3830
8.804144 0.3900 0.3970 0.4030 0.4110 0.4200
8.838000 0.4310 0.4430 0.4560 0.4630 0.4730
8.871144 0.4760 0.4800 0.4830 0.4880 0.4880
8.904000 0.4880 0.4860 0.4860 0.4850 0.4850
8.937144 0.4830 0.4810 0.4760 0.4630 0.4530
8.970000 0.4450 0.4330 0.4210 0.4060 0.3930
9.003144 0.3770 0.3580 0.3380 0.3180 0.2970
9.036000 0.2740 0.2470 0.2290 0.2120 0.1970
9.069144 0.1860 0.1720 0.1610 0.1470 0.1340
9.103000 0.1170 0.1020 0.0890 0.0730 0.0680
9.136144 0.0580 0.0530 0.0490 0.0480 0.0480
9.169000 0.0480 0.0480 0.0490 0.0580 0.0740
9.202144 0.0930 0.1110 0.1310 0.1520 0.1760
9.235000 0.2000 0.2270 0.2550 0.2840 0.3100
9.268144 0.3380 0.3630 0.3880 0.4110 0.4330
9.301000 0.4510 0.4630 0.4760 0.4900 0.5010
9.334144 0.5140 0.5240 0.5360 0.5440 0.5490
9.368000 0.5610 0.5680 0.5740 0.5780 0.5840
9.401144 0.5930 0.5980 0.5980 0.6010 0.6020
9.434000 0.6040 0.6060 0.6070 0.6110 0.6110
9.467144 0.6110 0.6110 0.6110 0.6090 0.6090
9.500000 0.6070 0.6060 0.6020 0.6010 0.5990
9.533144 0.5980 0.5960 0.5940 0.5910 0.5890
9.566000 0.5860 0.5830 0.5760 0.5690 0.5610
9.599144 0.5530 0.5440 0.5360 0.5260 0.5160
9.633000 0.5080 0.4980 0.4900 0.4810 0.4750
9.666144 0.4680 0.4610 0.4500 0.4380 0.4300
9.699000 0.4210 0.4150 0.4060 0.3970 0.3920
9.732144 0.3880 0.3850 0.3850 0.3770 0.3700
9.765000 0.3670 0.3620 0.3620 0.3600 0.3600
9.798144 0.3600 0.3600 0.3620 0.3620 0.3620
9.832000 0.3620 0.3630 0.3650 0.3700 0.3730
9.865144 0.3800 0.3870 0.3930 0.4000 0.4060
9.898000 0.4150 0.4200 0.4260 0.4300 0.4330
9.931144 0.4430 0.4530 0.4580 0.4650 0.4730
9.964000 0.4810 0.4900 0.4980 0.5030 0.5060
9.997144 0.5110 0.5190 0.5290 0.5410 0.5490
10.030000 0.5580 0.5610 0.5710 0.5780 0.5780
10.063144 0.5810 0.5860 0.5860 0.5880 0.5890
10.097000 0.5960 0.5980 0.6010 0.6010 0.6020
10.130144 0.6040 0.6040 0.6060 0.6090 0.6090
10.163000 0.6090 0.6110 0.6120 0.6120 0.6140
10.196144 0.6140 0.6140 0.6140 0.6140 0.6140
10.229000 0.6140 0.6140 0.6140 0.6140 0.6140
10.262144 0.6120 0.6120 0.6110 0.6110 0.6090
10.295000 0.6090 0.6090 0.6090 0.6090 0.6070
10.328144 0.6070 0.6060 0.6040 0.6010 0.6010
10.362000 0.5980 0.5960 0.5930 0.5910 0.5880
10.395144 0.5880 0.5840 0.5830 0.5790 0.5780
10.428000 0.5730 0.5680 0.5640 0.5610 0.5590
10.461144 0.5560 0.5510 0.5430 0.5390 0.5330
10.494000 0.5260 0.5180 0.5110 0.5060 0.5040
10.527144 0.4930 0.4810 0.4760 0.4680 0.4600
10.560000 0.4500 0.4410 0.4330 0.4250 0.4150
10.593144 0.4050 0.3930 0.3800 0.3650 0.3520
10.627000 0.3380 0.3250 0.3100 0.2990 0.2850
10.660144 0.2720 0.2600 0.2470 0.2350 0.2240
10.693000 0.2100 0.1990 0.1870 0.1790 0.1760
10.726144 0.1690 0.1620 0.1520 0.1460 0.1390
10.759000 0.1370 0.1360 0.1360 0.1310 0.1290
10.792144 0.1290 0.1270 0.1270 0.1290 0.1290
10.825000 0.1290 0.1310 0.1310 0.1320 0.1340
10.858144 0.1360 0.1370 0.1390 0.1420 0.1460
10.892000 0.1510 0.1540 0.1570 0.1570 0.1620
10.925144 0.1640 0.1660 0.1660 0.1710 0.1790
10.958000 0.1840 0.1890 0.1920 0.1970 0.2020
10.991144 0.2050 0.2070 0.2120 0.2170 0.2220
11.024000 0.2290 0.2350 0.2420 0.2450 0.2500
11.057144 0.2540 0.2590 0.2640 0.2690 0.2700
11.090000 0.2770 0.2870 0.2920 0.2970 0.3000
11.123144 0.3030 0.3070 0.3130 0.3220 0.3250
11.157000 0.3270 0.3270 0.3280 0.3280 0.3300
11.190144 0.3300 0.3300 0.3320 0.3320 0.3320
11.223000 0.3330 0.3350 0.3350 0.3330 0.3300
11.256144 0.3300 0.3200 0.3130 0.3120 0.3100
11.289000 0.3050 0.3020 0.2990 0.2950 0.2920
11.322144 0.2900 0.2850 0.2820 0.2750 0.2670
11.355000 0.2640 0.2590 0.2500 0.2450 0.2300
11.388144 0.2270 0.2190 0.2090 0.1990 0.1920
11.422000 0.1840 0.1760 0.1670 0.1590 0.1470
11.455144 0.1320 0.1220 0.1170 0.1110 0.1070
11.488000 0.0980 0.0860 0.0730 0.0630 0.0560
11.521144 0.0480 0.0430 0.0410 0.0410 0.0390
11.554000 0.0340 0.0330 0.0290 0.0280 0.0260
11.587144 0.0240 0.0210 0.0190 0.0190 0.0180
11.620000 0.0180 0.0160 0.0160 0.0160 0.0160
11.653144 0.0160 0.0160 0.0160 0.0160 0.0160
11.687000 0.0180 0.0180 0.0190 0.0190 0.0190
11.720144 0.0190 0.0190 0.0190 0.0190 0.0190
11.753000 0.0190 0.0190 0.0180 0.0160 0.0160
11.786144 0.0160 0.0140 0.0140 0.0130 0.0130
11.819000 0.0130 0.0130 0.0130 0.0130 0.0140
11.852144 0.0160 0.0190 0.0240 0.0290 0.0310
11.885000 0.0340 0.0360 0.0380 0.0430 0.0540
11.918144 0.0630 0.0630 0.0640 0.0760 0.0830
11.952000 0.0860 0.0930 0.0990 0.1110 0.1240
11.985144 0.1270 0.1320 0.1360 0.1440 0.1560
12.018000 0.1660 0.1740 0.1840 0.1970 0.2070
12.051144 0.2170 0.2240 0.2320 0.2400 0.2500
12.084000 0.2590 0.2670 0.2700 0.2740 0.2750
12.117144 0.2770 0.2820 0.2950 0.3030 0.3080
12.150000 0.3120 0.3150 0.3180 0.3250 0.3300
12.183144 0.3330 0.3330 0.3370 0.3380 0.3420
12.217000 0.3450 0.3480 0.3500 0.3500 0.3520
12.250144 0.3520 0.3530 0.3530 0.3570 0.3600
12.283000 0.3650 0.3720 0.3730 0.3750 0.3770
12.316144 0.3780 0.3830 0.3880 0.3930 0.3970
12.349000 0.3980 0.4000 0.4000 0.4000 0.3980
12.382144 0.3970 0.3970 0.3950 0.3930 0.3930
12.416000 0.3900 0.3870 0.3820 0.3820 0.3780
12.449144 0.3720 0.3700 0.3630 0.3600 0.3500
12.482000 0.3430 0.3350 0.3270 0.3200 0.3170
12.515144 0.3080 0.2990 0.2820 0.2690 0.2640
12.548000 0.2590 0.2500 0.2320 0.2120 0.1960
12.581144 0.1870 0.1760 0.1660 0.1510 0.1360
12.614000 0.1170 0.1110 0.1020 0.0940 0.0830
12.647144 0.0730 0.0590 0.0540 0.0540 0.0480
12.681000 0.0430 0.0390 0.0380 0.0330 0.0310
12.714144 0.0290 0.0280 0.0260 0.0240 0.0240
12.747000 0.0240 0.0240 0.0260 0.0280 0.0290
12.780144 0.0290 0.0290 0.0310 0.0310 0.0330
12.813000 0.0330 0.0360 0.0410 0.0430 0.0460
12.846144 0.0510 0.0540 0.0590 0.0690 0.0730
12.879000 0.0780 0.0860 0.0960 0.1060 0.1170
12.912144 0.1260 0.1370 0.1460 0.1620 0.1810
12.946000 0.1960 0.2050 0.2150 0.2240 0.2340
12.979144 0.2440 0.2550 0.2690 0.2870 0.3030
13.012000 0.3180 0.3320 0.3450 0.3580 0.3680
13.045144 0.3800 0.3900 0.4000 0.4130 0.4250
13.078000 0.4380 0.4430 0.4480 0.4610 0.4730
13.111144 0.4780 0.4860 0.4960 0.5040 0.5160
13.144000 0.5180 0.5210 0.5260 0.5330 0.5410
13.177144 0.5490 0.5560 0.5640 0.5710 0.5780
13.211000 0.5810 0.5860 0.5880 0.5910 0.5930
13.244144 0.5940 0.6020 0.6070 0.6110 0.6120
13.277000 0.6160 0.6220 0.6320 0.6360 0.6370
13.310144 0.6390 0.6410 0.6440 0.6470 0.6520
13.343000 0.6540 0.6570 0.6610 0.6620 0.6640
13.376144 0.6670 0.6690 0.6690 0.6720 0.6740
13.409000 0.6820 0.6860 0.6890 0.6910 0.6920
13.442144 0.6960 0.6970 0.7000 0.7020 0.7040
13.476000 0.7050 0.7070 0.7070 0.7100 0.7120
13.509144 0.7140 0.7150 0.7170 0.7190 0.7200
13.542000 0.7240 0.7250 0.7270 0.7290 0.7300
13.575144 0.7320 0.7340 0.7350 0.7370 0.7390
13.608000 0.7390 0.7400 0.7450 0.7450 0.7470
13.641144 0.7470 0.7490 0.7490 0.7500 0.7500
13.674000 0.7500 0.7500 0.7520 0.7520 0.7540
13.707144 0.7550 0.7550 0.7570 0.7590 0.7590
13.741000 0.7600 0.7620 0.7620 0.7640 0.7640
13.774144 0.7650 0.7650 0.7650 0.7650 0.7650
13.807000 0.7650 0.7650 0.7670 0.7690 0.7700
13.840144 0.7700 0.7720 0.7740 0.7740 0.7750
13.873000 0.7770 0.7770 0.7790 0.7790 0.7800
13.906144 0.7820 0.7840 0.7850 0.7870 0.7890
13.939000 0.7920 0.7940 0.7940 0.7950 0.7950
13.972144 0.7970 0.7990 0.7990 0.8000 0.8000
14.006000 0.8000 0.8000 0.8000 0.8000 0.8000
14.039144 0.8000 0.8000 0.8000 0.8000 0.8000
14.072000 0.8020 0.8020 0.8020 0.8030 0.8030
14.105144 0.8030 0.8050 0.8050 0.8050 0.8070
14.138000 0.8070 0.8080 0.8080 0.8080 0.8080
14.171144 0.8100 0.8100 0.8100 0.8120 0.8120
14.204000 0.8120 0.8120 0.8120 0.8120 0.8120
14.237144 0.8130 0.8130 0.8130 0.8130 0.8130
14.271000 0.8130 0.8150 0.8150 0.8150 0.8150
14.304144 0.8150 0.8150 0.8150 0.8170 0.8170
14.337000 0.8170 0.8170 0.8170 0.8170 0.8170
14.370144 0.8170 0.8170 0.8170 0.8170 0.8170
14.403000 0.8180 0.8180 0.8180 0.8180 0.8180
14.436144 0.8180 0.8180 0.8180 0.8180 0.8180
14.469000 0.8180 0.8180 0.8180 0.8180 0.8180
14.502144 0.8180 0.8180 0.8180 0.8180 0.8180
14.536000 0.8180 0.8180 0.8180 0.8180 0.8180
14.569144 0.8180 0.8180 0.8180 0.8180 0.8180
14.602000 0.8180 0.8180 0.8180 0.8180 0.8180
14.635144 0.8180 0.8180 0.8170 0.8150 0.8150
14.668000 0.8150 0.8150 0.8150 0.8150 0.8130
14.701144 0.8130 0.8130 0.8130 0.8130 0.8130
14.735000 0.8130 0.8130 0.8130 0.8130 0.8130
14.768144 0.8130 0.8130 0.8130 0.8130 0.8130
14.801000 0.8130 0.8130 0.8130 0.8130 0.8130
14.834144 0.8130 0.8130 0.8130 0.8130 0.8130
14.867000 0.8130 0.8130 0.8130 0.8130 0.8130
14.900144 0.8130 0.8130 0.8130 0.8130 0.8130
14.933000 0.8130 0.8130 0.8130 0.8130 0.8130
14.966144 0.8130 0.8120 0.8120 0.8100 0.8100
15.000000 0.8080 0.8070 0.8030 0.7950 0.7940
15.033144 0.7940 0.7920 0.7890 0.7840 0.7820
15.066000 0.7820 0.7820 0.7840 0.7850 0.7870
15.099144 0.7900 0.7900 0.7900 0.7900 0.7920
15.132000 0.7940 0.7940 0.7950 0.7990 0.8000
15.165144 0.8000 0.8000 0.8020 0.8020 0.8020
15.198000 0.8020 0.8020 0.8020 0.8020 0.8020
15.231144 0.8020 0.8000 0.7990 0.7970 0.7970
15.265000 0.7950 0.7950 0.7940 0.7940 0.7940
15.298144 0.7920 0.7920 0.7890 0.7840 0.7820
15.331000 0.7820 0.7820 0.7840 0.7890 0.7890
15.364144 0.7890 0.7840 0.7800 0.7750 0.7740
15.397000 0.7740 0.7750 0.7770 0.7790 0.7790
15.430144 0.7800 0.7800 0.7820 0.7820 0.7800
15.463000 0.7770 0.7740 0.7720 0.7720 0.7700
15.496144 0.7700 0.7690 0.7690 0.7690 0.7670
15.530000 0.7640 0.7620 0.7600 0.7600 0.7590
15.563144 0.7590 0.7590 0.7590 0.7590 0.7590
15.596000 0.7590 0.7590 0.7590 0.7590 0.7590
15.629144 0.7590 0.7590 0.7590 0.7590 0.7570
15.662000 0.7570 0.7550 0.7540 0.7520 0.7520
15.695144 0.7520 0.7520 0.7520 0.7540 0.7540
15.728000 0.7540 0.7540 0.7520 0.7520 0.7520
15.761144 0.7500 0.7450 0.7370 0.7350 0.7340
15.795000 0.7320 0.7320 0.7320 0.7300 0.7300
15.828144 0.7300 0.7300 0.7290 0.7290 0.7270
15.861000 0.7270 0.7250 0.7250 0.7250 0.7250
15.894144 0.7250 0.7240 0.7220 0.7220 0.7220
15.927000 0.7220 0.7200 0.7170 0.7100 0.7050
15.960144 0.7040 0.7020 0.7000 0.7000 0.7000
15.993000 0.6990 0.6990
##END=
