##TITLE=2-Methoxyacetamide
##JCAMP-DX=4.24
$$ By DXEDIT 1.05 (RS McDonald)
##DATA TYPE=INFRARED SPECTRUM
##CLASS=COBLENTZ II
##ORIGIN=DOW CHEMICAL COMPANY
##OWNER=COPYRIGHT (C) 1988 by COBLENTZ SOCIETY INC.
Collection (C) 2018 copyright by the U.S. Secretary of Commerce
on behalf of the United States of America. All rights reserved.
##DATE=1959/04/10
##CAS REGISTRY NO=16332-06-2
##MOLFORM=C3 H7 N O2
##MP=96 C
##SOURCE REFERENCE=COBLENTZ NO. 06062
##$NIST SOURCE=COBLENTZ
##$NIST IMAGE=cob6062
##SPECTROMETER/DATA SYSTEM=DOW KBr FOREPRISM-GRATING
##INSTRUMENT PARAMETERS=BLAZED AT 3.5, 12.0, 20.0 MICRON AND CHANGED AT 5.0, 7.5, 14.9 MICRON
##STATE=SOLID (SPLIT MULL)
##SAMPLING PROCEDURE=TRANSMISSION
##RESOLUTION=2
##DATA PROCESSING=DIGITIZED BY COBLENTZ SOCIETY (BATCH I) FROM HARD COPY
##XUNITS=1/CM
##YUNITS=TRANSMITTANCE
##XFACTOR=1
##YFACTOR=1
##DELTAX=1
##FIRSTX=3794
##LASTX=451
##FIRSTY=0.8814
##MAXX=3794
##MINX=451
##MAXY=0.9517
##MINY=0.0105
##NPOINTS=3344
##XYDATA=(X++(Y..Y))
3794.000000 0.8814 0.8821 0.8831 0.8857 0.8884
3789.000000 0.8910 0.8936 0.8958 0.8980 0.8968
3784.000000 0.8957 0.8944 0.8932 0.8918 0.8906
3779.000000 0.8904 0.8902 0.8900 0.8898 0.8896
3774.000000 0.8894 0.8892 0.8891 0.8889 0.8887
3769.000000 0.8885 0.8883 0.8883 0.8883 0.8883
3764.000000 0.8883 0.8883 0.8883 0.8883 0.8883
3759.000000 0.8883 0.8883 0.8891 0.8900 0.8909
3754.000000 0.8918 0.8928 0.8938 0.8952 0.8966
3749.000000 0.8980 0.8994 0.9006 0.9018 0.9030
3744.000000 0.9042 0.9042 0.9042 0.9039 0.9036
3739.000000 0.9032 0.9028 0.9024 0.9020 0.9015
3734.000000 0.9011 0.9006 0.9002 0.8997 0.8993
3729.000000 0.8988 0.8984 0.8982 0.8980 0.8980
3724.000000 0.8980 0.8978 0.8978 0.8978 0.8978
3719.000000 0.8978 0.8978 0.8977 0.8977 0.8977
3714.000000 0.8977 0.8975 0.8975 0.8974 0.8974
3709.000000 0.8973 0.8971 0.8971 0.8970 0.8968
3704.000000 0.8968 0.8967 0.8966 0.8966 0.8966
3699.000000 0.8967 0.8968 0.8971 0.8973 0.8975
3694.000000 0.8977 0.8982 0.8988 0.8993 0.8999
3689.000000 0.9004 0.9010 0.9013 0.9016 0.9018
3684.000000 0.9021 0.9025 0.9028 0.9030 0.9032
3679.000000 0.9034 0.9036 0.9038 0.9041 0.9042
3674.000000 0.9042 0.9042 0.9040 0.9038 0.9036
3669.000000 0.9034 0.9032 0.9031 0.9031 0.9032
3664.000000 0.9033 0.9034 0.9035 0.9036 0.9037
3659.000000 0.9038 0.9039 0.9040 0.9041 0.9042
3654.000000 0.9043 0.9044 0.9045 0.9046 0.9047
3649.000000 0.9049 0.9052 0.9055 0.9058 0.9060
3644.000000 0.9063 0.9066 0.9068 0.9071 0.9075
3639.000000 0.9078 0.9081 0.9084 0.9087 0.9090
3634.000000 0.9093 0.9095 0.9098 0.9101 0.9105
3629.000000 0.9108 0.9111 0.9114 0.9118 0.9121
3624.000000 0.9125 0.9128 0.9131 0.9134 0.9138
3619.000000 0.9141 0.9144 0.9147 0.9151 0.9154
3614.000000 0.9157 0.9160 0.9164 0.9166 0.9168
3609.000000 0.9170 0.9173 0.9175 0.9177 0.9178
3604.000000 0.9182 0.9184 0.9187 0.9189 0.9191
3599.000000 0.9194 0.9197 0.9199 0.9202 0.9204
3594.000000 0.9207 0.9210 0.9213 0.9215 0.9218
3589.000000 0.9220 0.9223 0.9225 0.9228 0.9230
3584.000000 0.9233 0.9235 0.9238 0.9240 0.9243
3579.000000 0.9245 0.9248 0.9250 0.9253 0.9255
3574.000000 0.9258 0.9260 0.9263 0.9265 0.9268
3569.000000 0.9268 0.9270 0.9270 0.9271 0.9271
3564.000000 0.9271 0.9271 0.9271 0.9270 0.9270
3559.000000 0.9268 0.9268 0.9270 0.9271 0.9273
3554.000000 0.9275 0.9278 0.9281 0.9283 0.9286
3549.000000 0.9288 0.9291 0.9293 0.9296 0.9298
3544.000000 0.9301 0.9303 0.9306 0.9309 0.9312
3539.000000 0.9315 0.9318 0.9320 0.9323 0.9325
3534.000000 0.9328 0.9331 0.9334 0.9336 0.9339
3529.000000 0.9341 0.9343 0.9345 0.9348 0.9350
3524.000000 0.9352 0.9352 0.9353 0.9354 0.9355
3519.000000 0.9355 0.9356 0.9356 0.9357 0.9357
3514.000000 0.9357 0.9354 0.9384 0.9348 0.9345
3509.000000 0.9342 0.9339 0.9336 0.9333 0.9330
3504.000000 0.9327 0.9324 0.9321 0.9318 0.9316
3499.000000 0.9313 0.9310 0.9306 0.9302 0.9296
3494.000000 0.9290 0.9284 0.9278 0.9271 0.9265
3489.000000 0.9257 0.9249 0.9239 0.9230 0.9221
3484.000000 0.9212 0.9202 0.9193 0.9180 0.9168
3479.000000 0.9152 0.9137 0.9121 0.9107 0.9087
3474.000000 0.9068 0.9046 0.9025 0.9004 0.8983
3469.000000 0.8957 0.8932 0.8906 0.8880 0.8854
3464.000000 0.8828 0.8783 0.8738 0.8685 0.8632
3459.000000 0.8575 0.8518 0.8460 0.8402 0.8344
3454.000000 0.8286 0.8228 0.8171 0.8114 0.8057
3449.000000 0.8014 0.7971 0.7928 0.7888 0.7846
3444.000000 0.7805 0.7761 0.7718 0.7675 0.7633
3439.000000 0.7590 0.7547 0.7453 0.7360 0.7271
3434.000000 0.7182 0.7106 0.7031 0.6940 0.6850
3429.000000 0.6672 0.6496 0.6403 0.6310 0.6240
3424.000000 0.6169 0.6093 0.6017 0.5415 0.4812
3419.000000 0.4620 0.4428 0.4236 0.4044 0.3852
3414.000000 0.3659 0.3468 0.3276 0.3084 0.2892
3409.000000 0.2700 0.2508 0.2316 0.2124 0.1931
3404.000000 0.1739 0.1546 0.1355 0.1163 0.0971
3399.000000 0.0812 0.0654 0.0627 0.0601 0.0594
3394.000000 0.0588 0.0588 0.0588 0.0588 0.0588
3389.000000 0.0598 0.0608 0.0629 0.0651 0.0673
3384.000000 0.0695 0.0722 0.0750 0.0803 0.0857
3379.000000 0.1248 0.1640 0.2334 0.3030 0.3074
3374.000000 0.3118 0.3162 0.3207 0.3252 0.3297
3369.000000 0.3343 0.3389 0.3434 0.3480 0.3525
3364.000000 0.3570 0.3612 0.3654 0.3695 0.3737
3359.000000 0.3775 0.3814 0.3852 0.3890 0.3927
3354.000000 0.3964 0.4000 0.4038 0.4074 0.4110
3349.000000 0.4151 0.4192 0.4238 0.4284 0.4343
3344.000000 0.4402 0.4455 0.4508 0.4562 0.4616
3339.000000 0.4662 0.4709 0.4738 0.4768 0.4791
3334.000000 0.4815 0.4843 0.4871 0.4882 0.4894
3329.000000 0.4902 0.4910 0.4915 0.4916 0.4926
3324.000000 0.4931 0.4934 0.4938 0.4941 0.4941
3319.000000 0.4942 0.4940 0.4938 0.4936 0.4929
3314.000000 0.4922 0.4907 0.4893 0.4879 0.4865
3309.000000 0.4836 0.4808 0.4777 0.4746 0.4720
3304.000000 0.4694 0.4668 0.4642 0.4612 0.4582
3299.000000 0.4577 0.4572 0.4569 0.4566 0.4562
3294.000000 0.4560 0.4558 0.4555 0.4551 0.4547
3289.000000 0.4543 0.4540 0.4536 0.4532 0.4528
3284.000000 0.4524 0.4520 0.4517 0.4512 0.4509
3279.000000 0.4505 0.4501 0.4496 0.4492 0.4487
3274.000000 0.4483 0.4477 0.4472 0.4462 0.4453
3269.000000 0.4444 0.4435 0.4425 0.4416 0.4397
3264.000000 0.4378 0.4357 0.4337 0.4280 0.4224
3259.000000 0.4142 0.4059 0.3966 0.3873 0.3812
3254.000000 0.3754 0.3695 0.3636 0.3557 0.3479
3249.000000 0.3407 0.3334 0.3284 0.3234 0.3184
3244.000000 0.3134 0.3092 0.3049 0.3007 0.2966
3239.000000 0.2924 0.2883 0.2829 0.2775 0.2707
3234.000000 0.2639 0.2591 0.2543 0.2503 0.2464
3229.000000 0.2424 0.2384 0.2348 0.2312 0.2277
3224.000000 0.2242 0.2206 0.2171 0.2138 0.2106
3219.000000 0.2075 0.2044 0.2014 0.1983 0.1949
3214.000000 0.1915 0.1894 0.1873 0.1859 0.1844
3209.000000 0.1836 0.1829 0.1820 0.1812 0.1804
3204.000000 0.1795 0.1792 0.1787 0.1783 0.1779
3199.000000 0.1775 0.1771 0.1766 0.1777 0.1757
3194.000000 0.1753 0.1753 0.1754 0.1760 0.1766
3189.000000 0.1786 0.1808 0.1837 0.1868 0.1899
3184.000000 0.1929 0.1962 0.1994 0.2029 0.2065
3179.000000 0.2103 0.2141 0.2179 0.2217 0.2263
3174.000000 0.2310 0.2415 0.2521 0.2577 0.2633
3169.000000 0.2688 0.2744 0.2790 0.2837 0.2880
3164.000000 0.2924 0.2965 0.3007 0.3046 0.3085
3159.000000 0.3125 0.3165 0.3204 0.3244 0.3280
3154.000000 0.3318 0.3357 0.3395 0.3432 0.3470
3149.000000 0.3508 0.3546 0.3584 0.3622 0.3660
3144.000000 0.3700 0.3738 0.3777 0.3814 0.3854
3139.000000 0.3892 0.3930 0.3966 0.4002 0.4038
3134.000000 0.4074 0.4110 0.4146 0.4177 0.4209
3129.000000 0.4234 0.4260 0.4285 0.4310 0.4336
3124.000000 0.4360 0.4386 0.4412 0.4437 0.4462
3119.000000 0.4484 0.4507 0.4529 0.4552 0.4574
3114.000000 0.4597 0.4619 0.4642 0.4664 0.4687
3109.000000 0.4710 0.4733 0.4755 0.4778 0.4800
3104.000000 0.4823 0.4844 0.4866 0.4887 0.4908
3099.000000 0.4929 0.4950 0.4971 0.4992 0.5012
3094.000000 0.5034 0.5055 0.5076 0.5097 0.5118
3089.000000 0.5139 0.5160 0.5181 0.5202 0.5223
3084.000000 0.5244 0.5265 0.5286 0.5307 0.5328
3079.000000 0.5349 0.5370 0.5397 0.5424 0.5454
3074.000000 0.5485 0.5515 0.5545 0.5573 0.5602
3069.000000 0.5629 0.5656 0.5683 0.5710 0.5738
3064.000000 0.5766 0.5793 0.5821 0.5848 0.5875
3059.000000 0.5912 0.5950 0.5990 0.6030 0.6071
3054.000000 0.6112 0.6151 0.6190 0.6210 0.6232
3049.000000 0.6248 0.6265 0.6281 0.6297 0.6312
3044.000000 0.6330 0.6346 0.6362 0.6377 0.6393
3039.000000 0.6408 0.6425 0.6440 0.6456 0.6471
3034.000000 0.6488 0.6504 0.6521 0.6537 0.6553
3029.000000 0.6568 0.6586 0.6601 0.6618 0.6638
3024.000000 0.6657 0.6680 0.6704 0.6726 0.6750
3019.000000 0.6772 0.6797 0.6828 0.6860 0.6891
3014.000000 0.6922 0.6954 0.6985 0.7007 0.7030
3009.000000 0.7040 0.7051 0.7060 0.7069 0.7076
3004.000000 0.7084 0.7087 0.7091 0.7094 0.7098
2999.000000 0.7099 0.7157 0.7095 0.7091 0.6894
2994.000000 0.6698 0.6034 0.5371 0.4707 0.4044
2989.000000 0.3918 0.3788 0.3927 0.4059 0.4324
2984.000000 0.4589 0.4854 0.5119 0.5384 0.5649
2979.000000 0.5914 0.6179 0.6400 0.6621 0.6686
2974.000000 0.6750 0.6793 0.6836 0.6853 0.6869
2969.000000 0.6874 0.6878 0.6881 0.6884 0.6884
2964.000000 0.6895 0.6858 0.6834 0.6791 0.6748
2959.000000 0.6705 0.6662 0.6619 0.6576 0.6534
2954.000000 0.6492 0.6461 0.6431 0.6403 0.6376
2949.000000 0.6243 0.6110 0.5682 0.5253 0.5252
2944.000000 0.5251 0.5339 0.5428 0.5523 0.5619
2939.000000 0.5714 0.5810 0.5906 0.6002 0.6005
2934.000000 0.6009 0.6010 0.6012 0.6015 0.6018
2929.000000 0.6037 0.6056 0.6112 0.6168 0.6224
2924.000000 0.6280 0.6326 0.6373 0.6394 0.6415
2919.000000 0.6439 0.6461 0.6494 0.6525 0.6550
2914.000000 0.6575 0.6597 0.6618 0.6628 0.6680
2909.000000 0.6642 0.6644 0.6644 0.6644 0.6643
2904.000000 0.6640 0.6634 0.6628 0.6607 0.6585
2899.000000 0.6548 0.6276 0.6465 0.6419 0.6368
2894.000000 0.6316 0.6310 0.6305 0.6305 0.6305
2889.000000 0.6316 0.6328 0.6351 0.6375 0.6425
2884.000000 0.6476 0.6515 0.6553 0.6585 0.6617
2879.000000 0.6649 0.6682 0.6761 0.6840 0.6875
2874.000000 0.6911 0.6949 0.6986 0.7030 0.7075
2869.000000 0.7108 0.7141 0.7168 0.7197 0.7224
2864.000000 0.7251 0.7278 0.7307 0.7330 0.7353
2859.000000 0.7375 0.7399 0.7417 0.7471 0.7439
2854.000000 0.7438 0.7437 0.7431 0.7407 0.7383
2849.000000 0.7348 0.7312 0.7305 0.7297 0.7295
2844.000000 0.7294 0.7294 0.7294 0.7215 0.7139
2839.000000 0.7026 0.6915 0.6803 0.6691 0.6578
2834.000000 0.6467 0.6355 0.6243 0.6131 0.6020
2829.000000 0.5920 0.5820 0.5805 0.5771 0.5785
2824.000000 0.5780 0.5781 0.5782 0.5788 0.5794
2819.000000 0.5969 0.6144 0.6328 0.6512 0.6697
2814.000000 0.6881 0.7038 0.7195 0.7244 0.7294
2809.000000 0.7325 0.7357 0.7381 0.7406 0.7433
2804.000000 0.7461 0.7491 0.7521 0.7544 0.7565
2799.000000 0.7585 0.7604 0.7615 0.7625 0.7633
2794.000000 0.7640 0.7645 0.7651 0.7654 0.7658
2789.000000 0.7660 0.7662 0.7662 0.7662 0.7658
2784.000000 0.7653 0.7645 0.7637 0.7628 0.7621
2779.000000 0.7611 0.7604 0.7601 0.7599 0.7598
2774.000000 0.7597 0.7606 0.7615 0.7626 0.7638
2769.000000 0.7649 0.7660 0.7681 0.7703 0.7722
2764.000000 0.7743 0.7757 0.7771 0.7786 0.7801
2759.000000 0.7815 0.7830 0.7844 0.7858 0.7871
2754.000000 0.7887 0.7901 0.7915 0.7931 0.7946
2749.000000 0.7961 0.7975 0.7991 0.8006 0.8021
2744.000000 0.8036 0.8050 0.8065 0.8078 0.8092
2739.000000 0.8106 0.8119 0.8133 0.8147 0.8160
2734.000000 0.8172 0.8182 0.8191 0.8200 0.8210
2729.000000 0.8218 0.8228 0.8238 0.8248 0.8257
2724.000000 0.8267 0.8275 0.8285 0.8293 0.8302
2719.000000 0.8310 0.8318 0.8321 0.8324 0.8327
2714.000000 0.8330 0.8333 0.8337 0.8340 0.8343
2709.000000 0.8346 0.8349 0.8348 0.8348 0.8347
2704.000000 0.8346 0.8334 0.8321 0.8316 0.8310
2699.000000 0.8304 0.8298 0.8298 0.8299 0.8306
2694.000000 0.8314 0.8321 0.8328 0.8337 0.8345
2689.000000 0.8352 0.8360 0.8368 0.8375 0.8384
2684.000000 0.8392 0.8400 0.8409 0.8417 0.8425
2679.000000 0.8433 0.8441 0.8449 0.8458 0.8464
2674.000000 0.8470 0.8475 0.8480 0.8485 0.8491
2669.000000 0.8496 0.8501 0.8506 0.8511 0.8516
2664.000000 0.8521 0.8527 0.8532 0.8537 0.8542
2659.000000 0.8547 0.8553 0.8558 0.8563 0.8568
2654.000000 0.8573 0.8577 0.8581 0.8585 0.8590
2649.000000 0.8594 0.8598 0.8602 0.8606 0.8610
2644.000000 0.8615 0.8618 0.8623 0.8627 0.8631
2639.000000 0.8634 0.8638 0.8640 0.8643 0.8645
2634.000000 0.8647 0.8649 0.8651 0.8653 0.8656
2629.000000 0.8658 0.8660 0.8662 0.8664 0.8666
2624.000000 0.8668 0.8670 0.8673 0.8675 0.8677
2619.000000 0.8678 0.8682 0.8684 0.8686 0.8688
2614.000000 0.8691 0.8693 0.8696 0.8698 0.8700
2609.000000 0.8702 0.8705 0.8707 0.8709 0.8711
2604.000000 0.8714 0.8716 0.8718 0.8720 0.8723
2599.000000 0.8724 0.8725 0.8725 0.8725 0.8725
2594.000000 0.8727 0.8727 0.8728 0.8728 0.8728
2589.000000 0.8728 0.8728 0.8728 0.8730 0.8730
2584.000000 0.8731 0.8731 0.8732 0.8732 0.8733
2579.000000 0.8733 0.8734 0.8734 0.8734 0.8733
2574.000000 0.8733 0.8733 0.8733 0.8732 0.8732
2569.000000 0.8732 0.8732 0.8731 0.8731 0.8731
2564.000000 0.8731 0.8730 0.8730 0.8730 0.8731
2559.000000 0.8731 0.8732 0.8732 0.8733 0.8734
2554.000000 0.8735 0.8735 0.8736 0.8736 0.8737
2549.000000 0.8737 0.8738 0.8738 0.8739 0.8739
2544.000000 0.8740 0.8740 0.8740 0.8739 0.8739
2539.000000 0.8739 0.8739 0.8738 0.8738 0.8737
2534.000000 0.8737 0.8737 0.8737 0.8737 0.8737
2529.000000 0.8738 0.8740 0.8741 0.8743 0.8744
2524.000000 0.8746 0.8747 0.8749 0.8750 0.8752
2519.000000 0.8753 0.8755 0.8757 0.8759 0.8760
2514.000000 0.8762 0.8764 0.8766 0.8768 0.8770
2509.000000 0.8771 0.8774 0.8775 0.8778 0.8780
2504.000000 0.8782 0.8784 0.8786 0.8787 0.8789
2499.000000 0.8791 0.8793 0.8795 0.8797 0.8797
2494.000000 0.8798 0.8798 0.8799 0.8799 0.8800
2489.000000 0.8800 0.8801 0.8801 0.8802 0.8802
2484.000000 0.8803 0.8803 0.8804 0.8805 0.8806
2479.000000 0.8807 0.8808 0.8809 0.8811 0.8812
2474.000000 0.8813 0.8814 0.8816 0.8817 0.8818
2469.000000 0.8818 0.8821 0.8821 0.8824 0.8825
2464.000000 0.8825 0.8827 0.8828 0.8830 0.8831
2459.000000 0.8832 0.8834 0.8835 0.8836 0.8837
2454.000000 0.8838 0.8839 0.8841 0.8842 0.8843
2449.000000 0.8844 0.8845 0.8846 0.8847 0.8848
2444.000000 0.8849 0.8850 0.8851 0.8852 0.8854
2439.000000 0.8854 0.8854 0.8854 0.8855 0.8855
2434.000000 0.8855 0.8855 0.8855 0.8855 0.8856
2429.000000 0.8856 0.8856 0.8856 0.8856 0.8856
2424.000000 0.8857 0.8857 0.8857 0.8857 0.8858
2419.000000 0.8858 0.8858 0.8858 0.8858 0.8858
2414.000000 0.8859 0.8859 0.8859 0.8859 0.8860
2409.000000 0.8860 0.8860 0.8860 0.8861 0.8861
2404.000000 0.8862 0.8862 0.8863 0.8863 0.8864
2399.000000 0.8865 0.8866 0.8866 0.8867 0.8867
2394.000000 0.8867 0.8867 0.8867 0.8867 0.8867
2389.000000 0.8867 0.8868 0.8868 0.8870 0.8871
2384.000000 0.8871 0.8873 0.8875 0.8875 0.8877
2379.000000 0.8881 0.8886 0.8891 0.8896 0.8901
2374.000000 0.8906 0.8915 0.8924 0.8934 0.8944
2369.000000 0.8953 0.8963 0.8966 0.8970 0.8970
2364.000000 0.8971 0.8971 0.8971 0.8970 0.8968
2359.000000 0.8961 0.8954 0.8947 0.8940 0.8936
2354.000000 0.8933 0.8928 0.8925 0.8921 0.8918
2349.000000 0.8915 0.8911 0.8908 0.8905 0.8901
2344.000000 0.8898 0.8895 0.8892 0.8889 0.8886
2339.000000 0.8883 0.8880 0.8875 0.8873 0.8870
2334.000000 0.8867 0.8863 0.8859 0.8856 0.8853
2329.000000 0.8850 0.8848 0.8845 0.8843 0.8840
2324.000000 0.8838 0.8835 0.8833 0.8830 0.8828
2319.000000 0.8825 0.8823 0.8820 0.8818 0.8815
2314.000000 0.8812 0.8809 0.8806 0.8803 0.8801
2309.000000 0.8798 0.8795 0.8792 0.8790 0.8787
2304.000000 0.8784 0.8782 0.8782 0.8782 0.8785
2299.000000 0.8787 0.8790 0.8792 0.8794 0.8796
2294.000000 0.8799 0.8801 0.8803 0.8807 0.8811
2289.000000 0.8815 0.8818 0.8823 0.8828 0.8832
2284.000000 0.8837 0.8841 0.8846 0.8850 0.8855
2279.000000 0.8859 0.8864 0.8868 0.8873 0.8877
2274.000000 0.8882 0.8886 0.8891 0.8895 0.8900
2269.000000 0.8905 0.8910 0.8914 0.8918 0.8923
2264.000000 0.8928 0.8932 0.8937 0.8940 0.8943
2259.000000 0.8946 0.8950 0.8953 0.8957 0.8960
2254.000000 0.8963 0.8966 0.8970 0.8973 0.8977
2249.000000 0.8980 0.8984 0.8988 0.8992 0.8995
2244.000000 0.8999 0.9003 0.9007 0.9011 0.9015
2239.000000 0.9018 0.9023 0.9025 0.9030 0.9033
2234.000000 0.9036 0.9039 0.9043 0.9046 0.9049
2229.000000 0.9052 0.9056 0.9059 0.9062 0.9065
2224.000000 0.9068 0.9071 0.9074 0.9075 0.9078
2219.000000 0.9081 0.9083 0.9085 0.9087 0.9089
2214.000000 0.9091 0.9093 0.9095 0.9097 0.9099
2209.000000 0.9100 0.9102 0.9103 0.9104 0.9105
2204.000000 0.9107 0.9108 0.9109 0.9109 0.9110
2199.000000 0.9110 0.9110 0.9110 0.9110 0.9108
2194.000000 0.9106 0.9104 0.9103 0.9098 0.9094
2189.000000 0.9089 0.9085 0.9077 0.9070 0.9061
2184.000000 0.9053 0.9048 0.9044 0.9040 0.9039
2179.000000 0.9038 0.9040 0.9047 0.9054 0.9061
2174.000000 0.9068 0.9074 0.9081 0.9087 0.9094
2169.000000 0.9100 0.9107 0.9113 0.9118 0.9125
2164.000000 0.9132 0.9138 0.9144 0.9150 0.9157
2159.000000 0.9161 0.9166 0.9170 0.9174 0.9178
2154.000000 0.9182 0.9185 0.9189 0.9193 0.9197
2149.000000 0.9201 0.9205 0.9209 0.9213 0.9217
2144.000000 0.9221 0.9224 0.9228 0.9232 0.9236
2139.000000 0.9239 0.9254 0.9247 0.9251 0.9255
2134.000000 0.9259 0.9261 0.9264 0.9265 0.9267
2129.000000 0.9268 0.9271 0.9273 0.9275 0.9275
2124.000000 0.9278 0.9278 0.9281 0.9281 0.9282
2119.000000 0.9283 0.9284 0.9285 0.9286 0.9286
2114.000000 0.9286 0.9284 0.9283 0.9281 0.9280
2109.000000 0.9275 0.9270 0.9261 0.9252 0.9237
2104.000000 0.9221 0.9204 0.9186 0.9166 0.9146
2099.000000 0.9128 0.9112 0.9093 0.9074 0.9047
2094.000000 0.9021 0.8995 0.8970 0.8950 0.8930
2089.000000 0.8924 0.8897 0.8918 0.8918 0.8943
2084.000000 0.8967 0.8995 0.9024 0.9050 0.9075
2079.000000 0.9088 0.9100 0.9112 0.9124 0.9136
2074.000000 0.9148 0.9157 0.9166 0.9175 0.9184
2069.000000 0.9193 0.9202 0.9211 0.9220 0.9228
2064.000000 0.9236 0.9243 0.9250 0.9256 0.9263
2059.000000 0.9268 0.9275 0.9281 0.9286 0.9290
2054.000000 0.9295 0.9300 0.9305 0.9310 0.9315
2049.000000 0.9318 0.9324 0.9327 0.9331 0.9334
2044.000000 0.9337 0.9340 0.9343 0.9346 0.9349
2039.000000 0.9351 0.9354 0.9356 0.9359 0.9362
2034.000000 0.9365 0.9367 0.9370 0.9371 0.9375
2029.000000 0.9378 0.9381 0.9383 0.9386 0.9388
2024.000000 0.9391 0.9392 0.9394 0.9395 0.9396
2019.000000 0.9396 0.9397 0.9398 0.9399 0.9399
2014.000000 0.9400 0.9401 0.9402 0.9403 0.9404
2009.000000 0.9400 0.9397 0.9392 0.9388 0.9383
2004.000000 0.9378 0.9374 0.9370 0.9360 0.9350
1999.000000 0.9341 0.9335 0.9334 0.9333 0.9344
1994.000000 0.9355 0.9363 0.9371 0.9378 0.9387
1989.000000 0.9396 0.9404 0.9412 0.9420 0.9428
1984.000000 0.9436 0.9443 0.9448 0.9452 0.9456
1979.000000 0.9460 0.9464 0.9468 0.9473 0.9477
1974.000000 0.9480 0.9484 0.9488 0.9492 0.9496
1969.000000 0.9498 0.9500 0.9503 0.9505 0.9507
1964.000000 0.9509 0.9511 0.9513 0.9515 0.9515
1959.000000 0.9515 0.9516 0.9516 0.9516 0.9516
1954.000000 0.9517 0.9517 0.9517 0.9517 0.9517
1949.000000 0.9517 0.9517 0.9517 0.9517 0.9517
1944.000000 0.9517 0.9517 0.9517 0.9517 0.9516
1939.000000 0.9516 0.9516 0.9515 0.9515 0.9515
1934.000000 0.9514 0.9514 0.9513 0.9513 0.9513
1929.000000 0.9512 0.9511 0.9509 0.9508 0.9506
1924.000000 0.9504 0.9503 0.9501 0.9500 0.9498
1919.000000 0.9496 0.9495 0.9493 0.9492 0.9490
1914.000000 0.9488 0.9486 0.9484 0.9511 0.9481
1909.000000 0.9478 0.9477 0.9475 0.9473 0.9471
1904.000000 0.9470 0.9467 0.9465 0.9463 0.9461
1899.000000 0.9459 0.9456 0.9454 0.9452 0.9450
1894.000000 0.9449 0.9448 0.9448 0.9448 0.9449
1889.000000 0.9449 0.9449 0.9450 0.9450 0.9450
1884.000000 0.9450 0.9449 0.9448 0.9448 0.9447
1879.000000 0.9446 0.9445 0.9444 0.9442 0.9441
1874.000000 0.9439 0.9438 0.9437 0.9435 0.9428
1869.000000 0.9420 0.9415 0.9409 0.9407 0.9404
1864.000000 0.9402 0.9399 0.9397 0.9395 0.9391
1859.000000 0.9387 0.9383 0.9378 0.9375 0.9371
1854.000000 0.9368 0.9364 0.9361 0.9358 0.9356
1849.000000 0.9354 0.9353 0.9352 0.9351 0.9350
1844.000000 0.9349 0.9348 0.9346 0.9345 0.9342
1839.000000 0.9337 0.9331 0.9325 0.9320 0.9314
1834.000000 0.9310 0.9306 0.9302 0.9297 0.9290
1829.000000 0.9284 0.9277 0.9271 0.9264 0.9258
1824.000000 0.9251 0.9244 0.9237 0.9230 0.9221
1819.000000 0.9211 0.9200 0.9187 0.9171 0.9155
1814.000000 0.9139 0.9121 0.9105 0.9085 0.9058
1809.000000 0.9033 0.9012 0.8992 0.8981 0.8970
1804.000000 0.8958 0.8947 0.8945 0.8944 0.8944
1799.000000 0.8943 0.8943 0.8942 0.8942 0.8942
1794.000000 0.8943 0.8944 0.8944 0.8943 0.8942
1789.000000 0.8939 0.8936 0.8934 0.8931 0.8928
1784.000000 0.8924 0.8918 0.8913 0.8907 0.8902
1779.000000 0.8896 0.8886 0.8875 0.8866 0.8856
