##TITLE=Cyclopropanecarboxylic acid
##JCAMP-DX=4.24
$$ By DXEDIT 1.05 (RS McDonald)
##DATA TYPE=INFRARED SPECTRUM
##CLASS=COBLENTZ III
##ORIGIN=DOW CHEMICAL COMPANY
##OWNER=COPYRIGHT (C) 1988 by COBLENTZ SOCIETY INC.
Collection (C) 2018 copyright by the U.S. Secretary of Commerce
on behalf of the United States of America. All rights reserved.
##DATE=1964/04/16
##CAS REGISTRY NO=1759-53-1
##MOLFORM=C4 H6 O2
##SOURCE REFERENCE=COBLENTZ NO. 6309
##$NIST SOURCE=COBLENTZ
##$NIST IMAGE=cob6309
##SPECTROMETER/DATA SYSTEM=DOW KBr FOREPRISM-GRATING
##INSTRUMENT PARAMETERS=BLAZED AT 3.5, 12.0, 20.0 MICRON AND CHANGED AT 5.0, 7.5, 14.9 MICRON
##STATE=SOLUTION (2% CCl4 FOR 3800-1340, 2% CS2 FOR 1340-450 CM^-^1)
##PATH LENGTH=0.011 CM, 0.011 CM
$$SPECTRAL CONTAMINATIONS DUE TO CS2 AROUND 850 AND CCl4 AROUND 1550 CM^-^1 HAVE BEEN SUBTRACTED
##SAMPLING PROCEDURE=TRANSMISSION
##RESOLUTION=2
##DATA PROCESSING=DIGITIZED BY COBLENTZ SOCIETY (BATCH I) FROM HARD COPY
##XUNITS=1/CM
##YUNITS=TRANSMITTANCE
##XFACTOR=1
##YFACTOR=1
##DELTAX=1
##FIRSTX=3812
##LASTX=451
##FIRSTY=0.8956
##MAXX=3812
##MINX=451
##MAXY=0.9586
##MINY=0.0042
##NPOINTS=3362
##XYDATA=(X++(Y..Y))
3812.000000 0.8956 0.8963 0.8968 0.8967 0.8970
3807.000000 0.8981 0.8987 0.8990 0.8995 0.8996
3802.000000 0.8991 0.8994 0.8995 0.8998 0.9001
3797.000000 0.9004 0.9012 0.8997 0.8993 0.8987
3792.000000 0.8981 0.8975 0.8970 0.8965 0.8960
3787.000000 0.8959 0.8958 0.8954 0.8949 0.8945
3782.000000 0.8943 0.8949 0.8950 0.8941 0.8946
3777.000000 0.8947 0.8949 0.8944 0.8953 0.8954
3772.000000 0.8956 0.8958 0.8960 0.8961 0.8964
3767.000000 0.8966 0.8968 0.8970 0.8972 0.8975
3762.000000 0.8979 0.8983 0.8991 0.8994 0.8994
3757.000000 0.8997 0.9001 0.9008 0.9014 0.9020
3752.000000 0.9026 0.9031 0.9036 0.9039 0.9042
3747.000000 0.9045 0.9045 0.9045 0.9043 0.9034
3742.000000 0.9025 0.9016 0.9005 0.9001 0.8999
3737.000000 0.8997 0.8996 0.8995 0.8990 0.8985
3732.000000 0.8988 0.8992 0.8993 0.8994 0.8995
3727.000000 0.8995 0.8996 0.8996 0.8996 0.8992
3722.000000 0.8988 0.8983 0.8979 0.8967 0.8964
3717.000000 0.8967 0.8962 0.8959 0.8955 0.8952
3712.000000 0.8950 0.8949 0.8942 0.8944 0.8941
3707.000000 0.8938 0.8936 0.8933 0.8931 0.8928
3702.000000 0.8926 0.8918 0.8911 0.8902 0.8893
3697.000000 0.8887 0.8875 0.8874 0.8874 0.8873
3692.000000 0.8873 0.8876 0.8880 0.8884 0.8889
3687.000000 0.8892 0.8891 0.8895 0.8899 0.8905
3682.000000 0.8911 0.8915 0.8920 0.8923 0.8927
3677.000000 0.8930 0.8934 0.8938 0.8942 0.8945
3672.000000 0.8949 0.8950 0.8957 0.8947 0.8943
3667.000000 0.8939 0.8935 0.8931 0.8927 0.8919
3662.000000 0.8911 0.8904 0.8897 0.8889 0.8882
3657.000000 0.8873 0.8866 0.8866 0.8867 0.8869
3652.000000 0.8872 0.8874 0.8878 0.8881 0.8885
3647.000000 0.8888 0.8891 0.8894 0.8897 0.8899
3642.000000 0.8902 0.8906 0.8907 0.8908 0.8908
3637.000000 0.8905 0.8902 0.8899 0.8895 0.8893
3632.000000 0.8898 0.8894 0.8889 0.8882 0.8885
3627.000000 0.8891 0.8892 0.8893 0.8895 0.8896
3622.000000 0.8899 0.8900 0.8900 0.8902 0.8903
3617.000000 0.8905 0.8907 0.8907 0.8907 0.8907
3612.000000 0.8907 0.8907 0.8907 0.8906 0.8900
3607.000000 0.8907 0.8907 0.8907 0.8907 0.8904
3602.000000 0.8903 0.8909 0.8906 0.8902 0.8906
3597.000000 0.8912 0.8913 0.8913 0.8914 0.8914
3592.000000 0.8915 0.8916 0.8917 0.8917 0.8918
3587.000000 0.8918 0.8919 0.8919 0.8919 0.8919
3582.000000 0.8919 0.8919 0.8920 0.8920 0.8920
3577.000000 0.8920 0.8917 0.8914 0.8920 0.8919
3572.000000 0.8915 0.8911 0.8911 0.8912 0.8914
3567.000000 0.8916 0.8918 0.8918 0.8919 0.8913
3562.000000 0.8907 0.8900 0.8894 0.8887 0.8881
3557.000000 0.8875 0.8870 0.8871 0.8858 0.8853
3552.000000 0.8855 0.8848 0.8842 0.8832 0.8832
3547.000000 0.8826 0.8821 0.8811 0.8806 0.8803
3542.000000 0.8798 0.8792 0.8782 0.8778 0.8769
3537.000000 0.8767 0.8765 0.8765 0.8766 0.8766
3532.000000 0.8767 0.8767 0.8767 0.8766 0.8772
3527.000000 0.8782 0.8791 0.8799 0.8806 0.8812
3522.000000 0.8819 0.8825 0.8832 0.8836 0.8840
3517.000000 0.8843 0.8846 0.8849 0.8853 0.8856
3512.000000 0.8859 0.8861 0.8864 0.8864 0.8865
3507.000000 0.8865 0.8866 0.8866 0.8867 0.8868
3502.000000 0.8868 0.8868 0.8868 0.8866 0.8864
3497.000000 0.8862 0.8861 0.8859 0.8857 0.8856
3492.000000 0.8855 0.8853 0.8852 0.8850 0.8850
3487.000000 0.8847 0.8847 0.8846 0.8844 0.8844
3482.000000 0.8844 0.8842 0.8842 0.8842 0.8842
3477.000000 0.8842 0.8842 0.8842 0.8842 0.8842
3472.000000 0.8842 0.8842 0.8842 0.8841 0.8841
3467.000000 0.8841 0.8841 0.8841 0.8841 0.8839
3462.000000 0.8839 0.8839 0.8839 0.8838 0.8838
3457.000000 0.8837 0.8837 0.8836 0.8835 0.8834
3452.000000 0.8834 0.8833 0.8833 0.8832 0.8832
3447.000000 0.8831 0.8831 0.8830 0.8829 0.8827
3442.000000 0.8826 0.8825 0.8824 0.8822 0.8821
3437.000000 0.8820 0.8818 0.8816 0.8815 0.8813
3432.000000 0.8811 0.8809 0.8807 0.8805 0.8803
3427.000000 0.8801 0.8798 0.8790 0.8794 0.8793
3422.000000 0.8791 0.8788 0.8787 0.8785 0.8782
3417.000000 0.8779 0.8777 0.8774 0.8772 0.8769
3412.000000 0.8767 0.8765 0.8763 0.8759 0.8755
3407.000000 0.8755 0.8750 0.8743 0.8739 0.8735
3402.000000 0.8731 0.8727 0.8723 0.8719 0.8716
3397.000000 0.8712 0.8707 0.8703 0.8699 0.8695
3392.000000 0.8691 0.8685 0.8679 0.8672 0.8666
3387.000000 0.8660 0.8654 0.8648 0.8641 0.8636
3382.000000 0.8629 0.8623 0.8617 0.8611 0.8605
3377.000000 0.8599 0.8592 0.8587 0.8581 0.8575
3372.000000 0.8570 0.8564 0.8564 0.8552 0.8546
3367.000000 0.8540 0.8534 0.8528 0.8522 0.8515
3362.000000 0.8509 0.8502 0.8495 0.8487 0.8482
3357.000000 0.8474 0.8467 0.8460 0.8454 0.8447
3352.000000 0.8438 0.8431 0.8426 0.8418 0.8411
3347.000000 0.8402 0.8395 0.8393 0.8385 0.8371
3342.000000 0.8370 0.8356 0.8348 0.8340 0.8339
3337.000000 0.8330 0.8322 0.8308 0.8301 0.8293
3332.000000 0.8284 0.8275 0.8268 0.8261 0.8254
3327.000000 0.8245 0.8238 0.8230 0.8223 0.8215
3322.000000 0.8207 0.8199 0.8192 0.8184 0.8176
3317.000000 0.8168 0.8160 0.8152 0.8144 0.8136
3312.000000 0.8135 0.8126 0.8117 0.8110 0.8102
3307.000000 0.8089 0.8086 0.8077 0.8067 0.8055
3302.000000 0.8046 0.8035 0.8025 0.8011 0.8000
3297.000000 0.7989 0.7977 0.7966 0.7955 0.7944
3292.000000 0.7932 0.7921 0.7911 0.7900 0.7888
3287.000000 0.7877 0.7865 0.7853 0.7844 0.7840
3282.000000 0.7827 0.7809 0.7799 0.7793 0.7779
3277.000000 0.7761 0.7752 0.7744 0.7732 0.7720
3272.000000 0.7706 0.7695 0.7684 0.7671 0.7658
3267.000000 0.7647 0.7634 0.7621 0.7611 0.7598
3262.000000 0.7586 0.7573 0.7562 0.7549 0.7538
3257.000000 0.7525 0.7506 0.7501 0.7490 0.7477
3252.000000 0.7464 0.7453 0.7440 0.7429 0.7417
3247.000000 0.7405 0.7395 0.7381 0.7369 0.7360
3242.000000 0.7350 0.7339 0.7328 0.7316 0.7306
3237.000000 0.7295 0.7283 0.7272 0.7261 0.7247
3232.000000 0.7237 0.7225 0.7211 0.7200 0.7188
3227.000000 0.7174 0.7156 0.7146 0.7139 0.7127
3222.000000 0.7115 0.7100 0.7087 0.7074 0.7059
3217.000000 0.7046 0.7032 0.7018 0.7005 0.6991
3212.000000 0.6976 0.6962 0.6946 0.6932 0.6912
3207.000000 0.6896 0.6882 0.6867 0.6853 0.6838
3202.000000 0.6822 0.6807 0.6793 0.6781 0.6764
3197.000000 0.6753 0.6737 0.6728 0.6715 0.6702
3192.000000 0.6690 0.6678 0.6664 0.6653 0.6646
3187.000000 0.6634 0.6619 0.6606 0.6596 0.6584
3182.000000 0.6574 0.6564 0.6553 0.6543 0.6533
3177.000000 0.6522 0.6512 0.6502 0.6492 0.6482
3172.000000 0.6470 0.6461 0.6451 0.6441 0.6431
3167.000000 0.6421 0.6411 0.6400 0.6391 0.6383
3162.000000 0.6369 0.6359 0.6350 0.6336 0.6320
3157.000000 0.6303 0.6281 0.6260 0.6246 0.6228
3152.000000 0.6208 0.6189 0.6168 0.6147 0.6122
3147.000000 0.6100 0.6079 0.6057 0.6036 0.6015
3142.000000 0.5993 0.5974 0.5957 0.5935 0.5914
3137.000000 0.5893 0.5872 0.5851 0.5830 0.5809
3132.000000 0.5788 0.5767 0.5746 0.5725 0.5704
3127.000000 0.5684 0.5664 0.5644 0.5623 0.5602
3122.000000 0.5583 0.5561 0.5541 0.5513 0.5486
3117.000000 0.5459 0.5432 0.5410 0.5388 0.5368
3112.000000 0.5349 0.5329 0.5310 0.5291 0.5273
3107.000000 0.5259 0.5245 0.5227 0.5211 0.5186
3102.000000 0.5163 0.5136 0.5114 0.5090 0.5066
3097.000000 0.5068 0.5069 0.5071 0.5068 0.5063
3092.000000 0.5059 0.5050 0.5044 0.5034 0.5025
3087.000000 0.5019 0.5015 0.5003 0.4994 0.4987
3082.000000 0.4981 0.4974 0.4967 0.4960 0.4957
3077.000000 0.4954 0.4948 0.4940 0.4936 0.4930
3072.000000 0.4919 0.4910 0.4903 0.4892 0.4889
3067.000000 0.4876 0.4869 0.4861 0.4853 0.4842
3062.000000 0.4835 0.4826 0.4818 0.4810 0.4801
3057.000000 0.4789 0.4776 0.4768 0.4759 0.4746
3052.000000 0.4737 0.4728 0.4720 0.4708 0.4697
3047.000000 0.4686 0.4679 0.4668 0.4661 0.4649
3042.000000 0.4636 0.4622 0.4608 0.4589 0.4571
3037.000000 0.4554 0.4535 0.4517 0.4502 0.4479
3032.000000 0.4457 0.4431 0.4405 0.4377 0.4351
3027.000000 0.4324 0.4297 0.4264 0.4231 0.4205
3022.000000 0.4178 0.4176 0.4163 0.4175 0.4175
3017.000000 0.4173 0.4169 0.4204 0.4239 0.4307
3012.000000 0.4377 0.4454 0.4531 0.4570 0.4607
3007.000000 0.4634 0.4667 0.4694 0.4718 0.4737
3002.000000 0.4757 0.4774 0.4793 0.4809 0.4824
2997.000000 0.4840 0.4856 0.4870 0.4885 0.4899
2992.000000 0.4912 0.4917 0.4930 0.4927 0.4928
2987.000000 0.4929 0.4927 0.4911 0.4893 0.4873
2982.000000 0.4851 0.4827 0.4806 0.4785 0.4761
2977.000000 0.4738 0.4720 0.4701 0.4682 0.4664
2972.000000 0.4646 0.4628 0.4610 0.4596 0.4580
2967.000000 0.4563 0.4548 0.4531 0.4516 0.4505
2962.000000 0.4496 0.4486 0.4477 0.4470 0.4461
2957.000000 0.4450 0.4444 0.4438 0.4437 0.4437
2952.000000 0.4434 0.4430 0.4427 0.4425 0.4425
2947.000000 0.4423 0.4422 0.4423 0.4427 0.4440
2942.000000 0.4457 0.4477 0.4499 0.4519 0.4538
2937.000000 0.4549 0.4562 0.4570 0.4581 0.4588
2932.000000 0.4593 0.4598 0.4603 0.4605 0.4608
2927.000000 0.4609 0.4617 0.4601 0.4592 0.4581
2922.000000 0.4570 0.4557 0.4546 0.4535 0.4525
2917.000000 0.4514 0.4502 0.4496 0.4491 0.4488
2912.000000 0.4486 0.4485 0.4483 0.4482 0.4485
2907.000000 0.4486 0.4486 0.4488 0.4492 0.4503
2902.000000 0.4516 0.4527 0.4539 0.4551 0.4563
2897.000000 0.4574 0.4586 0.4591 0.4596 0.4597
2892.000000 0.4599 0.4600 0.4602 0.4603 0.4605
2887.000000 0.4607 0.4609 0.4611 0.4613 0.4616
2882.000000 0.4619 0.4626 0.4632 0.4638 0.4644
2877.000000 0.4650 0.4666 0.4677 0.4689 0.4702
2872.000000 0.4714 0.4726 0.4739 0.4750 0.4762
2867.000000 0.4777 0.4792 0.4811 0.4829 0.4848
2862.000000 0.4866 0.4885 0.4903 0.4920 0.4937
2857.000000 0.4953 0.4969 0.4984 0.4996 0.5012
2852.000000 0.5028 0.5044 0.5060 0.5076 0.5092
2847.000000 0.5108 0.5128 0.5144 0.5158 0.5175
2842.000000 0.5196 0.5215 0.5233 0.5251 0.5273
2837.000000 0.5292 0.5308 0.5326 0.5346 0.5364
2832.000000 0.5384 0.5403 0.5423 0.5444 0.5459
2827.000000 0.5479 0.5496 0.5507 0.5524 0.5545
2822.000000 0.5557 0.5577 0.5593 0.5604 0.5612
2817.000000 0.5623 0.5636 0.5647 0.5658 0.5670
2812.000000 0.5682 0.5693 0.5706 0.5715 0.5730
2807.000000 0.5741 0.5751 0.5757 0.5764 0.5765
2802.000000 0.5767 0.5769 0.5771 0.5771 0.5773
2797.000000 0.5776 0.5778 0.5780 0.5783 0.5785
2792.000000 0.5786 0.5784 0.5788 0.5786 0.5787
2787.000000 0.5788 0.5789 0.5792 0.5796 0.5793
2782.000000 0.5792 0.5795 0.5797 0.5797 0.5798
2777.000000 0.5798 0.5798 0.5799 0.5801 0.5811
2772.000000 0.5823 0.5841 0.5861 0.5880 0.5900
2767.000000 0.5915 0.5932 0.5946 0.5961 0.5976
2762.000000 0.5990 0.6005 0.6020 0.6034 0.6050
2757.000000 0.6064 0.6079 0.6093 0.6107 0.6122
2752.000000 0.6136 0.6151 0.6165 0.6179 0.6195
2747.000000 0.6209 0.6225 0.6239 0.6254 0.6269
2742.000000 0.6284 0.6302 0.6319 0.6337 0.6355
2737.000000 0.6373 0.6390 0.6406 0.6421 0.6433
2732.000000 0.6447 0.6454 0.6461 0.6467 0.6475
2727.000000 0.6481 0.6488 0.6491 0.6497 0.6500
2722.000000 0.6504 0.6509 0.6511 0.6498 0.6483
2717.000000 0.6446 0.6410 0.6370 0.6330 0.6289
2712.000000 0.6249 0.6210 0.6171 0.6135 0.6100
2707.000000 0.6064 0.6028 0.5987 0.5945 0.5900
2702.000000 0.5856 0.5819 0.5782 0.5751 0.5721
2697.000000 0.5692 0.5662 0.5633 0.5604 0.5575
2692.000000 0.5547 0.5531 0.5514 0.5502 0.5490
2687.000000 0.5481 0.5471 0.5462 0.5435 0.5453
2682.000000 0.5453 0.5454 0.5457 0.5461 0.5464
2677.000000 0.5480 0.5494 0.5506 0.5520 0.5525
2672.000000 0.5531 0.5532 0.5534 0.5534 0.5534
2667.000000 0.5531 0.5528 0.5524 0.5521 0.5518
2662.000000 0.5513 0.5512 0.5510 0.5509 0.5510
2657.000000 0.5515 0.5516 0.5530 0.5544 0.5587
2652.000000 0.5630 0.5670 0.5708 0.5736 0.5767
2647.000000 0.5797 0.5826 0.5848 0.5871 0.5893
2642.000000 0.5919 0.5939 0.5959 0.5980 0.6003
2637.000000 0.6026 0.6048 0.6071 0.6099 0.6120
2632.000000 0.6143 0.6151 0.6165 0.6183 0.6197
2627.000000 0.6210 0.6223 0.6237 0.6250 0.6250
2622.000000 0.6251 0.6247 0.6244 0.6239 0.6236
2617.000000 0.6233 0.6229 0.6227 0.6226 0.6225
2612.000000 0.6224 0.6223 0.6223 0.6234 0.6245
2607.000000 0.6258 0.6272 0.6296 0.6322 0.6334
2602.000000 0.6348 0.6360 0.6372 0.6376 0.6379
2597.000000 0.6380 0.6382 0.6382 0.6383 0.6383
2592.000000 0.6384 0.6384 0.6384 0.6384 0.6384
2587.000000 0.6377 0.6369 0.6353 0.6337 0.6317
2582.000000 0.6296 0.6261 0.6226 0.6189 0.6155
2577.000000 0.6119 0.6084 0.6024 0.5965 0.5912
2572.000000 0.5860 0.5806 0.5754 0.5701 0.5649
2567.000000 0.5597 0.5547 0.5523 0.5499 0.5488
2562.000000 0.5477 0.5472 0.5466 0.5466 0.5466
2557.000000 0.5473 0.5479 0.5499 0.5520 0.5605
2552.000000 0.5692 0.5756 0.5819 0.5876 0.5934
2547.000000 0.5989 0.6045 0.6083 0.6121 0.6158
2542.000000 0.6196 0.6233 0.6271 0.6309 0.6347
2537.000000 0.6381 0.6415 0.6446 0.6479 0.6510
2532.000000 0.6542 0.6574 0.6606 0.6638 0.6669
2527.000000 0.6688 0.6707 0.6725 0.6744 0.6761
2522.000000 0.6782 0.6800 0.6819 0.6837 0.6856
2517.000000 0.6874 0.6893 0.6911 0.6931 0.6946
2512.000000 0.6963 0.6975 0.6990 0.7003 0.7017
2507.000000 0.7031 0.7045 0.7059 0.7073 0.7085
2502.000000 0.7099 0.7111 0.7122 0.7136 0.7148
2497.000000 0.7160 0.7173 0.7185 0.7197 0.7210
2492.000000 0.7221 0.7232 0.7246 0.7258 0.7270
2487.000000 0.7279 0.7290 0.7300 0.7310 0.7320
2482.000000 0.7330 0.7344 0.7355 0.7363 0.7373
2477.000000 0.7381 0.7389 0.7398 0.7408 0.7416
2472.000000 0.7425 0.7433 0.7443 0.7451 0.7460
2467.000000 0.7462 0.7465 0.7460 0.7455 0.7447
2462.000000 0.7441 0.7433 0.7426 0.7421 0.7412
2457.000000 0.7405 0.7399 0.7389 0.7385 0.7386
2452.000000 0.7385 0.7385 0.7380 0.7387 0.7393
2447.000000 0.7398 0.7403 0.7411 0.7419 0.7428
2442.000000 0.7436 0.7447 0.7456 0.7472 0.7488
2437.000000 0.7505 0.7522 0.7538 0.7555 0.7571
2432.000000 0.7588 0.7601 0.7617 0.7631 0.7645
2427.000000 0.7660 0.7674 0.7688 0.7702 0.7718
2422.000000 0.7732 0.7745 0.7761 0.7775 0.7790
2417.000000 0.7803 0.7817 0.7826 0.7835 0.7841
2412.000000 0.7848 0.7856 0.7865 0.7874 0.7884
2407.000000 0.7889 0.7901 0.7907 0.7914 0.7917
2402.000000 0.7921 0.7924 0.7928 0.7931 0.7936
2397.000000 0.7939 0.7943 0.7946 0.7950 0.7952
2392.000000 0.7957 0.7959 0.7964 0.7974 0.7979
2387.000000 0.7983 0.7987 0.7992 0.8002 0.8005
2382.000000 0.8011 0.8021 0.8024 0.8031 0.8039
2377.000000 0.8046 0.8054 0.8058 0.8065 0.8071
2372.000000 0.8074 0.8077 0.8080 0.8078 0.8080
2367.000000 0.8083 0.8086 0.8089 0.8093 0.8096
2362.000000 0.8115 0.8102 0.8112 0.8115 0.8127
2357.000000 0.8132 0.8143 0.8152 0.8156 0.8159
2352.000000 0.8163 0.8164 0.8163 0.8170 0.8177
2347.000000 0.8190 0.8200 0.8205 0.8205 0.8208
2342.000000 0.8214 0.8219 0.8227 0.8227 0.8237
2337.000000 0.8244 0.8243 0.8249 0.8264 0.8270
2332.000000 0.8278 0.8283 0.8295 0.8293 0.8292
2327.000000 0.8288 0.8289 0.8287 0.8286 0.8280
2322.000000 0.8274 0.8266 0.8259 0.8259 0.8260
2317.000000 0.8262 0.8262 0.8262 0.8262 0.8262
2312.000000 0.8264 0.8264 0.8264 0.8260 0.8258
2307.000000 0.8252 0.8248 0.8243 0.8239 0.8234
2302.000000 0.8230 0.8224 0.8219 0.8214 0.8213
2297.000000 0.8206 0.8199 0.8192 0.8186 0.8179
2292.000000 0.8172 0.8165 0.8158 0.8150 0.8138
2287.000000 0.8128 0.8122 0.8116 0.8102 0.8096
2282.000000 0.8095 0.8094 0.8091 0.8088 0.8081
2277.000000 0.8077 0.8075 0.8074 0.8082 0.8090
2272.000000 0.8096 0.8100 0.8111 0.8118 0.8125
2267.000000 0.8136 0.8145 0.8151 0.8159 0.8168
2262.000000 0.8178 0.8182 0.8190 0.8197 0.8200
2257.000000 0.8206 0.8214 0.8222 0.8223 0.8227
2252.000000 0.8234 0.8237 0.8237 0.8242 0.8247
2247.000000 0.8252 0.8257 0.8260 0.8260 0.8266
2242.000000 0.8271 0.8275 0.8281 0.8286 0.8291
2237.000000 0.8297 0.8303 0.8303 0.8306 0.8311
2232.000000 0.8315 0.8321 0.8325 0.8331 0.8337
2227.000000 0.8342 0.8347 0.8352 0.8357 0.8362
2222.000000 0.8365 0.8365 0.8369 0.8374 0.8380
2217.000000 0.8379 0.8379 0.8377 0.8376 0.8375
2212.000000 0.8374 0.8372 0.8372 0.8370 0.8369
2207.000000 0.8369 0.8368 0.8365 0.8365 0.8363
2202.000000 0.8362 0.8362 0.8361 0.8359 0.8358
2197.000000 0.8356 0.8354 0.8347 0.8352 0.8349
2192.000000 0.8342 0.8341 0.8340 0.8339 0.8339
2187.000000 0.8337 0.8337 0.8336 0.8340 0.8338
2182.000000 0.8334 0.8333 0.8333 0.8333 0.8339
2177.000000 0.8342 0.8344 0.8344 0.8347 0.8349
2172.000000 0.8351 0.8353 0.8354 0.8355 0.8351
2167.000000 0.8353 0.8354 0.8357 0.8358 0.8360
2162.000000 0.8361 0.8365 0.8367 0.8369 0.8371
2157.000000 0.8372 0.8374 0.8376 0.8378 0.8380
2152.000000 0.8382 0.8384 0.8387 0.8388 0.8391
2147.000000 0.8392 0.8392 0.8392 0.8388 0.8385
2142.000000 0.8382 0.8377 0.8373 0.8367 0.8362
2137.000000 0.8357 0.8353 0.8347 0.8342 0.8334
2132.000000 0.8328 0.8321 0.8315 0.8310 0.8306
2127.000000 0.8299 0.8295 0.8291 0.8287 0.8287
2122.000000 0.8282 0.8289 0.8292 0.8295 0.8298
2117.000000 0.8306 0.8315 0.8324 0.8334 0.8344
2112.000000 0.8354 0.8362 0.8371 0.8376 0.8383
2107.000000 0.8388 0.8394 0.8397 0.8399 0.8398
2102.000000 0.8398 0.8398 0.8398 0.8397 0.8390
2097.000000 0.8384 0.8386 0.8375 0.8354 0.8350
2092.000000 0.8340 0.8332 0.8324 0.8320 0.8319
2087.000000 0.8318 0.8319 0.8321 0.8323 0.8326
2082.000000 0.8329 0.8332 0.8336 0.8354 0.8372
2077.000000 0.8386 0.8398 0.8408 0.8428 0.8419
2072.000000 0.8423 0.8425 0.8428 0.8428 0.8429
2067.000000 0.8429 0.8430 0.8412 0.8395 0.8387
2062.000000 0.8381 0.8377 0.8374 0.8375 0.8377
2057.000000 0.8381 0.8389 0.8391 0.8393 0.8395
2052.000000 0.8397 0.8400 0.8408 0.8408 0.8408
2047.000000 0.8412 0.8415 0.8418 0.8421 0.8423
2042.000000 0.8425 0.8427 0.8430 0.8432 0.8434
2037.000000 0.8435 0.8437 0.8437 0.8437 0.8437
2032.000000 0.8438 0.8438 0.8438 0.8437 0.8438
2027.000000 0.8438 0.8432 0.8434 0.8437 0.8434
2022.000000 0.8432 0.8429 0.8427 0.8422 0.8419
2017.000000 0.8416 0.8413 0.8409 0.8406 0.8402
2012.000000 0.8399 0.8395 0.8390 0.8385 0.8380
2007.000000 0.8375 0.8371 0.8365 0.8361 0.8356
2002.000000 0.8352 0.8331 0.8309 0.8282 0.8251
1997.000000 0.8221 0.8195 0.8144 0.8093 0.8036
1992.000000 0.7993 0.7954 0.7941 0.7935 0.8009
1987.000000 0.8097 0.8157 0.8178 0.8179 0.8180
1982.000000 0.8181 0.8183 0.8184 0.8183 0.8178
1977.000000 0.8181 0.8181 0.8177 0.8174 0.8171
1972.000000 0.8167 0.8165 0.8160 0.8157 0.8154
1967.000000 0.8149 0.8149 0.8143 0.8134 0.8135
1962.000000 0.8132 0.8128 0.8130 0.8130 0.8130
1957.000000 0.8129 0.8129 0.8129 0.8124 0.8124
1952.000000 0.8124 0.8125 0.8125 0.8122 0.8124
1947.000000 0.8126 0.8128 0.8131 0.8132 0.8136
1942.000000 0.8139 0.8141 0.8143 0.8145 0.8147
1937.000000 0.8149 0.8150 0.8152 0.8153 0.8155
1932.000000 0.8156 0.8157 0.8158 0.8159 0.8159
1927.000000 0.8159 0.8161 0.8162 0.8162 0.8162
1922.000000 0.8161 0.8159 0.8157 0.8154 0.8152
1917.000000 0.8149 0.8145 0.8142 0.8137 0.8132
1912.000000 0.8132 0.8131 0.8132 0.8132 0.8132
1907.000000 0.8138 0.8140 0.8140 0.8142 0.8142
1902.000000 0.8142 0.8145 0.8145 0.8147 0.8149
1897.000000 0.8151 0.8153 0.8154 0.8156 0.8158
1892.000000 0.8160 0.8159 0.8155 0.8155 0.8154
1887.000000 0.8152 0.8151 0.8148 0.8152 0.8151
1882.000000 0.8142 0.8135 0.8129 0.8122 0.8115
1877.000000 0.8107 0.8099 0.8098 0.8091 0.8084
1872.000000 0.8075 0.8066 0.8057 0.8049 0.8039
1867.000000 0.8033 0.8028 0.8022 0.8017 0.8012
1862.000000 0.8008 0.8002 0.7998 0.7992 0.7988
1857.000000 0.7988 0.7980 0.7975 0.7974 0.7973
1852.000000 0.7972 0.7970 0.7969 0.7967 0.7966
1847.000000 0.7964 0.7962 0.7960 0.7958 0.7955
1842.000000 0.7954 0.7952 0.7951 0.7949 0.7948
1837.000000 0.7946 0.7941 0.7935 0.7935 0.7937
1832.000000 0.7939 0.7940 0.7943 0.7949 0.7956
1827.000000 0.7962 0.7969 0.7974 0.7977 0.7979
1822.000000 0.7982 0.7982 0.7982 0.7988 0.7985
1817.000000 0.7982 0.7974 0.7967 0.7962 0.7955
