##TITLE=METHANE, DIBROMOFLUORO-
##JCAMP-DX=4.24
##DATA TYPE=INFRARED SPECTRUM
##CLASS=COBLENTZ
##ORIGIN=DOW CHEMICAL COMPANY
##OWNER=COBLENTZ SOCIETY
Collection (C) 2018 copyright by the U.S. Secretary of Commerce
on behalf of the United States of America. All rights reserved.
##DATE=1968/11/29
##NAMES=dibromo(fluoro)methane
##CAS REGISTRY NO=1868-53-7
##MOLFORM=C H Br2 F
##SOURCE REFERENCE=COBLENTZ NO. 10479
##$NIST SOURCE=COBLENTZ
##$NIST IMAGE=cob-r10479
##SPECTROMETER/DATA SYSTEM=PERKIN-ELMER 225
##STATE=GAS (100 mmHg, N2 ADDED, TOTAL PRESSURE = ATMOSPHERIC RESSURE)
##PATH LENGTH=5 CM CsI CELL
##RESOLUTION=2
##DATA PROCESSING=DIGITIZED BY NIST FROM HARD COPY (FROM TWO SEGMENTS)
##XUNITS=1/CM
##YUNITS=TRANSMITTANCE
##XFACTOR=1.000000
##YFACTOR=1
##DELTAX=1.249024
##FIRSTX=351.288
##LASTX=3797.35
##FIRSTY=0.736
##MAXX=3797.35
##MINX=351.288
##MAXY=1.003
##MINY=0.007
##NPOINTS=2760
##XYDATA=(X++(Y..Y))
351.288000 0.7360 0.7360 0.7340 0.7320 0.7300
357.533121 0.7240 0.7200 0.7200 0.7260 0.7300
363.778242 0.7320 0.7320 0.7360 0.7400 0.7420
370.023364 0.7440 0.7460 0.7480 0.7480 0.7480
376.268485 0.7480 0.7480 0.7500 0.7510 0.7530
382.513606 0.7550 0.7550 0.7530 0.7510 0.7510
388.758727 0.7530 0.7530 0.7500 0.7440 0.7420
395.003848 0.7400 0.7360 0.7280 0.7260 0.7260
401.248970 0.7280 0.7300 0.7340 0.7360 0.7380
407.494091 0.7400 0.7400 0.7420 0.7440 0.7440
413.739212 0.7440 0.7440 0.7440 0.7440 0.7420
419.984333 0.7420 0.7420 0.7440 0.7440 0.7420
426.229455 0.7420 0.7420 0.7360 0.7360 0.7380
432.474576 0.7400 0.7460 0.7460 0.7480 0.7480
438.719697 0.7480 0.7480 0.7480 0.7460 0.7400
444.964818 0.7400 0.7340 0.7320 0.7340 0.7360
451.209939 0.7400 0.7440 0.7530 0.7570 0.7590
457.455061 0.7630 0.7650 0.7730 0.7829 0.7830
463.700182 0.7870 0.7870 0.7870 0.7870 0.7910
469.945303 0.7950 0.7950 0.7970 0.7970 0.7990
476.190424 0.7990 0.7990 0.7970 0.7970 0.7930
482.435545 0.7930 0.7950 0.7950 0.7950 0.7950
488.680667 0.7950 0.7970 0.7970 0.7970 0.7950
494.925788 0.7950 0.7950 0.7950 0.7910 0.7910
501.170909 0.7890 0.7890 0.7890 0.7910 0.7910
507.416030 0.7890 0.7870 0.7850 0.7830 0.7810
513.661152 0.7810 0.7790 0.7790 0.7790 0.7770
519.906273 0.7750 0.7750 0.7710 0.7670 0.7630
526.151394 0.7610 0.7570 0.7480 0.7420 0.7300
532.396515 0.7240 0.7160 0.7100 0.6961 0.6920
538.641636 0.6920 0.6920 0.6940 0.6960 0.6960
544.886758 0.6940 0.6920 0.6870 0.6870 0.6979
551.131879 0.7120 0.7180 0.7180 0.7120 0.7080
557.377000 0.7120 0.7200 0.7359 0.7569 0.7808
563.622121 0.7850 0.7870 0.7930 0.7930 0.7930
569.867242 0.7910 0.7890 0.7870 0.7850 0.7830
576.112364 0.7790 0.7750 0.7730 0.7710 0.7710
582.357485 0.7690 0.7670 0.7650 0.7650 0.7650
588.602606 0.7630 0.7590 0.7460 0.7400 0.7300
594.847727 0.7260 0.7141 0.7080 0.6881 0.6711
601.092848 0.6490 0.6200 0.5980 0.5701 0.5331
607.337970 0.5031 0.4901 0.4462 0.3874 0.3403
613.583091 0.3030 0.2770 0.2510 0.2261 0.1901
619.828212 0.1830 0.1830 0.2118 0.2100 0.1852
626.073333 0.1830 0.1270 0.1310 0.1490 0.2038
632.318455 0.2279 0.2609 0.2829 0.3108 0.3180
638.563576 0.3340 0.3480 0.3540 0.3560 0.3580
644.808697 0.3739 0.3949 0.4049 0.4308 0.4479
651.053818 0.4720 0.4980 0.5010 0.5030 0.5150
657.298939 0.5568 0.6078 0.6935 0.7457 0.7907
663.544061 0.7990 0.8050 0.8050 0.7990 0.7890
669.789182 0.7631 0.7441 0.7321 0.7320 0.7320
676.034303 0.7300 0.7260 0.7140 0.6811 0.6391
682.279424 0.6181 0.6021 0.5801 0.5661 0.5590
688.524545 0.5410 0.4901 0.4291 0.4031 0.2874
694.769667 0.2482 0.1903 0.1512 0.1043 0.0573
701.014788 0.0150 0.0110 0.0090 0.0090 0.0090
707.259909 0.0090 0.0090 0.0090 0.0090 0.0090
713.505030 0.0090 0.0090 0.0090 0.0090 0.0090
719.750152 0.0110 0.1703 0.2864 0.3784 0.4992
725.995273 0.5290 0.5350 0.5410 0.5490 0.5640
732.240394 0.5680 0.5680 0.5451 0.5450 0.5510
738.485515 0.5740 0.6349 0.6829 0.6850 0.6830
744.730636 0.6770 0.6651 0.6570 0.6411 0.5924
750.975758 0.5640 0.5450 0.5170 0.5030 0.4701
757.220879 0.4481 0.4291 0.3644 0.3143 0.2405
763.466000 0.2200 0.1730 0.1271 0.1060 0.0841
769.711121 0.0740 0.0621 0.0620 0.0660 0.0720
775.956242 0.0780 0.1180 0.1769 0.2459 0.3088
782.201364 0.3698 0.4248 0.4817 0.5347 0.5996
788.446485 0.6290 0.6869 0.7120 0.7379 0.7510
794.691606 0.7630 0.7749 0.7830 0.7890 0.7969
800.936727 0.7990 0.7990 0.7990 0.7990 0.7970
807.181848 0.7970 0.7970 0.7950 0.7950 0.7930
813.426970 0.7910 0.7890 0.7870 0.7870 0.7870
819.672091 0.7890 0.7950 0.7990 0.8030 0.8119
825.917212 0.8180 0.8260 0.8340 0.8400 0.8520
832.162333 0.8540 0.8540 0.8520 0.8520 0.8520
838.407455 0.8520 0.8520 0.8520 0.8520 0.8520
844.652576 0.8520 0.8520 0.8520 0.8500 0.8500
850.897697 0.8520 0.8520 0.8520 0.8520 0.8520
857.142818 0.8500 0.8500 0.8500 0.8480 0.8460
863.387939 0.8440 0.8440 0.8420 0.8400 0.8380
869.633061 0.8380 0.8360 0.8340 0.8320 0.8320
875.878182 0.8320 0.8320 0.8340 0.8360 0.8380
882.123303 0.8400 0.8440 0.8440 0.8440 0.8440
888.368424 0.8440 0.8440 0.8440 0.8440 0.8440
894.613545 0.8420 0.8420 0.8400 0.8380 0.8380
900.858667 0.8360 0.8340 0.8320 0.8300 0.8300
907.103788 0.8280 0.8260 0.8240 0.8200 0.8091
913.348909 0.8070 0.8050 0.8030 0.8010 0.8010
919.594030 0.8010 0.7990 0.7990 0.7990 0.7990
925.839152 0.7990 0.8010 0.8070 0.8140 0.8200
932.084273 0.8260 0.8300 0.8320 0.8340 0.8360
938.329394 0.8380 0.8380 0.8380 0.8360 0.8360
944.574515 0.8380 0.8380 0.8380 0.8400 0.8420
950.819636 0.8420 0.8440 0.8460 0.8460 0.8460
957.064758 0.8480 0.8480 0.8480 0.8460 0.8460
963.309879 0.8440 0.8420 0.8400 0.8400 0.8380
969.555000 0.8380 0.8360 0.8340 0.8300 0.8240
975.800121 0.8240 0.8240 0.8240 0.8260 0.8260
982.045242 0.8220 0.8200 0.8160 0.8110 0.8090
988.290364 0.8070 0.8070 0.8070 0.8050 0.7970
994.535485 0.7970 0.7890 0.7850 0.7770 0.7750
1000.780606 0.7750 0.7750 0.7770 0.7790 0.7790
1007.025727 0.7790 0.7810 0.7810 0.7810 0.7830
1013.270848 0.7890 0.8010 0.8070 0.8090 0.8110
1019.515970 0.8120 0.8120 0.8070 0.8010 0.7990
1025.761091 0.7970 0.7850 0.7770 0.7610 0.7530
1032.006212 0.7460 0.7281 0.7081 0.6941 0.6712
1038.251333 0.6470 0.6220 0.6040 0.5741 0.5211
1044.496455 0.4821 0.4252 0.4111 0.3772 0.3303
1050.741576 0.3050 0.2710 0.1852 0.1391 0.0981
1056.986697 0.0572 0.0351 0.0191 0.0150 0.0090
1063.231818 0.0070 0.0070 0.0070 0.0090 0.0110
1069.476939 0.0110 0.0110 0.0110 0.0110 0.0110
1075.722061 0.0090 0.0090 0.0090 0.0090 0.0070
1081.967182 0.0070 0.0070 0.0090 0.0090 0.0110
1088.212303 0.0110 0.0130 0.0150 0.0210 0.0330
1094.457424 0.1267 0.2096 0.2647 0.3634 0.4494
1100.702545 0.6219 0.6240 0.6689 0.7139 0.7588
1106.947667 0.8118 0.8140 0.8140 0.8120 0.8120
1113.192788 0.8120 0.8120 0.8120 0.8110 0.8110
1119.437909 0.8090 0.8070 0.8050 0.8050 0.8030
1125.683030 0.8010 0.7990 0.7970 0.7950 0.7910
1131.928152 0.7870 0.7830 0.7790 0.7750 0.7671
1138.173273 0.7590 0.7530 0.7460 0.7300 0.7180
1144.418394 0.6981 0.6920 0.6771 0.6452 0.6311
1150.663515 0.6220 0.5840 0.5531 0.4842 0.4521
1156.908636 0.3584 0.2754 0.1736 0.1164 0.0594
1163.153758 0.0130 0.0090 0.0090 0.0090 0.0090
1169.398879 0.0090 0.0110 0.0130 0.0249 0.0329
1175.644000 0.0090 0.0090 0.0110 0.1287 0.2456
1181.889121 0.3616 0.4775 0.5914 0.7053 0.7785
1188.134242 0.7770 0.7770 0.7730 0.7710 0.7670
1194.379364 0.7650 0.7630 0.7590 0.7510 0.7421
1200.624485 0.7400 0.7280 0.7020 0.6900 0.6651
1206.869606 0.6411 0.6251 0.5982 0.5513 0.5172
1213.114727 0.4840 0.4370 0.3851 0.3830 0.3770
1219.359848 0.3770 0.4377 0.4738 0.4959 0.5030
1225.604970 0.5050 0.5170 0.5390 0.5570 0.5570
1231.850091 0.5052 0.5070 0.5329 0.5350 0.5370
1238.095212 0.5410 0.5470 0.5660 0.5979 0.6239
1244.340333 0.6469 0.6709 0.6750 0.6750 0.6750
1250.585455 0.6790 0.6980 0.7220 0.7420 0.7480
1256.830576 0.7550 0.7610 0.7670 0.7750 0.7790
1263.075697 0.7810 0.7810 0.7770 0.7650 0.7610
1269.320818 0.7530 0.7421 0.7221 0.7041 0.6812
1275.565939 0.6550 0.6290 0.6000 0.5661 0.5331
1281.811061 0.5001 0.4662 0.4352 0.4072 0.3832
1288.056182 0.3660 0.3660 0.3810 0.3810 0.3890
1294.301303 0.2485 0.2480 0.4062 0.3911 0.3771
1300.546424 0.3910 0.4310 0.4560 0.4919 0.5030
1306.791545 0.5249 0.5698 0.5919 0.6198 0.6409
1313.036667 0.6710 0.6880 0.7080 0.7279 0.7459
1319.281788 0.7589 0.7630 0.7650 0.7630 0.7590
1325.526909 0.7530 0.7530 0.7510 0.7510 0.7530
1331.772030 0.7550 0.7570 0.7590 0.7610 0.7630
1338.017152 0.7650 0.7810 0.7890 0.7990 0.8090
1344.262273 0.8120 0.8120 0.8140 0.8140 0.8140
1350.507394 0.8140 0.8090 0.8030 0.8010 0.7990
1356.752515 0.7970 0.7970 0.7930 0.7811 0.7770
1362.997636 0.7710 0.7690 0.7670 0.7670 0.7670
1369.242758 0.7670 0.7710 0.7790 0.7810 0.7810
1375.487879 0.7770 0.7590 0.7460 0.7420 0.7420
1381.733000 0.7480 0.7500 0.7510 0.7530 0.7341
1387.978121 0.7340 0.7420 0.7829 0.7870 0.7870
1394.223242 0.7890 0.7890 0.7890 0.7890 0.7870
1400.468364 0.7870 0.7850 0.7830 0.7790 0.7750
1406.713485 0.7730 0.7730 0.7710 0.7690 0.7690
1412.958606 0.7690 0.7690 0.7670 0.7670 0.7650
1419.203727 0.7650 0.7610 0.7590 0.7590 0.7610
1425.448848 0.7650 0.7670 0.7770 0.7810 0.7850
1431.693970 0.7870 0.7890 0.7890 0.7870 0.7870
1437.939091 0.7890 0.7890 0.7910 0.7930 0.7950
1444.184212 0.7970 0.7970 0.7990 0.7990 0.7990
1450.429333 0.7970 0.7970 0.7930 0.7910 0.7890
1456.674455 0.7890 0.7910 0.7910 0.7950 0.7950
1462.919576 0.7950 0.7930 0.7910 0.7850 0.7790
1469.164697 0.7710 0.7670 0.7710 0.8028 0.8090
1475.409818 0.8090 0.8110 0.8120 0.8120 0.8140
1481.654939 0.8160 0.8180 0.8220 0.8220 0.8260
1487.900061 0.8320 0.8380 0.8440 0.8460 0.8520
1494.145182 0.8520 0.8520 0.8540 0.8540 0.8560
1500.390303 0.8560 0.8580 0.8600 0.8600 0.8600
1506.635424 0.8600 0.8600 0.8580 0.8580 0.8580
1512.880545 0.8580 0.8580 0.8580 0.8580 0.8560
1519.125667 0.8560 0.8560 0.8560 0.8560 0.8560
1525.370788 0.8560 0.8560 0.8560 0.8560 0.8560
1531.615909 0.8560 0.8580 0.8600 0.8600 0.8620
1537.861030 0.8620 0.8620 0.8600 0.8600 0.8600
1544.106152 0.8620 0.8620 0.8620 0.8620 0.8640
1550.351273 0.8640 0.8640 0.8640 0.8660 0.8660
1556.596394 0.8680 0.8680 0.8680 0.8680 0.8680
1562.841515 0.8680 0.8680 0.8680 0.8660 0.8660
1569.086636 0.8660 0.8660 0.8660 0.8660 0.8660
1575.331758 0.8660 0.8660 0.8660 0.8660 0.8660
1581.576879 0.8680 0.8680 0.8720 0.8720 0.8720
1587.822000 0.8720 0.8720 0.8720 0.8720 0.8720
1594.067121 0.8720 0.8720 0.8720 0.8720 0.8720
1600.312242 0.8700 0.8700 0.8700 0.8700 0.8680
1606.557364 0.8680 0.8680 0.8680 0.8680 0.8680
1612.802485 0.8640 0.8640 0.8620 0.8620 0.8600
1619.047606 0.8580 0.8540 0.8520 0.8480 0.8460
1625.292727 0.8440 0.8420 0.8420 0.8420 0.8460
1631.537848 0.8480 0.8520 0.8540 0.8540 0.8560
1637.782970 0.8560 0.8580 0.8600 0.8640 0.8640
1644.028091 0.8660 0.8660 0.8680 0.8700 0.8700
1650.273212 0.8720 0.8720 0.8740 0.8740 0.8740
1656.518333 0.8740 0.8740 0.8740 0.8740 0.8740
1662.763455 0.8750 0.8750 0.8750 0.8750 0.8750
1669.008576 0.8750 0.8750 0.8740 0.8720 0.8720
1675.253697 0.8720 0.8720 0.8700 0.8700 0.8700
1681.498818 0.8700 0.8700 0.8700 0.8700 0.8700
1687.743939 0.8700 0.8700 0.8700 0.8720 0.8720
1693.989061 0.8720 0.8720 0.8720 0.8720 0.8720
1700.234182 0.8720 0.8700 0.8720 0.8720 0.8720
1706.479303 0.8720 0.8700 0.8700 0.8680 0.8680
1712.724424 0.8680 0.8680 0.8680 0.8680 0.8720
1718.969545 0.8720 0.8720 0.8680 0.8660 0.8680
1725.214667 0.8680 0.8680 0.8680 0.8680 0.8700
1731.459788 0.8700 0.8680 0.8680 0.8680 0.8660
1737.704909 0.8660 0.8640 0.8640 0.8660 0.8680
1743.950030 0.8680 0.8680 0.8680 0.8680 0.8660
1750.195152 0.8660 0.8680 0.8720 0.8720 0.8700
1756.440273 0.8720 0.8720 0.8720 0.8740 0.8750
1762.685394 0.8750 0.8750 0.8750 0.8750 0.8740
1768.930515 0.8740 0.8750 0.8750 0.8770 0.8770
1775.175636 0.8770 0.8750 0.8750 0.8750 0.8750
1781.420758 0.8750 0.8750 0.8750 0.8770 0.8790
1787.665879 0.8790 0.8790 0.8750 0.8750 0.8750
1793.911000 0.8750 0.8750 0.8750 0.8750 0.8750
1800.156121 0.8750 0.8750 0.8810 0.8810 0.8790
1806.401242 0.8790 0.8790 0.8790 0.8810 0.8810
1812.646364 0.8810 0.8810 0.8810 0.8810 0.8830
1818.891485 0.8810 0.8790 0.8770 0.8790 0.8810
1825.136606 0.8810 0.8810 0.8810 0.8830 0.8830
1831.381727 0.8810 0.8810 0.8810 0.8810 0.8810
1837.626848 0.8830 0.8830 0.8810 0.8790 0.8790
1843.871970 0.8810 0.8830 0.8830 0.8830 0.8810
1850.117091 0.8810 0.8810 0.8810 0.8790 0.8790
1856.362212 0.8810 0.8810 0.8810 0.8810 0.8810
1862.607333 0.8810 0.8810 0.8790 0.8790 0.8790
1868.852455 0.8810 0.8810 0.8810 0.8810 0.8810
1875.097576 0.8810 0.8830 0.8830 0.8790 0.8790
1881.342697 0.8790 0.8790 0.8790 0.8810 0.8810
1887.587818 0.8810 0.8810 0.8830 0.8830 0.8830
1893.832939 0.8810 0.8810 0.8810 0.8810 0.8830
1900.078061 0.8810 0.8810 0.8810 0.8810 0.8790
1906.323182 0.8790 0.8810 0.8810 0.8830 0.8830
1912.568303 0.8830 0.8830 0.8830 0.8810 0.8810
1918.813424 0.8790 0.8750 0.8750 0.8750 0.8750
1925.058545 0.8750 0.8750 0.8750 0.8790 0.8790
1931.303667 0.8790 0.8790 0.8810 0.8810 0.8810
1937.548788 0.8810 0.8830 0.8830 0.8810 0.8810
1943.793909 0.8810 0.8790 0.8790 0.8830 0.8830
1950.039030 0.8810 0.8810 0.8830 0.8830 0.8830
1956.284152 0.8830 0.8830 0.8850 0.8850 0.8850
1962.529273 0.8850 0.8850 0.8850 0.8850 0.8870
1968.774394 0.8870 0.8870 0.8870 0.8870 0.8870
1975.019515 0.8870 0.8870 0.8870 0.8870 0.8870
1981.264636 0.8870 0.8850 0.8850 0.8850 0.8830
1987.509758 0.8830 0.8830 0.8830 0.8830 0.8830
1993.754879 0.8850 0.8850 0.8850 0.8850 0.8870
2000.000000 0.8890 0.8900 0.8910 0.8920 0.8930
2006.245121 0.8930 0.8930 0.8930 0.8930 0.8930
2012.490242 0.8930 0.8939 0.8949 0.8959 0.8969
2018.735364 0.8970 0.8970 0.8970 0.8970 0.8970
2024.980485 0.8970 0.8970 0.8970 0.8970 0.8970
2031.225606 0.8970 0.8970 0.8970 0.8970 0.8978
2037.470727 0.8988 0.8990 0.8990 0.8998 0.9008
2043.715848 0.9010 0.9010 0.9010 0.9010 0.9010
2049.960970 0.9010 0.9010 0.9010 0.9010 0.9010
2056.206091 0.9010 0.9010 0.9010 0.9010 0.9010
2062.451212 0.9010 0.9010 0.9010 0.9010 0.9010
2068.696333 0.9004 0.8994 0.8990 0.8990 0.8990
2074.941455 0.8990 0.8984 0.8974 0.8970 0.8970
2081.186576 0.8958 0.8939 0.8930 0.8930 0.8924
2087.431697 0.8915 0.8910 0.8910 0.8910 0.8910
2093.676818 0.8900 0.8880 0.8860 0.8840 0.8811
2099.921939 0.8771 0.8723 0.8669 0.8616 0.8567
2106.167061 0.8526 0.8497 0.8440 0.8351 0.8251
2112.412182 0.8137 0.8009 0.7860 0.7713 0.7569
2118.657303 0.7423 0.7274 0.7113 0.6929 0.6803
2124.902424 0.6783 0.6770 0.6770 0.6784 0.6823
2131.147545 0.6875 0.6949 0.6945 0.6771 0.6650
2137.392667 0.6650 0.6717 0.6950 0.7183 0.7416
2143.637788 0.7645 0.7864 0.8067 0.8220 0.8393
2149.882909 0.8629 0.8831 0.8920 0.9010 0.9099
2156.128030 0.9172 0.9182 0.9192 0.9202 0.9212
2162.373152 0.9222 0.9230 0.9230 0.9230 0.9230
2168.618273 0.9231 0.9241 0.9250 0.9250 0.9249
2174.863394 0.9239 0.9230 0.9230 0.9229 0.9219
2181.108515 0.9210 0.9210 0.9210 0.9210 0.9210
2187.353636 0.9220 0.9230 0.9240 0.9250 0.9250
2193.598758 0.9250 0.9250 0.9250 0.9260 0.9270
2199.843879 0.9270 0.9270 0.9270 0.9270 0.9270
2206.089000 0.9270 0.9270 0.9270 0.9261 0.9251
2212.334121 0.9250 0.9250 0.9250 0.9250 0.9250
2218.579242 0.9250 0.9241 0.9231 0.9230 0.9230
2224.824364 0.9230 0.9230 0.9230 0.9230 0.9205
2231.069485 0.9175 0.9154 0.9134 0.9106 0.9076
2237.314606 0.9054 0.9034 0.9022 0.9012 0.9018
2243.559727 0.9027 0.9037 0.9047 0.9050 0.9050
2249.804848 0.9057 0.9067 0.9099 0.9138 0.9164
2256.049970 0.9184 0.9204 0.9224 0.9237 0.9247
2262.295091 0.9250 0.9250 0.9250 0.9250 0.9250
2268.540212 0.9250 0.9250 0.9250 0.9256 0.9266
2274.785333 0.9276 0.9286 0.9290 0.9290 0.9296
2281.030455 0.9306 0.9310 0.9310 0.9310 0.9310
2287.275576 0.9310 0.9310 0.9310 0.9310 0.9310
2293.520697 0.9310 0.9310 0.9310 0.9310 0.9310
2299.765818 0.9315 0.9325 0.9330 0.9330 0.9330
2306.010939 0.9330 0.9330 0.9330 0.9330 0.9330
2312.256061 0.9330 0.9330 0.9330 0.9330 0.9334
2318.501182 0.9344 0.9354 0.9364 0.9375 0.9390
2324.746303 0.9407 0.9427 0.9440 0.9440 0.9443
2330.991424 0.9453 0.9463 0.9473 0.9480 0.9480
2337.236545 0.9480 0.9480 0.9480 0.9480 0.9482
2343.481667 0.9492 0.9505 0.9524 0.9542 0.9552
2349.726788 0.9560 0.9560 0.9560 0.9560 0.9560
2355.971909 0.9560 0.9560 0.9560 0.9558 0.9548
2362.217030 0.9538 0.9529 0.9519 0.9509 0.9500
2368.462152 0.9500 0.9499 0.9489 0.9480 0.9480
2374.707273 0.9479 0.9469 0.9460 0.9460 0.9459
2380.952394 0.9449 0.9439 0.9430 0.9419 0.9399
2387.197515 0.9380 0.9375 0.9370 0.9370 0.9370
2393.442636 0.9370 0.9370 0.9375 0.9380 0.9380
2399.687758 0.9380 0.9380 0.9380 0.9375 0.9370
2405.932879 0.9351 0.9331 0.9330 0.9330 0.9339
2412.178000 0.9349 0.9372 0.9397 0.9400 0.9400
2418.423121 0.9400 0.9400 0.9400 0.9400 0.9408
2424.668242 0.9418 0.9420 0.9420 0.9412 0.9402
2430.913364 0.9392 0.9382 0.9380 0.9380 0.9388
2437.158485 0.9398 0.9400 0.9400 0.9393 0.9383
2443.403606 0.9380 0.9380 0.9380 0.9380 0.9369
2449.648727 0.9355 0.9336 0.9316 0.9303 0.9293
2455.893848 0.9269 0.9240 0.9210 0.9180 0.9157
2462.138970 0.9137 0.9124 0.9114 0.9110 0.9110
2468.384091 0.9110 0.9110 0.9116 0.9126 0.9136
2474.629212 0.9146 0.9201 0.9292 0.9350 0.9385
2480.874333 0.9417 0.9447 0.9465 0.9475 0.9480
2487.119455 0.9480 0.9480 0.9480 0.9485 0.9495
2493.364576 0.9500 0.9500 0.9500 0.9500 0.9505
2499.609697 0.9514 0.9520 0.9520 0.9520 0.9520
2505.854818 0.9520 0.9520 0.9520 0.9520 0.9520
2512.099939 0.9520 0.9524 0.9534 0.9540 0.9540
2518.345061 0.9540 0.9540 0.9540 0.9540 0.9543
2524.590182 0.9553 0.9563 0.9573 0.9580 0.9580
2530.835303 0.9580 0.9580 0.9577 0.9567 0.9560
2537.080424 0.9560 0.9560 0.9560 0.9558 0.9548
2543.325545 0.9540 0.9540 0.9540 0.9540 0.9536
2549.570667 0.9516 0.9496 0.9476 0.9460 0.9460
2555.815788 0.9458 0.9448 0.9437 0.9417 0.9398
2562.060909 0.9383 0.9369 0.9359 0.9349 0.9339
2568.306030 0.9328 0.9308 0.9289 0.9279 0.9270
2574.551152 0.9270 0.9271 0.9281 0.9291 0.9311
2580.796273 0.9331 0.9356 0.9382 0.9421 0.9461
2587.041394 0.9490 0.9520 0.9540 0.9560 0.9580
2593.286515 0.9600 0.9610 0.9620 0.9639 0.9659
2599.531636 0.9679 0.9699 0.9700 0.9700 0.9700
2605.776758 0.9700 0.9700 0.9700 0.9700 0.9700
2612.021879 0.9700 0.9700 0.9700 0.9700 0.9700
2618.267000 0.9700 0.9700 0.9700 0.9700 0.9700
2624.512121 0.9700 0.9700 0.9700 0.9700 0.9700
2630.757242 0.9700 0.9700 0.9700 0.9700 0.9700
2637.002364 0.9700 0.9700 0.9693 0.9683 0.9680
2643.247485 0.9680 0.9680 0.9680 0.9687 0.9697
2649.492606 0.9700 0.9700 0.9700 0.9700 0.9700
2655.737727 0.9700 0.9707 0.9717 0.9727 0.9736
2661.982848 0.9740 0.9740 0.9740 0.9740 0.9740
2668.227970 0.9740 0.9746 0.9756 0.9760 0.9760
2674.473091 0.9760 0.9760 0.9760 0.9760 0.9754
2680.718212 0.9745 0.9740 0.9740 0.9740 0.9740
2686.963333 0.9740 0.9740 0.9740 0.9740 0.9740
2693.208455 0.9740 0.9735 0.9725 0.9720 0.9720
2699.453576 0.9720 0.9720 0.9720 0.9720 0.9724
2705.698697 0.9734 0.9744 0.9754 0.9760 0.9760
2711.943818 0.9756 0.9746 0.9740 0.9740 0.9736
2718.188939 0.9727 0.9720 0.9720 0.9717 0.9707
2724.434061 0.9700 0.9700 0.9700 0.9700 0.9700
2730.679182 0.9700 0.9700 0.9700 0.9700 0.9700
2736.924303 0.9700 0.9700 0.9702 0.9712 0.9720
2743.169424 0.9720 0.9720 0.9720 0.9722 0.9732
2749.414545 0.9740 0.9740 0.9738 0.9728 0.9720
2755.659667 0.9720 0.9722 0.9732 0.9740 0.9740
2761.904788 0.9739 0.9729 0.9720 0.9720 0.9720
2768.149909 0.9720 0.9721 0.9731 0.9740 0.9740
2774.395030 0.9740 0.9740 0.9740 0.9740 0.9740
2780.640152 0.9730 0.9720 0.9720 0.9720 0.9720
2786.885273 0.9720 0.9710 0.9700 0.9700 0.9700
2793.130394 0.9700 0.9700 0.9691 0.9681 0.9680
2799.375515 0.9680 0.9680 0.9680 0.9671 0.9661
2805.620636 0.9660 0.9660 0.9660 0.9660 0.9660
2811.865758 0.9660 0.9660 0.9660 0.9660 0.9660
2818.110879 0.9652 0.9642 0.9624 0.9604 0.9600
2824.356000 0.9600 0.9592 0.9582 0.9580 0.9580
2830.601121 0.9572 0.9562 0.9552 0.9542 0.9517
2836.846242 0.9488 0.9465 0.9445 0.9433 0.9423
2843.091364 0.9406 0.9386 0.9370 0.9355 0.9309
2849.336485 0.9250 0.9210 0.9180 0.9163 0.9153
2855.581606 0.9124 0.9084 0.9064 0.9054 0.9037
2861.826727 0.9018 0.9004 0.8994 0.8978 0.8958
2868.071848 0.8944 0.8934 0.8930 0.8930 0.8930
2874.316970 0.8930 0.8930 0.8930 0.8935 0.8945
2880.562091 0.8950 0.8950 0.8950 0.8950 0.8940
2886.807212 0.8920 0.8895 0.8866 0.8845 0.8835
2893.052333 0.8825 0.8815 0.8797 0.8767 0.8735
