##TITLE=1-BUTYNE, 3-CHLORO-
##JCAMP-DX=4.24
##DATA TYPE=INFRARED SPECTRUM
##CLASS=COBLENTZ III
##ORIGIN=DOW CHEMICAL COMPANY
##OWNER=COBLENTZ SOCIETY
Collection (C) 2018 copyright by the U.S. Secretary of Commerce
on behalf of the United States of America. All rights reserved.
##DATE=1962/06/05
##NAMES=3-chloro-1-butyne
##CAS REGISTRY NO=21020-24-6
##MOLFORM=C4 H5 Cl
##SOURCE REFERENCE=COBLENTZ NO. 10043
##$NIST SOURCE=COBLENTZ
##$NIST IMAGE=cob10043
##SPECTROMETER/DATA SYSTEM=DOW KBr FOREPRISM-GRATING
##INSTRUMENT PARAMETERS=BLAZED AT 3.5, 12.0, 20.0 MICRON, CHANGED AT 5.0, 7.5, 14.9 MICRON
##STATE=SOLUTION (10% IN CCl4 FOR 3800-1330 AND 10% IN CS2 FOR 1330-450 CM^-^1)
##PATH LENGTH=0.010, 0.010CM
$$SPECTRAL CONTAMINATION DUE TO CCl4 AROUND 1550 CM^-^1
$$SPECTRAL FEATURE AROUND 1715 CM^-^1 IS DUE TO AN UNKNOWN
##SAMPLING PROCEDURE=TRANSMISSION
##RESOLUTION=4
##DATA PROCESSING=DIGITIZED BY NIST FROM HARD COPY (FROM TWO SEGMENTS)
##XUNITS=1/CM
##YUNITS=TRANSMITTANCE
##XFACTOR=1.000000
##YFACTOR=1
##DELTAX=0.869567
##FIRSTX=438.261
##LASTX=3794.79
##FIRSTY=0.921
##MAXX=3794.79
##MINX=438.261
##MAXY=1.048
##MINY=0
##NPOINTS=3861
##XYDATA=(X++(Y..Y))
438.261000 0.9210 0.9220 0.9220 0.9220 0.9220
442.608835 0.9220 0.9220 0.9230 0.9230 0.9230
446.956670 0.9250 0.9250 0.9260 0.9310 0.9360
451.304505 0.9420 0.9520 0.9560 0.9590 0.9610
455.652340 0.9630 0.9640 0.9670 0.9700 0.9720
460.000175 0.9720 0.9740 0.9750 0.9750 0.9750
464.348009 0.9750 0.9760 0.9760 0.9760 0.9760
468.695844 0.9780 0.9790 0.9790 0.9800 0.9790
473.043679 0.9800 0.9800 0.9800 0.9800 0.9800
477.391514 0.9800 0.9800 0.9800 0.9800 0.9820
481.739349 0.9800 0.9800 0.9790 0.9800 0.9790
486.087184 0.9780 0.9780 0.9760 0.9760 0.9750
490.435019 0.9750 0.9740 0.9740 0.9740 0.9710
494.782854 0.9700 0.9670 0.9650 0.9640 0.9600
499.130689 0.9590 0.9560 0.9490 0.9410 0.9300
503.478524 0.9210 0.9110 0.9000 0.8890 0.8761
507.826358 0.8610 0.8500 0.8250 0.7611 0.6821
512.174193 0.6441 0.6021 0.5611 0.5192 0.4782
516.522028 0.4360 0.4360 0.4969 0.5549 0.6688
520.869863 0.6949 0.7119 0.7817 0.8338 0.8648
525.217698 0.8820 0.8960 0.9080 0.9210 0.9330
529.565533 0.9440 0.9530 0.9610 0.9670 0.9680
533.913368 0.9740 0.9790 0.9820 0.9860 0.9890
538.261203 0.9930 0.9950 1.0010 1.0040 1.0050
542.609038 1.0050 1.0060 1.0080 1.0080 1.0090
546.956873 1.0090 1.0090 1.0090 1.0090 1.0090
551.304708 1.0090 1.0090 1.0090 1.0090 1.0090
555.652542 1.0090 1.0090 1.0090 1.0090 1.0080
560.000377 1.0080 1.0080 1.0060 1.0040 1.0040
564.348212 1.0020 1.0020 1.0010 1.0010 1.0010
568.696047 1.0000 0.9980 0.9980 0.9970 0.9940
573.043882 0.9930 0.9910 0.9900 0.9890 0.9890
577.391717 0.9870 0.9860 0.9850 0.9800 0.9790
581.739552 0.9780 0.9760 0.9750 0.9740 0.9720
586.087387 0.9700 0.9640 0.9610 0.9590 0.9570
590.435222 0.9550 0.9530 0.9510 0.9480 0.9440
594.783057 0.9400 0.9370 0.9360 0.9330 0.9300
599.130891 0.9250 0.9190 0.9120 0.9060 0.8990
603.478726 0.8930 0.8870 0.8800 0.8720 0.8650
607.826561 0.8550 0.8460 0.8350 0.8250 0.8081
612.174396 0.7970 0.7830 0.7680 0.7490 0.7290
616.522231 0.7061 0.6781 0.6471 0.6131 0.5752
620.870066 0.5330 0.4850 0.4510 0.3791 0.3111
625.217901 0.2392 0.1712 0.1122 0.0931 0.0731
629.565736 0.0580 0.0340 0.0270 0.0200 0.0190
633.913571 0.0200 0.0250 0.0270 0.0340 0.0390
638.261406 0.0460 0.0510 0.0570 0.0630 0.0690
642.609241 0.0760 0.0810 0.0880 0.0920 0.0930
646.957075 0.0960 0.0960 0.0920 0.0870 0.0810
651.304910 0.0720 0.0580 0.0540 0.0381 0.0290
655.652745 0.0210 0.0130 0.0020 0.0000 0.0000
660.000580 0.0000 0.0000 0.0000 0.0000 0.0000
664.348415 0.0000 0.0020 0.0060 0.0100 0.0160
668.696250 0.0200 0.0310 0.0380 0.1077 0.1339
673.044085 0.1801 0.2250 0.2720 0.3170 0.3600
677.391920 0.4019 0.4439 0.4819 0.5179 0.5519
681.739755 0.5850 0.6140 0.6420 0.6690 0.6930
686.087590 0.7170 0.7370 0.7569 0.7759 0.7929
690.435425 0.8090 0.8240 0.8380 0.8500 0.8610
694.783259 0.8720 0.8810 0.8910 0.8990 0.9060
699.131094 0.9120 0.9180 0.9230 0.9300 0.9370
703.478929 0.9420 0.9460 0.9510 0.9560 0.9590
707.826764 0.9630 0.9650 0.9700 0.9720 0.9740
712.174599 0.9760 0.9790 0.9800 0.9850 0.9870
716.522434 0.9900 0.9910 0.9930 0.9950 0.9980
720.870269 0.9980 1.0000 1.0000 1.0010 1.0010
725.218104 1.0010 1.0020 1.0050 1.0060 1.0080
729.565939 1.0090 1.0100 1.0120 1.0130 1.0130
733.913774 1.0130 1.0160 1.0170 1.0190 1.0210
738.261608 1.0210 1.0250 1.0270 1.0280 1.0290
742.609443 1.0310 1.0310 1.0310 1.0310 1.0290
746.957278 1.0310 1.0290 1.0290 1.0280 1.0270
751.305113 1.0270 1.0250 1.0250 1.0250 1.0250
755.652948 1.0250 1.0270 1.0280 1.0280 1.0290
760.000783 1.0310 1.0340 1.0350 1.0350 1.0360
764.348618 1.0380 1.0390 1.0390 1.0390 1.0390
768.696453 1.0390 1.0390 1.0390 1.0390 1.0390
773.044288 1.0380 1.0380 1.0380 1.0360 1.0360
777.392123 1.0340 1.0340 1.0340 1.0320 1.0320
781.739958 1.0320 1.0320 1.0340 1.0340 1.0340
786.087792 1.0340 1.0350 1.0360 1.0360 1.0360
790.435627 1.0380 1.0380 1.0380 1.0380 1.0380
794.783462 1.0380 1.0360 1.0360 1.0350 1.0350
799.131297 1.0340 1.0320 1.0320 1.0310 1.0290
803.479132 1.0290 1.0270 1.0250 1.0230 1.0210
807.826967 1.0200 1.0200 1.0200 1.0200 1.0200
812.174802 1.0190 1.0190 1.0170 1.0160 1.0140
816.522637 1.0140 1.0130 1.0130 1.0120 1.0120
820.870472 1.0100 1.0090 1.0060 1.0050 1.0040
825.218307 1.0010 1.0010 1.0000 0.9970 0.9930
829.566141 0.9890 0.9820 0.9670 0.9670 0.9610
833.913976 0.9520 0.9410 0.9290 0.9150 0.8991
838.261811 0.8800 0.8590 0.8360 0.8100 0.7800
842.609646 0.7491 0.7121 0.6741 0.6312 0.5852
846.957481 0.5329 0.4769 0.4240 0.3410 0.2960
851.305316 0.2281 0.2020 0.2020 0.2349 0.2659
855.653151 0.2911 0.3861 0.5190 0.5640 0.5890
860.000986 0.6569 0.6919 0.7289 0.7529 0.7749
864.348821 0.7940 0.8120 0.8250 0.8390 0.8500
868.696656 0.8610 0.8690 0.8770 0.8850 0.8920
873.044491 0.9000 0.9070 0.9140 0.9170 0.9230
877.392325 0.9300 0.9360 0.9410 0.9520 0.9550
881.740160 0.9630 0.9670 0.9740 0.9760 0.9780
886.087995 0.9830 0.9870 0.9910 0.9930 0.9930
890.435830 0.9940 0.9940 0.9930 0.9930 0.9930
894.783665 0.9930 0.9930 0.9910 0.9890 0.9870
899.131500 0.9870 0.9890 0.9900 0.9910 0.9910
903.479335 0.9940 0.9980 1.0020 1.0050 1.0100
907.827170 1.0140 1.0170 1.0190 1.0210 1.0230
912.175005 1.0240 1.0240 1.0240 1.0240 1.0250
916.522840 1.0250 1.0250 1.0250 1.0270 1.0270
920.870674 1.0270 1.0280 1.0280 1.0290 1.0290
925.218509 1.0290 1.0310 1.0320 1.0320 1.0340
929.566344 1.0340 1.0350 1.0350 1.0350 1.0350
933.914179 1.0350 1.0340 1.0340 1.0350 1.0350
938.262014 1.0360 1.0360 1.0360 1.0350 1.0340
942.609849 1.0340 1.0320 1.0320 1.0310 1.0310
946.957684 1.0290 1.0290 1.0290 1.0280 1.0270
951.305519 1.0250 1.0230 1.0200 1.0190 1.0170
955.653354 1.0160 1.0140 1.0130 1.0120 1.0040
960.001189 1.0020 1.0000 0.9940 0.9890 0.9830
964.349024 0.9780 0.9720 0.9670 0.9600 0.9530
968.696858 0.9460 0.9380 0.9300 0.9220 0.9120
973.044693 0.9030 0.8910 0.8780 0.8660 0.8441
977.392528 0.8159 0.7800 0.7400 0.6960 0.6500
981.740363 0.6020 0.5551 0.5081 0.4651 0.4241
986.088198 0.3888 0.2660 0.2280 0.2280 0.2650
990.436033 0.2690 0.3079 0.3369 0.3928 0.4647
994.783868 0.5371 0.6060 0.6820 0.7230 0.7630
999.131703 0.7999 0.8349 0.8659 0.8929 0.9169
1003.479538 0.9330 0.9410 0.9490 0.9550 0.9600
1007.827373 0.9650 0.9700 0.9740 0.9780 0.9820
1012.175207 0.9860 0.9890 0.9890 0.9890 0.9900
1016.523042 0.9900 0.9890 0.9890 0.9890 0.9870
1020.870877 0.9870 0.9860 0.9860 0.9850 0.9850
1025.218712 0.9830 0.9820 0.9820 0.9800 0.9790
1029.566547 0.9760 0.9740 0.9710 0.9710 0.9720
1033.914382 0.9740 0.9740 0.9750 0.9760 0.9760
1038.262217 0.9780 0.9780 0.9780 0.9780 0.9780
1042.610052 0.9760 0.9750 0.9720 0.9700 0.9680
1046.957887 0.9650 0.9640 0.9600 0.9600 0.9530
1051.305722 0.9460 0.9370 0.9300 0.9250 0.9180
1055.653557 0.9100 0.9000 0.8880 0.8760 0.8590
1060.001391 0.8390 0.8160 0.7891 0.7571 0.7191
1064.349226 0.6759 0.6250 0.5680 0.5030 0.4550
1068.697061 0.4021 0.3930 0.3860 0.3411 0.3410
1073.044896 0.3890 0.3911 0.4681 0.5480 0.6210
1077.392731 0.6810 0.7220 0.7569 0.7630 0.7630
1081.740566 0.7600 0.7570 0.7380 0.7270 0.7080
1086.088401 0.6740 0.6401 0.5911 0.5332 0.4622
1090.436236 0.3829 0.2929 0.2280 0.1640 0.1640
1094.784071 0.2000 0.2529 0.3438 0.3779 0.4577
1099.131906 0.5752 0.6871 0.7531 0.8080 0.8530
1103.479740 0.8850 0.9100 0.9250 0.9400 0.9530
1107.827575 0.9640 0.9720 0.9800 0.9870 0.9910
1112.175410 0.9950 1.0020 1.0050 1.0060 1.0060
1116.523245 1.0090 1.0130 1.0160 1.0190 1.0230
1120.871080 1.0280 1.0290 1.0310 1.0310 1.0310
1125.218915 1.0320 1.0320 1.0320 1.0320 1.0340
1129.566750 1.0340 1.0340 1.0340 1.0340 1.0320
1133.914585 1.0310 1.0290 1.0270 1.0270 1.0250
1138.262420 1.0270 1.0280 1.0290 1.0320 1.0320
1142.610255 1.0340 1.0350 1.0350 1.0350 1.0350
1146.958090 1.0350 1.0350 1.0350 1.0360 1.0360
1151.305924 1.0360 1.0350 1.0350 1.0350 1.0340
1155.653759 1.0340 1.0340 1.0320 1.0320 1.0310
1160.001594 1.0290 1.0290 1.0290 1.0280 1.0280
1164.349429 1.0270 1.0250 1.0240 1.0230 1.0200
1168.697264 1.0200 1.0190 1.0160 1.0130 1.0090
1173.045099 1.0060 1.0040 1.0040 1.0040 1.0050
1177.392934 1.0060 1.0080 1.0080 1.0080 1.0080
1181.740769 1.0060 1.0060 1.0050 1.0020 1.0010
1186.088604 1.0010 1.0000 1.0000 0.9980 0.9970
1190.436439 0.9950 0.9910 0.9870 0.9850 0.9830
1194.784274 0.9800 0.9780 0.9710 0.9650 0.9630
1199.132108 0.9590 0.9520 0.9400 0.9310 0.9210
1203.479943 0.9170 0.9030 0.8930 0.8760 0.8570
1207.827778 0.8420 0.8230 0.8100 0.7761 0.7371
1212.175613 0.6959 0.6499 0.6020 0.5510 0.4920
1216.523448 0.4021 0.2992 0.1972 0.1152 0.0911
1220.871283 0.0660 0.0440 0.0420 0.0440 0.1339
1225.219118 0.2009 0.2769 0.3648 0.4438 0.5098
1229.566953 0.5782 0.6481 0.6920 0.7270 0.7570
1233.914788 0.7800 0.8010 0.8160 0.8290 0.8420
1238.262623 0.8510 0.8550 0.8620 0.8630 0.8630
1242.610457 0.8620 0.8620 0.8620 0.8610 0.8550
1246.958292 0.8530 0.8470 0.8420 0.8390 0.8390
1251.306127 0.8270 0.8160 0.8060 0.7970 0.7870
1255.653962 0.7790 0.7700 0.7600 0.7510 0.7400
1260.001797 0.7270 0.7140 0.6970 0.6850 0.6760
1264.349632 0.6690 0.6650 0.6620 0.6610 0.6590
1268.697467 0.6610 0.6650 0.6690 0.6740 0.6800
1273.045302 0.6880 0.6950 0.7030 0.7120 0.7210
1277.393137 0.7300 0.7380 0.7480 0.7550 0.7630
1281.740972 0.7680 0.7740 0.7780 0.7790 0.7800
1286.088807 0.7790 0.7790 0.7780 0.7760 0.7720
1290.436641 0.7670 0.7610 0.7560 0.7490 0.7400
1294.784476 0.7290 0.7150 0.6970 0.6771 0.6551
1299.132311 0.6319 0.6080 0.5860 0.5650 0.5460
1303.480146 0.5310 0.5210 0.5150 0.5070 0.5060
1307.827981 0.5070 0.5271 0.5600 0.5970 0.6400
1312.175816 0.6870 0.7070 0.7340 0.7599 0.7859
1316.523651 0.8060 0.8230 0.8380 0.8480 0.8570
1320.871486 0.8630 0.8680 0.8700 0.8720 0.8730
1325.219321 0.8730 0.8730 0.8740 0.8740 0.8760
1329.567156 0.8760 0.8770 0.8810 0.8820 0.8850
1333.914990 0.8870 0.8910 0.8920 0.8950 0.8990
1338.262825 0.9000 0.9020 0.9020 0.9040 0.9060
1342.610660 0.9070 0.9080 0.9100 0.9100 0.9080
1346.958495 0.9080 0.9070 0.9060 0.9020 0.8990
1351.306330 0.8950 0.8920 0.8880 0.8870 0.8850
1355.654165 0.8850 0.8820 0.8820 0.8810 0.8810
1360.002000 0.8810 0.8810 0.8810 0.8800 0.8780
1364.349835 0.8740 0.8700 0.8620 0.8530 0.8470
1368.697670 0.8360 0.8269 0.7670 0.7150 0.6610
1373.045505 0.6310 0.5801 0.5251 0.5001 0.5000
1377.393340 0.5481 0.5752 0.6682 0.7781 0.8540
1381.741174 0.8960 0.9180 0.9300 0.9340 0.9370
1386.089009 0.9420 0.9440 0.9440 0.9450 0.9450
1390.436844 0.9480 0.9490 0.9530 0.9550 0.9560
1394.784679 0.9560 0.9570 0.9590 0.9590 0.9600
1399.132514 0.9600 0.9600 0.9590 0.9570 0.9570
1403.480349 0.9560 0.9550 0.9530 0.9530 0.9520
1407.828184 0.9510 0.9510 0.9490 0.9480 0.9450
1412.176019 0.9450 0.9440 0.9420 0.9410 0.9400
1416.523854 0.9400 0.9400 0.9380 0.9370 0.9370
1420.871689 0.9360 0.9360 0.9340 0.9340 0.9330
1425.219523 0.9290 0.9230 0.9180 0.9110 0.9060
1429.567358 0.8990 0.8930 0.8800 0.8610 0.8420
1433.915193 0.8250 0.8000 0.7900 0.7680 0.7261
1438.263028 0.6539 0.6007 0.4239 0.3670 0.3670
1442.610863 0.4130 0.4250 0.4290 0.5228 0.6357
1446.958698 0.6360 0.6230 0.6230 0.6350 0.6530
1451.306533 0.6850 0.7259 0.7869 0.8718 0.8949
1455.654368 0.9040 0.9070 0.9100 0.9140 0.9190
1460.002203 0.9270 0.9330 0.9380 0.9410 0.9440
1464.350038 0.9460 0.9480 0.9480 0.9490 0.9490
1468.697873 0.9510 0.9510 0.9510 0.9490 0.9480
1473.045707 0.9450 0.9440 0.9410 0.9400 0.9400
1477.393542 0.9370 0.9370 0.9360 0.9340 0.9330
1481.741377 0.9310 0.9260 0.9250 0.9210 0.9150
1486.089212 0.9120 0.9100 0.9100 0.9080 0.9070
1490.437047 0.9040 0.9030 0.8960 0.8950 0.8920
1494.784882 0.8880 0.8840 0.8780 0.8730 0.8700
1499.132717 0.8680 0.8620 0.8570 0.8470 0.8390
1503.480552 0.8320 0.8270 0.8210 0.8190 0.8160
1507.828387 0.8160 0.8130 0.8100 0.8060 0.8020
1512.176222 0.7940 0.7910 0.7870 0.7830 0.7760
1516.524056 0.7710 0.7680 0.7670 0.7610 0.7560
1520.871891 0.7520 0.7480 0.7450 0.7380 0.7330
1525.219726 0.7290 0.7250 0.7210 0.7120 0.7080
1529.567561 0.7000 0.6870 0.6760 0.6680 0.6620
1533.915396 0.6550 0.6470 0.6350 0.6170 0.5940
1538.263231 0.5850 0.5790 0.5740 0.5710 0.5610
1542.611066 0.5590 0.5550 0.5530 0.5530 0.5530
1546.958901 0.5530 0.5550 0.5560 0.5600 0.5610
1551.306736 0.5720 0.5820 0.5860 0.5910 0.6140
1555.654571 0.6280 0.6350 0.6390 0.6420 0.6430
1560.002406 0.6480 0.6570 0.6720 0.6800 0.6850
1564.350240 0.6910 0.6960 0.7040 0.7120 0.7220
1568.698075 0.7250 0.7260 0.7300 0.7340 0.7400
1573.045910 0.7410 0.7450 0.7460 0.7480 0.7480
1577.393745 0.7510 0.7530 0.7560 0.7560 0.7600
1581.741580 0.7670 0.7700 0.7740 0.7760 0.7800
1586.089415 0.7850 0.7910 0.7980 0.8040 0.8100
1590.437250 0.8210 0.8310 0.8420 0.8500 0.8550
1594.785085 0.8660 0.8720 0.8780 0.8910 0.8970
1599.132920 0.9020 0.9110 0.9250 0.9340 0.9410
1603.480755 0.9460 0.9520 0.9560 0.9600 0.9670
1607.828589 0.9700 0.9750 0.9760 0.9800 0.9820
1612.176424 0.9900 0.9930 0.9950 0.9970 1.0010
1616.524259 1.0020 1.0020 1.0050 1.0080 1.0090
1620.872094 1.0100 1.0120 1.0120 1.0130 1.0140
1625.219929 1.0140 1.0160 1.0160 1.0160 1.0170
1629.567764 1.0190 1.0210 1.0240 1.0240 1.0250
1633.915599 1.0250 1.0270 1.0270 1.0270 1.0280
1638.263434 1.0290 1.0310 1.0340 1.0380 1.0390
1642.611269 1.0400 1.0400 1.0380 1.0360 1.0350
1646.959104 1.0340 1.0340 1.0320 1.0310 1.0290
1651.306939 1.0280 1.0270 1.0250 1.0240 1.0230
1655.654773 1.0210 1.0210 1.0200 1.0200 1.0190
1660.002608 1.0190 1.0190 1.0160 1.0140 1.0140
1664.350443 1.0140 1.0140 1.0140 1.0160 1.0160
1668.698278 1.0160 1.0140 1.0140 1.0140 1.0130
1673.046113 1.0130 1.0130 1.0130 1.0130 1.0130
1677.393948 1.0130 1.0130 1.0130 1.0120 1.0120
1681.741783 1.0120 1.0100 1.0100 1.0100 1.0100
1686.089618 1.0100 1.0090 1.0090 1.0080 1.0060
1690.437453 1.0060 1.0050 1.0020 1.0010 1.0010
1694.785288 1.0000 0.9970 0.9950 0.9940 0.9910
1699.133123 0.9900 0.9890 0.9860 0.9800 0.9780
1703.480957 0.9750 0.9720 0.9670 0.9610 0.9560
1707.828792 0.9480 0.9380 0.9260 0.9140 0.8970
1712.176627 0.8800 0.8580 0.8430 0.8390 0.8390
1716.524462 0.8420 0.8510 0.8550 0.8610 0.8700
1720.872297 0.8820 0.8970 0.9120 0.9260 0.9400
1725.220132 0.9510 0.9560 0.9610 0.9700 0.9740
1729.567967 0.9760 0.9790 0.9800 0.9820 0.9820
1733.915802 0.9820 0.9830 0.9850 0.9850 0.9830
1738.263637 0.9820 0.9800 0.9800 0.9820 0.9830
1742.611472 0.9850 0.9870 0.9890 0.9890 0.9900
1746.959306 0.9930 0.9940 0.9950 0.9950 0.9980
1751.307141 0.9980 1.0000 1.0010 1.0020 1.0020
1755.654976 1.0040 1.0050 1.0050 1.0060 1.0080
1760.002811 1.0080 1.0090 1.0090 1.0090 1.0090
1764.350646 1.0090 1.0090 1.0100 1.0130 1.0140
1768.698481 1.0160 1.0190 1.0210 1.0240 1.0240
1773.046316 1.0230 1.0210 1.0200 1.0170 1.0160
1777.394151 1.0140 1.0140 1.0140 1.0140 1.0140
1781.741986 1.0140 1.0140 1.0140 1.0140 1.0140
1786.089821 1.0140 1.0140 1.0160 1.0160 1.0170
1790.437656 1.0170 1.0140 1.0140 1.0140 1.0140
1794.785490 1.0140 1.0140 1.0140 1.0140 1.0140
1799.133325 1.0140 1.0140 1.0140 1.0140 1.0140
1803.481160 1.0140 1.0140 1.0140 1.0160 1.0160
1807.828995 1.0160 1.0140 1.0160 1.0160 1.0140
1812.176830 1.0140 1.0140 1.0140 1.0130 1.0140
1816.524665 1.0140 1.0140 1.0140 1.0140 1.0140
1820.872500 1.0140 1.0140 1.0140 1.0140 1.0140
1825.220335 1.0140 1.0140 1.0130 1.0120 1.0120
1829.568170 1.0120 1.0120 1.0130 1.0130 1.0130
1833.916005 1.0130 1.0130 1.0130 1.0130 1.0120
1838.263839 1.0120 1.0120 1.0140 1.0140 1.0130
1842.611674 1.0130 1.0130 1.0120 1.0130 1.0120
1846.959509 1.0100 1.0100 1.0100 1.0100 1.0100
1851.307344 1.0100 1.0100 1.0100 1.0100 1.0100
1855.655179 1.0120 1.0130 1.0140 1.0140 1.0160
1860.003014 1.0160 1.0160 1.0160 1.0160 1.0130
1864.350849 1.0130 1.0140 1.0140 1.0140 1.0160
1868.698684 1.0160 1.0130 1.0130 1.0130 1.0130
1873.046519 1.0130 1.0130 1.0130 1.0130 1.0130
1877.394354 1.0140 1.0140 1.0140 1.0140 1.0140
1881.742189 1.0140 1.0140 1.0140 1.0130 1.0120
1886.090023 1.0120 1.0120 1.0120 1.0120 1.0120
1890.437858 1.0120 1.0120 1.0120 1.0120 1.0120
1894.785693 1.0120 1.0130 1.0130 1.0140 1.0140
1899.133528 1.0140 1.0140 1.0140 1.0140 1.0130
1903.481363 1.0130 1.0130 1.0140 1.0140 1.0160
1907.829198 1.0170 1.0210 1.0230 1.0240 1.0250
1912.177033 1.0270 1.0270 1.0240 1.0210 1.0190
1916.524868 1.0190 1.0170 1.0190 1.0190 1.0170
1920.872703 1.0170 1.0160 1.0170 1.0170 1.0170
1925.220538 1.0160 1.0140 1.0140 1.0140 1.0160
1929.568372 1.0160 1.0170 1.0170 1.0170 1.0160
1933.916207 1.0160 1.0160 1.0160 1.0160 1.0160
1938.264042 1.0140 1.0140 1.0140 1.0140 1.0140
1942.611877 1.0140 1.0140 1.0160 1.0160 1.0160
1946.959712 1.0160 1.0170 1.0170 1.0170 1.0170
1951.307547 1.0160 1.0160 1.0160 1.0160 1.0160
1955.655382 1.0170 1.0210 1.0320 1.0350 1.0360
1960.003217 1.0250 1.0120 1.0100 1.0100 1.0100
1964.351052 1.0100 1.0100 1.0120 1.0100 1.0090
1968.698887 1.0100 1.0120 1.0100 1.0100 1.0090
1973.046722 1.0080 1.0060 1.0060 1.0080 1.0090
1977.394556 1.0080 1.0060 1.0050 1.0040 1.0050
1981.742391 1.0050 1.0050 1.0050 1.0050 1.0050
1986.090226 1.0020 1.0020 1.0021 1.0480 1.0479
1990.438061 1.0020 1.0010 1.0000 0.9950 0.9850
1994.785896 1.0210 1.0240 1.0240 1.0240 1.0240
1999.133731 1.0240 1.0240 1.0240 1.0240 1.0240
2003.481566 1.0240 1.0240 1.0240 1.0240 1.0240
2007.829401 1.0235 1.0230 1.0235 1.0240 1.0245
2012.177236 1.0250 1.0250 1.0250 1.0250 1.0250
2016.525071 1.0260 1.0270 1.0270 1.0270 1.0270
2020.872905 1.0270 1.0270 1.0270 1.0260 1.0250
2025.220740 1.0250 1.0250 1.0250 1.0250 1.0250
2029.568575 1.0250 1.0250 1.0250 1.0245 1.0240
2033.916410 1.0240 1.0240 1.0240 1.0240 1.0240
2038.264245 1.0240 1.0240 1.0240 1.0245 1.0250
2042.612080 1.0245 1.0240 1.0240 1.0240 1.0240
2046.959915 1.0240 1.0235 1.0230 1.0230 1.0230
2051.307750 1.0230 1.0230 1.0230 1.0229 1.0219
2055.655585 1.0210 1.0210 1.0211 1.0221 1.0230
2060.003420 1.0230 1.0230 1.0235 1.0240 1.0240
2064.351255 1.0240 1.0240 1.0240 1.0235 1.0230
2068.699089 1.0230 1.0230 1.0230 1.0229 1.0219
2073.046924 1.0210 1.0210 1.0210 1.0210 1.0210
2077.394759 1.0210 1.0210 1.0210 1.0210 1.0210
2081.742594 1.0210 1.0205 1.0200 1.0200 1.0200
2086.090429 1.0200 1.0200 1.0200 1.0200 1.0200
2090.438264 1.0200 1.0195 1.0190 1.0190 1.0189
2094.786099 1.0179 1.0170 1.0165 1.0159 1.0149
2099.133934 1.0139 1.0129 1.0118 1.0098 1.0078
2103.481769 1.0058 1.0038 1.0023 1.0009 1.0004
2107.829604 0.9998 0.9983 0.9963 0.9903 0.9845
2112.177439 0.9800 0.9746 0.9626 0.9505 0.9380
2116.525273 0.9257 0.9152 0.9060 0.9060 0.9075
2120.873108 0.9196 0.9315 0.9420 0.9519 0.9584
2125.220943 0.9652 0.9742 0.9829 0.9894 0.9956
2129.568778 1.0001 1.0043 1.0063 1.0081 1.0091
2133.916613 1.0101 1.0111 1.0121 1.0126 1.0131
2138.264448 1.0136 1.0140 1.0140 1.0142 1.0152
2142.612283 1.0160 1.0160 1.0161 1.0166 1.0170
2146.960118 1.0170 1.0172 1.0182 1.0190 1.0190
2151.307953 1.0191 1.0196 1.0200 1.0200 1.0200
2155.655788 1.0200 1.0200 1.0200 1.0200 1.0200
2160.003622 1.0201 1.0206 1.0210 1.0210 1.0212
2164.351457 1.0222 1.0230 1.0230 1.0230 1.0230
2168.699292 1.0230 1.0230 1.0228 1.0218 1.0210
2173.047127 1.0210 1.0209 1.0204 1.0200 1.0200
2177.394962 1.0200 1.0200 1.0200 1.0200 1.0200
2181.742797 1.0200 1.0200 1.0200 1.0199 1.0194
2186.090632 1.0191 1.0196 1.0200 1.0200 1.0200
