##TITLE=CYCLOPROPANEMETHANOL
##JCAMP-DX=4.24
##DATA TYPE=INFRARED SPECTRUM
##CLASS=COBLENTZ III
##ORIGIN=DOW CORNING CORP.
##OWNER=COBLENTZ SOCIETY
Collection (C) 2018 copyright by the U.S. Secretary of Commerce
on behalf of the United States of America. All rights reserved.
##DATE=1966/06/02
##NAMES=cyclopropylmethanol
##CAS REGISTRY NO=2516-33-8
##MOLFORM=C4 H8 O
##SOURCE REFERENCE=COBLENTZ NO. 4812
##$NIST SOURCE=COBLENTZ
##$NIST IMAGE=cob4812
##SPECTROMETER/DATA SYSTEM=PERKIN-ELMER 521 (GRATING)
##INSTRUMENT PARAMETERS=FILTERS AT 3150, 2500, 2000, 1150, 700, 410; GRATING CHANGES AT 2000, 630 CM^-^1
##STATE=SOLUTION (10% IN CCl4 FOR 3800-1300, 10% IN CS2 FOR 1300-620, 10% IN CCl4 FOR 620-250 CM^-^1) VERSUS SOLVENT
##PATH LENGTH=0.011, 0.011, AND 0.010 CM (CsBr CELL)
##SAMPLING PROCEDURE=TRANSMISSION
##RESOLUTION=4
##DATA PROCESSING=DIGITIZED BY NIST FROM HARD COPY (FROM TWO SEGMENTS)
##XUNITS=1/CM
##YUNITS=TRANSMITTANCE
##XFACTOR=1.000000
##YFACTOR=1
##DELTAX=0.983070
##FIRSTX=248.17
##LASTX=3791.16
##FIRSTY=0.524
##MAXX=3791.16
##MINX=248.17
##MAXY=0.89
##MINY=0
##NPOINTS=3605
##XYDATA=(X++(Y..Y))
248.170000 0.5240 0.5240 0.5250 0.5250 0.5260
253.085351 0.5260 0.5260 0.5260 0.5280 0.5290
258.000703 0.5330 0.5380 0.5420 0.5460 0.5460
262.916054 0.5480 0.5490 0.5500 0.5500 0.5500
267.831406 0.5520 0.5520 0.5540 0.5540 0.5540
272.746757 0.5560 0.5560 0.5570 0.5570 0.5580
277.662108 0.5580 0.5600 0.5600 0.5610 0.5610
282.577460 0.5620 0.5640 0.5640 0.5650 0.5660
287.492811 0.5660 0.5660 0.5680 0.5700 0.5730
292.408163 0.5800 0.5820 0.5860 0.5880 0.5900
297.323514 0.5930 0.5940 0.5980 0.6010 0.6050
302.238866 0.6090 0.6130 0.6140 0.6160 0.6170
307.154217 0.6200 0.6210 0.6240 0.6240 0.6250
312.069568 0.6270 0.6280 0.6280 0.6290 0.6290
316.984920 0.6310 0.6320 0.6320 0.6330 0.6330
321.900271 0.6350 0.6360 0.6360 0.6400 0.6400
326.815623 0.6400 0.6410 0.6410 0.6430 0.6430
331.730974 0.6430 0.6440 0.6440 0.6450 0.6450
336.646325 0.6450 0.6470 0.6470 0.6470 0.6480
341.561677 0.6490 0.6490 0.6510 0.6510 0.6510
346.477028 0.6490 0.6490 0.6480 0.6480 0.6480
351.392380 0.6480 0.6470 0.6450 0.6440 0.6430
356.307731 0.6410 0.6400 0.6390 0.6370 0.6370
361.223082 0.6360 0.6360 0.6360 0.6370 0.6400
366.138434 0.6430 0.6480 0.6510 0.6530 0.6570
371.053785 0.6600 0.6630 0.6640 0.6650 0.6680
375.969137 0.6710 0.6710 0.6720 0.6730 0.6750
380.884488 0.6750 0.6760 0.6790 0.6830 0.6850
385.799839 0.6880 0.6880 0.6890 0.6890 0.6910
390.715191 0.6910 0.6910 0.6910 0.6910 0.6910
395.630542 0.6890 0.6890 0.6890 0.6890 0.6890
400.545894 0.6880 0.6880 0.6880 0.6880 0.6870
405.461245 0.6850 0.6850 0.6850 0.6850 0.6840
410.376597 0.6840 0.6840 0.6830 0.6830 0.6830
415.291948 0.6810 0.6810 0.6810 0.6800 0.6800
420.207299 0.6800 0.6800 0.6800 0.6790 0.6790
425.122651 0.6770 0.6770 0.6760 0.6760 0.6750
430.038002 0.6750 0.6730 0.6720 0.6690 0.6680
434.953354 0.6650 0.6640 0.6640 0.6630 0.6630
439.868705 0.6610 0.6600 0.6590 0.6570 0.6570
444.784056 0.6560 0.6550 0.6530 0.6520 0.6510
449.699408 0.6490 0.6470 0.6450 0.6430 0.6410
454.614759 0.6400 0.6370 0.6360 0.6350 0.6320
459.530111 0.6310 0.6250 0.6180 0.6170 0.6160
464.445462 0.6120 0.6060 0.6040 0.6000 0.5970
469.360813 0.5920 0.5781 0.5700 0.5411 0.5370
474.276165 0.5280 0.5210 0.5130 0.5060 0.5000
479.191516 0.4910 0.4900 0.4910 0.4930 0.4970
484.106868 0.5010 0.5020 0.5100 0.5170 0.5220
489.022219 0.5290 0.5360 0.5440 0.5480 0.5500
493.937571 0.5580 0.5620 0.5650 0.5700 0.5720
498.852922 0.5770 0.5800 0.5840 0.5860 0.5900
503.768273 0.5920 0.5930 0.5940 0.5960 0.5970
508.683625 0.5970 0.5980 0.5980 0.5970 0.5970
513.598976 0.5960 0.5960 0.5940 0.5930 0.5920
518.514328 0.5900 0.5890 0.5880 0.5880 0.5860
523.429679 0.5860 0.5850 0.5840 0.5840 0.5820
528.345030 0.5810 0.5810 0.5800 0.5780 0.5780
533.260382 0.5780 0.5770 0.5760 0.5740 0.5730
538.175733 0.5730 0.5720 0.5720 0.5700 0.5690
543.091085 0.5680 0.5660 0.5660 0.5650 0.5650
548.006436 0.5640 0.5640 0.5610 0.5600 0.5570
552.921787 0.5560 0.5540 0.5520 0.5480 0.5450
557.837139 0.5440 0.5420 0.5400 0.5370 0.5340
562.752490 0.5340 0.5330 0.5330 0.5320 0.5320
567.667842 0.5320 0.5330 0.5340 0.5340 0.5360
572.583193 0.5360 0.5360 0.5360 0.5360 0.5340
577.498544 0.5340 0.5330 0.5320 0.5320 0.5300
582.413896 0.5300 0.5290 0.5290 0.5290 0.5280
587.329247 0.5280 0.5280 0.5260 0.5260 0.5250
592.244599 0.5250 0.5250 0.5240 0.5240 0.5240
597.159950 0.5220 0.5220 0.5210 0.5210 0.5210
602.075302 0.5200 0.5200 0.5200 0.5180 0.5180
606.990653 0.5180 0.5170 0.5170 0.5170 0.5170
611.906004 0.5170 0.5160 0.5160 0.5160 0.5160
616.821356 0.5160 0.5160 0.5160 0.5170 0.5170
621.736707 0.5170 0.5170 0.5180 0.5180 0.5180
626.652059 0.5180 0.5200 0.5200 0.5200 0.5210
631.567410 0.5220 0.5240 0.5250 0.5250 0.5250
636.482761 0.5260 0.5280 0.5280 0.5290 0.5300
641.398113 0.5320 0.5330 0.5330 0.5340 0.5360
646.313464 0.5370 0.5370 0.5380 0.5400 0.5410
651.228816 0.5420 0.5440 0.5450 0.5450 0.5480
656.144167 0.5490 0.5500 0.5500 0.5530 0.5560
661.059518 0.5570 0.5580 0.5580 0.5600 0.5610
665.974870 0.5610 0.5620 0.5620 0.5640 0.5640
670.890221 0.5640 0.5650 0.5650 0.5660 0.5700
675.805573 0.5740 0.5740 0.5770 0.5780 0.5780
680.720924 0.5810 0.5820 0.5820 0.5820 0.5840
685.636276 0.5850 0.5880 0.5880 0.5890 0.5890
690.551627 0.5900 0.5920 0.5920 0.5940 0.6000
695.466978 0.6010 0.6040 0.6060 0.6060 0.6080
700.382330 0.6100 0.6130 0.6140 0.6140 0.6160
705.297681 0.6170 0.6180 0.6210 0.6220 0.6220
710.213033 0.6240 0.6270 0.6280 0.6310 0.6310
715.128384 0.6320 0.6330 0.6330 0.6350 0.6350
720.043735 0.6370 0.6410 0.6470 0.6480 0.6490
724.959087 0.6490 0.6510 0.6520 0.6530 0.6560
729.874438 0.6590 0.6630 0.6640 0.6650 0.6670
734.789790 0.6680 0.6680 0.6690 0.6710 0.6720
739.705141 0.6730 0.6730 0.6750 0.6760 0.6770
744.620492 0.6770 0.6790 0.6790 0.6800 0.6800
749.535844 0.6800 0.6800 0.6790 0.6790 0.6790
754.451195 0.6770 0.6760 0.6750 0.6720 0.6690
759.366547 0.6670 0.6610 0.6520 0.6370 0.6130
764.281898 0.6040 0.5920 0.5800 0.5770 0.5651
769.197250 0.5650 0.6100 0.6200 0.6290 0.6450
774.112601 0.6649 0.6680 0.6790 0.6850 0.6870
779.027952 0.6890 0.6910 0.6920 0.6920 0.6910
783.943304 0.6870 0.6840 0.6770 0.6750 0.6601
788.858655 0.6530 0.6310 0.6050 0.5441 0.5221
793.774007 0.5021 0.4811 0.4611 0.4411 0.4410
798.689358 0.4830 0.5260 0.5600 0.5930 0.5940
803.604709 0.6130 0.6309 0.6479 0.6689 0.6720
808.520061 0.6750 0.6750 0.6750 0.6730 0.6710
813.435412 0.6650 0.6590 0.6520 0.6440 0.6370
818.350764 0.6280 0.6170 0.5281 0.4951 0.4351
823.266115 0.3991 0.3721 0.3391 0.3062 0.2722
828.181466 0.2720 0.3150 0.3660 0.3740 0.4409
833.096818 0.5408 0.5619 0.5819 0.6089 0.6409
838.012169 0.6680 0.6830 0.6950 0.7030 0.7070
842.927521 0.7080 0.7040 0.7000 0.6930 0.6880
847.842872 0.6840 0.6810 0.6830 0.6960 0.7070
852.758223 0.7309 0.7499 0.7590 0.7640 0.7789
857.673575 0.7800 0.7880 0.7910 0.7960 0.7980
862.588926 0.7980 0.7990 0.7990 0.7990 0.7990
867.504278 0.7990 0.7990 0.7990 0.7980 0.7980
872.419629 0.7980 0.7950 0.7950 0.7940 0.7920
877.334981 0.7900 0.7870 0.7820 0.7790 0.7740
882.250332 0.7660 0.7630 0.7550 0.7450 0.7360
887.165683 0.7280 0.7110 0.7050 0.6910 0.6511
892.081035 0.6011 0.5771 0.5321 0.5091 0.4871
896.996386 0.4870 0.5160 0.5360 0.5530 0.5690
901.911738 0.5860 0.6239 0.6399 0.6629 0.6829
906.827089 0.6840 0.6840 0.6810 0.6710 0.6510
911.742440 0.6450 0.6350 0.6211 0.6041 0.5443
916.657792 0.5170 0.4930 0.4750 0.4540 0.4331
921.573143 0.4111 0.4110 0.4429 0.4749 0.5048
926.488495 0.5280 0.5500 0.5880 0.6050 0.6519
931.403846 0.6789 0.7189 0.7190 0.7270 0.7310
936.319197 0.7320 0.7320 0.7310 0.7310 0.7270
941.234549 0.7240 0.7230 0.7200 0.7170 0.7090
946.149900 0.7040 0.6970 0.6930 0.6870 0.6680
951.065252 0.6351 0.6201 0.6021 0.5861 0.5691
955.980603 0.5370 0.5340 0.5360 0.5450 0.5530
960.895955 0.5899 0.5930 0.6209 0.6220 0.6240
965.811306 0.6240 0.6210 0.6160 0.6080 0.5900
970.726657 0.5740 0.5331 0.5141 0.5050 0.5010
975.642009 0.4930 0.4890 0.4810 0.4780 0.4660
980.557360 0.4590 0.4271 0.4220 0.4101 0.3891
985.472712 0.3710 0.3550 0.3390 0.3160 0.3000
990.388063 0.2631 0.2401 0.2071 0.2030 0.1871
995.303414 0.1710 0.1590 0.1470 0.1250 0.1130
1000.218766 0.0861 0.0700 0.0541 0.0480 0.0380
1005.134117 0.0320 0.0280 0.0260 0.0250 0.0250
1010.049469 0.0250 0.0250 0.0240 0.0240 0.0170
1014.964820 0.0130 0.0090 0.0050 0.0010 0.0000
1019.880171 0.0000 0.0000 0.0000 0.0000 0.0000
1024.795523 0.0000 0.0000 0.0000 0.0000 0.0000
1029.710874 0.0000 0.0000 0.0000 0.0000 0.0010
1034.626226 0.0020 0.0050 0.0120 0.0160 0.0210
1039.541577 0.0330 0.0410 0.0579 0.0650 0.0720
1044.456928 0.0880 0.1000 0.1120 0.1290 0.1400
1049.372280 0.1759 0.2109 0.2708 0.3397 0.3619
1054.287631 0.3910 0.4140 0.4470 0.4830 0.5040
1059.202983 0.5260 0.5370 0.5659 0.5959 0.6249
1064.118334 0.6330 0.6470 0.6610 0.6670 0.6810
1069.033686 0.6930 0.7030 0.7110 0.7210 0.7310
1073.949037 0.7400 0.7450 0.7510 0.7520 0.7540
1078.864388 0.7560 0.7560 0.7550 0.7550 0.7540
1083.779740 0.7540 0.7520 0.7480 0.7470 0.7450
1088.695091 0.7440 0.7410 0.7390 0.7360 0.7320
1093.610443 0.7170 0.6990 0.6840 0.6730 0.6650
1098.525794 0.6650 0.6889 0.6990 0.7199 0.7190
1103.441145 0.7240 0.7250 0.7270 0.7270 0.7250
1108.356497 0.7240 0.7190 0.7160 0.7090 0.6951
1113.271848 0.6760 0.6510 0.6450 0.6370 0.6250
1118.187200 0.6220 0.6220 0.6240 0.6320 0.6449
1123.102551 0.6470 0.6600 0.6750 0.6850 0.6880
1128.017902 0.6920 0.6920 0.6910 0.6890 0.6870
1132.933254 0.6850 0.6750 0.6720 0.6630 0.6510
1137.848605 0.6440 0.6350 0.6310 0.6141 0.6021
1142.763957 0.5920 0.5770 0.5660 0.5640 0.5580
1147.679308 0.5560 0.5540 0.5540 0.5560 0.5570
1152.594660 0.5580 0.5610 0.5660 0.5720 0.5730
1157.510011 0.5820 0.5920 0.5930 0.6010 0.6060
1162.425362 0.6120 0.6180 0.6290 0.6320 0.6390
1167.340714 0.6480 0.6600 0.6630 0.6769 0.6870
1172.256065 0.6930 0.6960 0.6970 0.6970 0.6960
1177.171417 0.6960 0.6950 0.6920 0.6890 0.6870
1182.086768 0.6830 0.6800 0.6790 0.6690 0.6630
1187.002119 0.6560 0.6510 0.6430 0.6360 0.6290
1191.917471 0.6250 0.6240 0.6250 0.6450 0.6520
1196.832822 0.6570 0.6690 0.6750 0.6790 0.6929
1201.748174 0.6950 0.6970 0.6970 0.6970 0.6950
1206.663525 0.6930 0.6910 0.6880 0.6850 0.6840
1211.578876 0.6810 0.6760 0.6720 0.6650 0.6610
1216.494228 0.6520 0.6450 0.6390 0.6330 0.6330
1221.409579 0.6280 0.6220 0.6180 0.6170 0.6160
1226.324931 0.6130 0.6100 0.6080 0.6050 0.6020
1231.240282 0.5970 0.5890 0.5800 0.5780 0.5740
1236.155633 0.5650 0.5610 0.5451 0.5410 0.5370
1241.070985 0.5330 0.5290 0.5170 0.5140 0.5120
1245.986336 0.5120 0.5120 0.5130 0.5140 0.5170
1250.901688 0.5220 0.5300 0.5440 0.5500 0.5560
1255.817039 0.5620 0.5760 0.5890 0.5960 0.6060
1260.732391 0.6220 0.6270 0.6290 0.6330 0.6430
1265.647742 0.6440 0.6450 0.6450 0.6450 0.6450
1270.563093 0.6450 0.6450 0.6450 0.6440 0.6440
1275.478445 0.6430 0.6410 0.6370 0.6350 0.6320
1280.393796 0.6280 0.6250 0.6220 0.6200 0.6200
1285.309148 0.6160 0.6120 0.6090 0.6060 0.6040
1290.224499 0.6000 0.5960 0.5920 0.5880 0.5840
1295.139850 0.5800 0.5760 0.5720 0.5680 0.5620
1300.055202 0.5580 0.5560 0.5480 0.5450 0.5440
1304.970553 0.5420 0.5420 0.5420 0.5440 0.5450
1309.885905 0.5450 0.5480 0.5490 0.5500 0.5520
1314.801256 0.5530 0.5560 0.5570 0.5600 0.5610
1319.716607 0.5650 0.5660 0.5690 0.5740 0.5780
1324.631959 0.5810 0.5840 0.5850 0.5850 0.5850
1329.547310 0.5850 0.5850 0.5840 0.5840 0.5820
1334.462662 0.5820 0.5820 0.5820 0.5820 0.5810
1339.378013 0.5810 0.5810 0.5800 0.5800 0.5780
1344.293365 0.5760 0.5760 0.5720 0.5640 0.5560
1349.208716 0.5410 0.5250 0.5100 0.4980 0.4950
1354.124067 0.4870 0.4780 0.4730 0.4700 0.4690
1359.039419 0.4690 0.4690 0.4690 0.4690 0.4690
1363.954770 0.4690 0.4690 0.4690 0.4670 0.4670
1368.870122 0.4670 0.4660 0.4650 0.4650 0.4620
1373.785473 0.4610 0.4580 0.4570 0.4550 0.4540
1378.700824 0.4530 0.4470 0.4460 0.4430 0.4410
1383.616176 0.4380 0.4340 0.4260 0.4180 0.4070
1388.531527 0.3990 0.3830 0.3670 0.3520 0.3380
1393.446879 0.3310 0.2981 0.2910 0.2820 0.2711
1398.362230 0.2620 0.2480 0.2390 0.2320 0.2290
1403.277581 0.2290 0.2310 0.2320 0.2360 0.2400
1408.192933 0.2440 0.2480 0.2580 0.2630 0.2750
1413.108284 0.2940 0.2990 0.3030 0.3070 0.3160
1418.023636 0.3220 0.3270 0.3280 0.3350 0.3390
1422.938987 0.3390 0.3390 0.3360 0.3340 0.3230
1427.854339 0.3110 0.2830 0.2520 0.2240 0.2240
1432.769690 0.2430 0.3078 0.3110 0.3478 0.3968
1437.685041 0.3990 0.4150 0.4380 0.4450 0.4590
1442.600393 0.4740 0.4790 0.4890 0.4910 0.4980
1447.515744 0.5010 0.5130 0.5170 0.5210 0.5220
1452.431096 0.5220 0.5240 0.5240 0.5240 0.5220
1457.346447 0.5210 0.5180 0.5170 0.5120 0.5060
1462.261798 0.5010 0.4970 0.4910 0.4870 0.4820
1467.177150 0.4790 0.4790 0.4790 0.4810 0.4830
1472.092501 0.4870 0.4930 0.4980 0.5060 0.5419
1477.007853 0.5570 0.5700 0.5970 0.6060 0.6320
1481.923204 0.6480 0.6650 0.6750 0.6800 0.6929
1486.838555 0.7010 0.7070 0.7080 0.7110 0.7170
1491.753907 0.7230 0.7280 0.7280 0.7350 0.7440
1496.669258 0.7480 0.7550 0.7560 0.7590 0.7600
1501.584610 0.7640 0.7680 0.7720 0.7720 0.7750
1506.499961 0.7760 0.7780 0.7820 0.7840 0.7870
1511.415312 0.7880 0.7920 0.7950 0.7950 0.7960
1516.330664 0.7990 0.8040 0.8070 0.8110 0.8120
1521.246015 0.8150 0.8220 0.8270 0.8310 0.8340
1526.161367 0.8350 0.8390 0.8400 0.8420 0.8430
1531.076718 0.8500 0.8540 0.8540 0.8550 0.8560
1535.992070 0.8580 0.8590 0.8620 0.8620 0.8630
1540.907421 0.8640 0.8640 0.8640 0.8640 0.8660
1545.822772 0.8660 0.8660 0.8660 0.8660 0.8660
1550.738124 0.8660 0.8660 0.8660 0.8640 0.8640
1555.653475 0.8630 0.8630 0.8620 0.8600 0.8600
1560.568827 0.8590 0.8590 0.8560 0.8560 0.8550
1565.484178 0.8550 0.8550 0.8540 0.8540 0.8540
1570.399529 0.8540 0.8520 0.8520 0.8520 0.8520
1575.314881 0.8510 0.8510 0.8510 0.8510 0.8500
1580.230232 0.8500 0.8470 0.8460 0.8430 0.8420
1585.145584 0.8390 0.8380 0.8350 0.8340 0.8320
1590.060935 0.8320 0.8310 0.8310 0.8300 0.8280
1594.976286 0.8280 0.8270 0.8260 0.8260 0.8240
1599.891638 0.8230 0.8220 0.8220 0.8200 0.8190
1604.806989 0.8190 0.8180 0.8160 0.8150 0.8140
1609.722341 0.8120 0.8100 0.8060 0.8030 0.8000
1614.637692 0.7990 0.7980 0.7980 0.7960 0.7950
1619.553044 0.7940 0.7940 0.7940 0.7920 0.7920
1624.468395 0.7910 0.7910 0.7900 0.7900 0.7900
1629.383746 0.7910 0.7920 0.7920 0.7920 0.7940
1634.299098 0.7940 0.7940 0.7950 0.7950 0.7950
1639.214449 0.7960 0.7960 0.7990 0.8000 0.8030
1644.129801 0.8040 0.8060 0.8070 0.8070 0.8080
1649.045152 0.8100 0.8110 0.8120 0.8140 0.8150
1653.960503 0.8150 0.8150 0.8160 0.8160 0.8180
1658.875855 0.8180 0.8190 0.8190 0.8190 0.8200
1663.791206 0.8200 0.8200 0.8220 0.8220 0.8220
1668.706558 0.8220 0.8230 0.8260 0.8270 0.8270
1673.621909 0.8280 0.8280 0.8300 0.8300 0.8300
1678.537260 0.8300 0.8310 0.8320 0.8320 0.8310
1683.452612 0.8310 0.8300 0.8280 0.8270 0.8270
1688.367963 0.8260 0.8260 0.8260 0.8260 0.8260
1693.283315 0.8260 0.8270 0.8280 0.8280 0.8300
1698.198666 0.8310 0.8320 0.8350 0.8380 0.8400
1703.114017 0.8400 0.8420 0.8420 0.8420 0.8430
1708.029369 0.8430 0.8440 0.8460 0.8460 0.8470
1712.944720 0.8480 0.8500 0.8520 0.8540 0.8540
1717.860072 0.8550 0.8560 0.8560 0.8560 0.8560
1722.775423 0.8560 0.8580 0.8580 0.8580 0.8590
1727.690775 0.8590 0.8590 0.8590 0.8590 0.8590
1732.606126 0.8590 0.8590 0.8590 0.8590 0.8590
1737.521477 0.8600 0.8600 0.8600 0.8600 0.8600
1742.436829 0.8600 0.8600 0.8600 0.8600 0.8600
1747.352180 0.8600 0.8590 0.8590 0.8590 0.8590
1752.267532 0.8590 0.8590 0.8590 0.8590 0.8590
1757.182883 0.8590 0.8580 0.8580 0.8560 0.8560
1762.098234 0.8560 0.8560 0.8580 0.8580 0.8580
1767.013586 0.8580 0.8580 0.8560 0.8560 0.8560
1771.928937 0.8550 0.8550 0.8550 0.8540 0.8520
1776.844289 0.8510 0.8500 0.8500 0.8480 0.8480
1781.759640 0.8470 0.8470 0.8470 0.8470 0.8470
1786.674991 0.8480 0.8500 0.8500 0.8500 0.8480
1791.590343 0.8500 0.8500 0.8500 0.8510 0.8510
1796.505694 0.8510 0.8520 0.8520 0.8520 0.8520
1801.421046 0.8540 0.8540 0.8540 0.8540 0.8540
1806.336397 0.8550 0.8550 0.8550 0.8540 0.8540
1811.251749 0.8520 0.8520 0.8520 0.8520 0.8520
1816.167100 0.8520 0.8520 0.8540 0.8540 0.8540
1821.082451 0.8540 0.8540 0.8540 0.8540 0.8540
1825.997803 0.8540 0.8540 0.8550 0.8550 0.8560
1830.913154 0.8580 0.8580 0.8590 0.8590 0.8600
1835.828506 0.8600 0.8590 0.8590 0.8580 0.8580
1840.743857 0.8580 0.8560 0.8560 0.8550 0.8540
1845.659208 0.8540 0.8540 0.8540 0.8540 0.8550
1850.574560 0.8550 0.8560 0.8580 0.8590 0.8590
1855.489911 0.8580 0.8580 0.8560 0.8560 0.8560
1860.405263 0.8560 0.8580 0.8580 0.8590 0.8590
1865.320614 0.8590 0.8590 0.8590 0.8600 0.8600
1870.235965 0.8600 0.8600 0.8600 0.8600 0.8600
1875.151317 0.8600 0.8600 0.8590 0.8590 0.8590
1880.066668 0.8590 0.8580 0.8580 0.8580 0.8580
1884.982020 0.8580 0.8590 0.8600 0.8600 0.8620
1889.897371 0.8620 0.8620 0.8620 0.8600 0.8590
1894.812722 0.8580 0.8560 0.8550 0.8540 0.8540
1899.728074 0.8520 0.8520 0.8510 0.8480 0.8460
1904.643425 0.8430 0.8420 0.8400 0.8400 0.8390
1909.558777 0.8380 0.8360 0.8350 0.8320 0.8320
1914.474128 0.8310 0.8310 0.8300 0.8300 0.8280
1919.389480 0.8280 0.8280 0.8280 0.8280 0.8300
1924.304831 0.8310 0.8310 0.8320 0.8320 0.8340
1929.220182 0.8340 0.8350 0.8350 0.8360 0.8360
1934.135534 0.8380 0.8390 0.8400 0.8420 0.8430
1939.050885 0.8440 0.8470 0.8480 0.8510 0.8520
1943.966237 0.8540 0.8540 0.8550 0.8550 0.8550
1948.881588 0.8560 0.8560 0.8580 0.8580 0.8580
1953.796939 0.8580 0.8580 0.8580 0.8580 0.8590
1958.712291 0.8590 0.8590 0.8590 0.8590 0.8600
1963.627642 0.8600 0.8600 0.8600 0.8620 0.8620
1968.542994 0.8620 0.8630 0.8630 0.8630 0.8630
1973.458345 0.8640 0.8640 0.8640 0.8660 0.8660
1978.373696 0.8660 0.8660 0.8660 0.8660 0.8660
1983.289048 0.8660 0.8660 0.8640 0.8630 0.8630
1988.204399 0.8630 0.8620 0.8620 0.8620 0.8600
1993.119751 0.8600 0.8600 0.8590 0.8590 0.8590
1998.035102 0.8600 0.8620 0.8630 0.8630 0.8630
2002.950454 0.8625 0.8620 0.8625 0.8630 0.8635
2007.865805 0.8640 0.8640 0.8640 0.8640 0.8640
2012.781156 0.8640 0.8640 0.8640 0.8640 0.8635
2017.696508 0.8630 0.8630 0.8630 0.8625 0.8620
2022.611859 0.8610 0.8600 0.8600 0.8600 0.8595
2027.527211 0.8590 0.8585 0.8580 0.8580 0.8580
2032.442562 0.8571 0.8561 0.8555 0.8550 0.8545
2037.357913 0.8540 0.8526 0.8511 0.8510 0.8510
2042.273265 0.8491 0.8471 0.8438 0.8403 0.8395
2047.188616 0.8390 0.8376 0.8361 0.8342 0.8322
2052.103968 0.8311 0.8301 0.8291 0.8281 0.8262
2057.019319 0.8242 0.8231 0.8221 0.8211 0.8201
2061.934670 0.8209 0.8219 0.8224 0.8229 0.8243
2066.850022 0.8258 0.8278 0.8298 0.8304 0.8309
2071.765373 0.8332 0.8357 0.8394 0.8434 0.8453
2076.680725 0.8468 0.8483 0.8498 0.8504 0.8509
2081.596076 0.8514 0.8519 0.8529 0.8539 0.8544
2086.511428 0.8549 0.8550 0.8550 0.8554 0.8559
2091.426779 0.8560 0.8560 0.8560 0.8560 0.8568
2096.342130 0.8578 0.8588 0.8598 0.8613 0.8627
2101.257482 0.8651 0.8676 0.8705 0.8735 0.8744
2106.172833 0.8749 0.8762 0.8777 0.8784 0.8789
2111.088185 0.8790 0.8790 0.8798 0.8808 0.8814
2116.003536 0.8819 0.8820 0.8820 0.8820 0.8820
2120.918887 0.8824 0.8829 0.8838 0.8848 0.8850
2125.834239 0.8850 0.8850 0.8850 0.8854 0.8859
2130.749590 0.8860 0.8860 0.8860 0.8860 0.8860
2135.664942 0.8860 0.8856 0.8851 0.8850 0.8850
2140.580293 0.8850 0.8850 0.8842 0.8832 0.8830
2145.495644 0.8830 0.8830 0.8830 0.8826 0.8821
2150.410996 0.8820 0.8820 0.8820 0.8820 0.8820
2155.326347 0.8820 0.8820 0.8820 0.8820 0.8820
2160.241699 0.8820 0.8820 0.8824 0.8829 0.8830
2165.157050 0.8830 0.8830 0.8830 0.8830 0.8830
2170.072401 0.8830 0.8830 0.8830 0.8830 0.8830
2174.987753 0.8830 0.8830 0.8830 0.8826 0.8821
2179.903104 0.8820 0.8820 0.8820 0.8820 0.8817
2184.818456 0.8812 0.8810 0.8810 0.8810 0.8810
2189.733807 0.8810 0.8810 0.8803 0.8793 0.8790
2194.649159 0.8790 0.8790 0.8790 0.8790 0.8790
2199.564510 0.8790 0.8790 0.8790 0.8790 0.8790
2204.479861 0.8790 0.8790 0.8790 0.8790 0.8790
2209.395213 0.8790 0.8790 0.8790 0.8790 0.8790
2214.310564 0.8790 0.8790 0.8790 0.8790 0.8790
2219.225916 0.8790 0.8790 0.8790 0.8790 0.8790
2224.141267 0.8790 0.8790 0.8790 0.8790 0.8790
2229.056618 0.8790 0.8790 0.8790 0.8790 0.8787
