##TITLE=1,1,3-TRICHLOROPROPENE
##JCAMP-DX=4.24
##DATA TYPE=INFRARED SPECTRUM
##CLASS=COBLENTZ III
##ORIGIN=WYANDOTTE CHEMICALS CORP.
##OWNER=Copyright (C) 1987 by the Coblentz Society
Collection (C) 2018 copyright by the U.S. Secretary of Commerce
on behalf of the United States of America. All rights reserved.
##DATE=1963/04/30
##NAMES=1,1,3-trichloro-1-propene
##CAS REGISTRY NO=2567-14-8
##MOLFORM=C3 H3 Cl3
##SOURCE REFERENCE=COBLENTZ NO. 5960
##$NIST SOURCE=COBLENTZ
##$NIST IMAGE=cob5960
##SPECTROMETER/DATA SYSTEM=BAIRD (GRATING)
##INSTRUMENT PARAMETERS=NaCl PRISM
##STATE=LIQUID (NEAT)
##PATH LENGTH=0.003 CM
##RESOLUTION=2
##XUNITS=1/CM
##YUNITS=TRANSMITTANCE
##XFACTOR=1.0
##YFACTOR=1
##FIRSTX=626
##LASTX=4000
##FIRSTY=0.6924
##MAXX=4000
##MINX=626
##MAXY=0.9804
##MINY=0.0531
##NPOINTS=3375
##XYDATA=(X++(Y..Y))
626.000000 0.6924 0.6946 0.6967 0.6987 0.7034
631.000000 0.7075 0.7095 0.7079 0.7052 0.7042
636.000000 0.7052 0.7081 0.7119 0.7123 0.7086
641.000000 0.7061 0.7052 0.7025 0.6984 0.6930
646.000000 0.6897 0.6881 0.6882 0.6879 0.6852
651.000000 0.6798 0.6714 0.6635 0.6623 0.6549
656.000000 0.6365 0.6075 0.5827 0.5653 0.5592
661.000000 0.5638 0.5675 0.5720 0.5760 0.5651
666.000000 0.5575 0.5495 0.5407 0.5304 0.5183
671.000000 0.5022 0.4843 0.4606 0.4441 0.4298
676.000000 0.4179 0.4019 0.3838 0.3732 0.3625
681.000000 0.3529 0.3443 0.3321 0.3093 0.2996
686.000000 0.2977 0.2959 0.2851 0.2756 0.2741
691.000000 0.2743 0.2675 0.2648 0.2671 0.2717
696.000000 0.2766 0.2817 0.2871 0.2926 0.2981
701.000000 0.3045 0.3120 0.3219 0.3321 0.3393
706.000000 0.3465 0.3541 0.3628 0.3714 0.3810
711.000000 0.3929 0.4048 0.4147 0.4243 0.4337
716.000000 0.4448 0.4562 0.4678 0.4812 0.4940
721.000000 0.5047 0.5140 0.5149 0.5161 0.5258
726.000000 0.5364 0.5446 0.5523 0.5608 0.5725
731.000000 0.5813 0.5888 0.5946 0.5979 0.6007
736.000000 0.6038 0.6086 0.6135 0.6202 0.6283
741.000000 0.6377 0.6493 0.6615 0.6760 0.6901
746.000000 0.7032 0.7138 0.7242 0.7337 0.7431
751.000000 0.7522 0.7613 0.7699 0.7783 0.7868
756.000000 0.7943 0.8001 0.8059 0.8116 0.8160
761.000000 0.8197 0.8221 0.8230 0.8240 0.8245
766.000000 0.8251 0.8287 0.8325 0.8351 0.8354
771.000000 0.8304 0.8263 0.8217 0.8158 0.8097
776.000000 0.8025 0.7953 0.7881 0.7787 0.7691
781.000000 0.7595 0.7499 0.7397 0.7296 0.7194
786.000000 0.7076 0.6953 0.6833 0.6720 0.6609
791.000000 0.6519 0.6436 0.6380 0.6339 0.6308
796.000000 0.6280 0.6242 0.6162 0.6018 0.5864
801.000000 0.5703 0.5513 0.5358 0.5230 0.5116
806.000000 0.4920 0.4700 0.4482 0.4264 0.4046
811.000000 0.3829 0.3613 0.3397 0.3182 0.2948
816.000000 0.2776 0.2538 0.2339 0.2170 0.2022
821.000000 0.1863 0.1685 0.1562 0.1449 0.1336
826.000000 0.1216 0.1053 0.0991 0.0943 0.0900
831.000000 0.0874 0.0859 0.0859 0.0868 0.0835
836.000000 0.0895 0.0916 0.0942 0.0972 0.1011
841.000000 0.1064 0.1117 0.1170 0.1226 0.1273
846.000000 0.1314 0.1337 0.1267 0.1202 0.1132
851.000000 0.1061 0.0985 0.0907 0.0841 0.0780
856.000000 0.0724 0.0676 0.0636 0.0606 0.0581
861.000000 0.0562 0.0544 0.0538 0.0534 0.0531
866.000000 0.0531 0.0543 0.0550 0.0558 0.0570
871.000000 0.0583 0.0596 0.0617 0.0640 0.0670
876.000000 0.0712 0.0763 0.0886 0.1033 0.1191
881.000000 0.1348 0.1506 0.1662 0.1819 0.1975
886.000000 0.2131 0.2286 0.2486 0.2731 0.2975
891.000000 0.3151 0.3285 0.3411 0.3537 0.3669
896.000000 0.3811 0.3957 0.4117 0.4272 0.4389
901.000000 0.4507 0.4605 0.4693 0.4785 0.4890
906.000000 0.4991 0.5066 0.5129 0.5172 0.5213
911.000000 0.5239 0.5263 0.5277 0.5291 0.5298
916.000000 0.5302 0.5333 0.5285 0.5266 0.5243
921.000000 0.5215 0.5183 0.5142 0.5095 0.4984
926.000000 0.4849 0.4620 0.4336 0.4052 0.3769
931.000000 0.3486 0.3205 0.2923 0.2642 0.2363
936.000000 0.2083 0.1804 0.1577 0.1356 0.1113
941.000000 0.0928 0.0802 0.0715 0.0674 0.0659
946.000000 0.0649 0.0668 0.0684 0.0720 0.0781
951.000000 0.0900 0.1326 0.1670 0.2013 0.2355
956.000000 0.2698 0.3038 0.3379 0.3718 0.4057
961.000000 0.4386 0.4650 0.4887 0.5283 0.5656
966.000000 0.5851 0.6054 0.6301 0.6465 0.6611
971.000000 0.6713 0.6814 0.6909 0.6996 0.7083
976.000000 0.7164 0.7227 0.7290 0.7352 0.7416
981.000000 0.7478 0.7541 0.7607 0.7674 0.7740
986.000000 0.7806 0.7870 0.7936 0.8001 0.8058
991.000000 0.8105 0.8152 0.8187 0.8214 0.8239
996.000000 0.8262 0.8285 0.8308 0.8329 0.8342
1001.000000 0.8352 0.8362 0.8373 0.8383 0.8393
1006.000000 0.8399 0.8405 0.8411 0.8417 0.8425
1011.000000 0.8433 0.8442 0.8450 0.8448 0.8446
1016.000000 0.8485 0.8444 0.8448 0.8453 0.8461
1021.000000 0.8468 0.8466 0.8438 0.8409 0.8403
1026.000000 0.8404 0.8406 0.8410 0.8409 0.8375
1031.000000 0.8333 0.8303 0.8284 0.8265 0.8250
1036.000000 0.8236 0.8222 0.8205 0.8186 0.8166
1041.000000 0.8146 0.8117 0.8085 0.8053 0.8021
1046.000000 0.7986 0.7932 0.7878 0.7824 0.7768
1051.000000 0.7697 0.7627 0.7556 0.7482 0.7388
1056.000000 0.7293 0.7199 0.7073 0.6937 0.6808
1061.000000 0.6687 0.6566 0.6392 0.6158 0.5793
1066.000000 0.5509 0.5227 0.4944 0.4662 0.4380
1071.000000 0.4100 0.3819 0.3540 0.3260 0.2981
1076.000000 0.2865 0.3001 0.3320 0.3639 0.3957
1081.000000 0.4274 0.4591 0.4907 0.5223 0.5538
1086.000000 0.5812 0.6606 0.6758 0.6908 0.7054
1091.000000 0.7200 0.7327 0.7449 0.7570 0.7692
1096.000000 0.7810 0.7924 0.8038 0.8150 0.8242
1101.000000 0.8335 0.8423 0.8477 0.8524 0.8570
1106.000000 0.8616 0.8643 0.8657 0.8671 0.8683
1111.000000 0.8686 0.8687 0.8689 0.8690 0.8691
1116.000000 0.8688 0.8686 0.8684 0.8683 0.8681
1121.000000 0.8681 0.8695 0.8710 0.8725 0.8747
1126.000000 0.8769 0.8775 0.8767 0.8758 0.8739
1131.000000 0.8731 0.8741 0.8756 0.8771 0.8782
1136.000000 0.8793 0.8763 0.8799 0.8797 0.8785
1141.000000 0.8763 0.8736 0.8708 0.8677 0.8645
1146.000000 0.8602 0.8556 0.8511 0.8465 0.8413
1151.000000 0.8359 0.8306 0.8254 0.8201 0.8141
1156.000000 0.8078 0.8000 0.7900 0.7785 0.7667
1161.000000 0.7545 0.7423 0.7289 0.7145 0.7002
1166.000000 0.6566 0.6279 0.5971 0.5520 0.5064
1171.000000 0.4607 0.4152 0.3698 0.3117 0.2637
1176.000000 0.2455 0.2299 0.2177 0.2110 0.2074
1181.000000 0.2047 0.2076 0.2148 0.2380 0.2650
1186.000000 0.2921 0.3191 0.3460 0.3729 0.3998
1191.000000 0.4266 0.4533 0.4800 0.5068 0.5323
1196.000000 0.5490 0.5615 0.5736 0.5894 0.6061
1201.000000 0.6311 0.6587 0.6901 0.7135 0.7266
1206.000000 0.7348 0.7429 0.7490 0.7538 0.7587
1211.000000 0.7623 0.7644 0.7664 0.7684 0.7689
1216.000000 0.7681 0.7675 0.7663 0.7650 0.7625
1221.000000 0.7597 0.7560 0.7519 0.7476 0.7431
1226.000000 0.7376 0.7320 0.7259 0.7196 0.7125
1231.000000 0.7023 0.6910 0.6783 0.6617 0.6303
1236.000000 0.6170 0.6038 0.5890 0.5610 0.4999
1241.000000 0.4677 0.4311 0.3947 0.3582 0.3218
1246.000000 0.2855 0.2492 0.2130 0.1768 0.1408
1251.000000 0.1021 0.0835 0.0802 0.0803 0.1093
1256.000000 0.1523 0.1951 0.2379 0.2807 0.3233
1261.000000 0.3659 0.4084 0.4509 0.4933 0.5356
1266.000000 0.5773 0.6049 0.6268 0.6574 0.6726
1271.000000 0.6810 0.6843 0.6863 0.6847 0.6835
1276.000000 0.6809 0.6745 0.6670 0.6591 0.6435
1281.000000 0.6298 0.6190 0.6065 0.5877 0.5549
1286.000000 0.5218 0.4887 0.4558 0.4332 0.4247
1291.000000 0.4189 0.4159 0.4144 0.4145 0.4151
1296.000000 0.4135 0.4198 0.4267 0.4376 0.4486
1301.000000 0.4596 0.4705 0.4814 0.4923 0.5033
1306.000000 0.5142 0.5251 0.5417 0.5698 0.6136
1311.000000 0.6449 0.6756 0.7080 0.7320 0.7402
1316.000000 0.7484 0.7562 0.7638 0.7715 0.7790
1321.000000 0.7869 0.7951 0.8034 0.8115 0.8184
1326.000000 0.8251 0.8317 0.8375 0.8414 0.8450
1331.000000 0.8487 0.8523 0.8553 0.8581 0.8609
1336.000000 0.8637 0.8673 0.8710 0.8746 0.8781
1341.000000 0.8816 0.8844 0.8866 0.8889 0.8910
1346.000000 0.8932 0.8954 0.8960 0.8966 0.8973
1351.000000 0.8978 0.8976 0.8971 0.8966 0.8962
1356.000000 0.8957 0.8954 0.8952 0.8951 0.8952
1361.000000 0.8955 0.8956 0.8959 0.8962 0.8964
1366.000000 0.8967 0.8970 0.8973 0.8976 0.8980
1371.000000 0.8990 0.9000 0.9011 0.9021 0.9032
1376.000000 0.9038 0.9043 0.9048 0.9053 0.9057
1381.000000 0.9062 0.9067 0.9069 0.9068 0.9067
1386.000000 0.9074 0.9064 0.9064 0.9062 0.9061
1391.000000 0.9060 0.9058 0.9056 0.9053 0.9049
1396.000000 0.9046 0.9042 0.9039 0.9035 0.9032
1401.000000 0.9028 0.9022 0.9015 0.9008 0.9001
1406.000000 0.8994 0.8984 0.8966 0.8948 0.8930
1411.000000 0.8911 0.8891 0.8867 0.8843 0.8820
1416.000000 0.8797 0.8773 0.8749 0.8726 0.8702
1421.000000 0.8685 0.8680 0.8677 0.8675 0.8669
1426.000000 0.8660 0.8631 0.8581 0.8521 0.8457
1431.000000 0.8397 0.8338 0.8276 0.8198 0.8115
1436.000000 0.8015 0.7917 0.7846 0.7785 0.7725
1441.000000 0.7645 0.7304 0.6900 0.6495 0.6091
1446.000000 0.5688 0.5286 0.4884 0.4482 0.4081
1451.000000 0.3681 0.3342 0.3286 0.3439 0.3745
1456.000000 0.4052 0.4357 0.4662 0.4966 0.5270
1461.000000 0.5574 0.5878 0.6181 0.6483 0.6785
1466.000000 0.6999 0.7139 0.7269 0.7367 0.7492
1471.000000 0.7685 0.7846 0.7953 0.8010 0.8057
1476.000000 0.8104 0.8144 0.8180 0.8216 0.8252
1481.000000 0.8289 0.8324 0.8361 0.8397 0.8432
1486.000000 0.8466 0.8495 0.8522 0.8550 0.8578
1491.000000 0.8606 0.8633 0.8658 0.8680 0.8701
1496.000000 0.8723 0.8744 0.8766 0.8788 0.8808
1501.000000 0.8827 0.8846 0.8865 0.8885 0.8903
1506.000000 0.8923 0.8935 0.8943 0.8951 0.8959
1511.000000 0.9007 0.8973 0.8972 0.8968 0.8964
1516.000000 0.8962 0.8958 0.8956 0.8953 0.8951
1521.000000 0.8948 0.8946 0.8943 0.8941 0.8938
1526.000000 0.8935 0.8932 0.8930 0.8927 0.8923
1531.000000 0.8921 0.8918 0.8915 0.8912 0.8911
1536.000000 0.8917 0.8928 0.8939 0.8951 0.8969
1541.000000 0.8990 0.9005 0.9007 0.9006 0.9000
1546.000000 0.8992 0.8983 0.8973 0.8963 0.8944
1551.000000 0.8920 0.8897 0.8872 0.8848 0.8827
1556.000000 0.8815 0.8805 0.8802 0.8804 0.8805
1561.000000 0.8803 0.8798 0.8793 0.8786 0.8776
1566.000000 0.8765 0.8753 0.8741 0.8728 0.8715
1571.000000 0.8702 0.8690 0.8680 0.8677 0.8678
1576.000000 0.8687 0.8703 0.8721 0.8736 0.8746
1581.000000 0.8755 0.8761 0.8760 0.8755 0.8751
1586.000000 0.8740 0.8728 0.8715 0.8700 0.8685
1591.000000 0.8664 0.8633 0.8583 0.8525 0.8475
1596.000000 0.8431 0.8377 0.8315 0.8251 0.8183
1601.000000 0.8111 0.8038 0.7966 0.7896 0.7827
1606.000000 0.7759 0.7680 0.7580 0.7477 0.7338
1611.000000 0.7092 0.6966 0.6844 0.6742 0.6643
1616.000000 0.6543 0.6413 0.6248 0.5949 0.5601
1621.000000 0.5249 0.4897 0.4545 0.4194 0.3843
1626.000000 0.3492 0.3143 0.2793 0.2444 0.2095
1631.000000 0.1747 0.1399 0.1055 0.0750 0.0753
1636.000000 0.0717 0.0815 0.1079 0.1390 0.1701
1641.000000 0.2012 0.2322 0.2632 0.2941 0.3251
1646.000000 0.3559 0.3868 0.4176 0.4483 0.4791
1651.000000 0.5097 0.5404 0.5710 0.6016 0.6321
1656.000000 0.6677 0.7018 0.7092 0.7205 0.7319
1661.000000 0.7448 0.7566 0.7657 0.7739 0.7821
1666.000000 0.7904 0.7981 0.8042 0.8089 0.8104
1671.000000 0.8121 0.8136 0.8150 0.8165 0.8175
1676.000000 0.8181 0.8187 0.8194 0.8203 0.8212
1681.000000 0.8222 0.8233 0.8244 0.8256 0.8276
1686.000000 0.8307 0.8337 0.8368 0.8394 0.8419
1691.000000 0.8444 0.8464 0.8480 0.8496 0.8512
1696.000000 0.8527 0.8538 0.8547 0.8555 0.8564
1701.000000 0.8572 0.8581 0.8590 0.8598 0.8606
1706.000000 0.8613 0.8620 0.8629 0.8643 0.8665
1711.000000 0.8685 0.8704 0.8724 0.8781 0.8746
1716.000000 0.8752 0.8758 0.8765 0.8766 0.8764
1721.000000 0.8756 0.8740 0.8724 0.8712 0.8701
1726.000000 0.8690 0.8678 0.8666 0.8653 0.8640
1731.000000 0.8627 0.8614 0.8600 0.8587 0.8573
1736.000000 0.8560 0.8547 0.8531 0.8514 0.8503
1741.000000 0.8508 0.8515 0.8522 0.8509 0.8539
1746.000000 0.8551 0.8561 0.8572 0.8585 0.8605
1751.000000 0.8631 0.8657 0.8679 0.8701 0.8722
1756.000000 0.8744 0.8768 0.8792 0.8817 0.8839
1761.000000 0.8859 0.8879 0.8900 0.8910 0.8915
1766.000000 0.8918 0.8933 0.8921 0.8922 0.8922
1771.000000 0.8921 0.8919 0.8915 0.8910 0.8906
1776.000000 0.8900 0.8893 0.8886 0.8880 0.8870
1781.000000 0.8858 0.8845 0.8831 0.8817 0.8806
1786.000000 0.8796 0.8786 0.8776 0.8767 0.8757
1791.000000 0.8748 0.8738 0.8731 0.8725 0.8719
1796.000000 0.8712 0.8706 0.8700 0.8694 0.8688
1801.000000 0.8682 0.8676 0.8671 0.8665 0.8661
1806.000000 0.8659 0.8659 0.8665 0.8664 0.8666
1811.000000 0.8668 0.8669 0.8672 0.8676 0.8683
1816.000000 0.8691 0.8699 0.8707 0.8715 0.8758
1821.000000 0.8831 0.8872 0.8904 0.8934 0.8964
1826.000000 0.8994 0.9023 0.9052 0.9081 0.9109
1831.000000 0.9130 0.9150 0.9170 0.9189 0.9206
1836.000000 0.9218 0.9226 0.9234 0.9242 0.9250
1841.000000 0.9256 0.9253 0.9251 0.9248 0.9246
1846.000000 0.9243 0.9239 0.9235 0.9229 0.9223
1851.000000 0.9216 0.9210 0.9209 0.9210 0.9211
1856.000000 0.9214 0.9225 0.9236 0.9246 0.9257
1861.000000 0.9268 0.9278 0.9288 0.9297 0.9306
1866.000000 0.9311 0.9310 0.9309 0.9308 0.9306
1871.000000 0.9306 0.9302 0.9296 0.9290 0.9284
1876.000000 0.9277 0.9271 0.9264 0.9257 0.9249
1881.000000 0.9237 0.9225 0.9213 0.9200 0.9189
1886.000000 0.9182 0.9179 0.9176 0.9173 0.9170
1891.000000 0.9167 0.9163 0.9160 0.9158 0.9158
1896.000000 0.9158 0.9160 0.9160 0.9162 0.9163
1901.000000 0.9163 0.9164 0.9166 0.9168 0.9172
1906.000000 0.9175 0.9179 0.9182 0.9186 0.9189
1911.000000 0.9192 0.9196 0.9199 0.9203 0.9206
1916.000000 0.9210 0.9216 0.9224 0.9233 0.9241
1921.000000 0.9247 0.9250 0.9252 0.9254 0.9256
1926.000000 0.9258 0.9260 0.9262 0.9263 0.9264
1931.000000 0.9265 0.9266 0.9266 0.9267 0.9267
1936.000000 0.9267 0.9268 0.9269 0.9269 0.9270
1941.000000 0.9270 0.9270 0.9271 0.9271 0.9270
1946.000000 0.9272 0.9272 0.9273 0.9274 0.9274
1951.000000 0.9275 0.9276 0.9277 0.9279 0.9280
1956.000000 0.9280 0.9282 0.9283 0.9285 0.9287
1961.000000 0.9289 0.9291 0.9292 0.9293 0.9293
1966.000000 0.9292 0.9291 0.9291 0.9290 0.9288
1971.000000 0.9286 0.9285 0.9283 0.9281 0.9280
1976.000000 0.9278 0.9276 0.9273 0.9270 0.9267
1981.000000 0.9264 0.9262 0.9259 0.9257 0.9255
1986.000000 0.9253 0.9251 0.9249 0.9247 0.9246
1991.000000 0.9244 0.9243 0.9242 0.9242 0.9244
1996.000000 0.9246 0.9249 0.9251 0.9254 0.9256
2001.000000 0.9261 0.9267 0.9273 0.9279 0.9285
2006.000000 0.9290 0.9295 0.9299 0.9302 0.9304
2011.000000 0.9304 0.9300 0.9296 0.9291 0.9286
2016.000000 0.9282 0.9278 0.9273 0.9268 0.9263
2021.000000 0.9257 0.9252 0.9247 0.9243 0.9238
2026.000000 0.9234 0.9231 0.9228 0.9226 0.9225
2031.000000 0.9224 0.9223 0.9222 0.9222 0.9222
2036.000000 0.9223 0.9223 0.9224 0.9224 0.9225
2041.000000 0.9226 0.9226 0.9227 0.9227 0.9229
2046.000000 0.9230 0.9230 0.9231 0.9232 0.9233
2051.000000 0.9234 0.9235 0.9236 0.9237 0.9238
2056.000000 0.9240 0.9241 0.9242 0.9243 0.9245
2061.000000 0.9246 0.9248 0.9249 0.9251 0.9253
2066.000000 0.9254 0.9256 0.9257 0.9259 0.9260
2071.000000 0.9261 0.9263 0.9265 0.9266 0.9267
2076.000000 0.9269 0.9270 0.9270 0.9271 0.9271
2081.000000 0.9271 0.9269 0.9264 0.9258 0.9252
2086.000000 0.9246 0.9239 0.9233 0.9227 0.9220
2091.000000 0.9211 0.9201 0.9202 0.9204 0.9206
2096.000000 0.9207 0.9209 0.9211 0.9212 0.9215
2101.000000 0.9217 0.9222 0.9227 0.9233 0.9236
2106.000000 0.9238 0.9240 0.9243 0.9245 0.9247
2111.000000 0.9249 0.9250 0.9251 0.9252 0.9253
2116.000000 0.9255 0.9256 0.9257 0.9258 0.9259
2121.000000 0.9260 0.9260 0.9261 0.9261 0.9262
2126.000000 0.9263 0.9263 0.9264 0.9264 0.9265
2131.000000 0.9266 0.9267 0.9267 0.9267 0.9268
2136.000000 0.9268 0.9269 0.9269 0.9269 0.9269
2141.000000 0.9270 0.9270 0.9270 0.9270 0.9271
2146.000000 0.9271 0.9271 0.9272 0.9272 0.9272
2151.000000 0.9272 0.9273 0.9273 0.9272 0.9272
2156.000000 0.9271 0.9271 0.9269 0.9268 0.9268
2161.000000 0.9267 0.9266 0.9265 0.9265 0.9264
2166.000000 0.9263 0.9262 0.9262 0.9260 0.9259
2171.000000 0.9256 0.9254 0.9251 0.9248 0.9246
2176.000000 0.9243 0.9239 0.9235 0.9229 0.9223
2181.000000 0.9217 0.9212 0.9206 0.9200 0.9194
2186.000000 0.9185 0.9174 0.9158 0.9140 0.9128
2191.000000 0.9117 0.9115 0.9112 0.9110 0.9108
2196.000000 0.9106 0.9104 0.9102 0.9100 0.9099
2201.000000 0.9097 0.9095 0.9093 0.9092 0.9091
2206.000000 0.9089 0.9088 0.9087 0.9086 0.9085
2211.000000 0.9084 0.9082 0.9081 0.9080 0.9079
2216.000000 0.9078 0.9077 0.9077 0.9077 0.9077
2221.000000 0.9076 0.9076 0.9076 0.9077 0.9079
2226.000000 0.9080 0.9082 0.9084 0.9086 0.9087
2231.000000 0.9089 0.9091 0.9098 0.9105 0.9113
2236.000000 0.9120 0.9127 0.9134 0.9141 0.9147
2241.000000 0.9154 0.9161 0.9165 0.9169 0.9173
2246.000000 0.9177 0.9181 0.9185 0.9189 0.9193
2251.000000 0.9194 0.9194 0.9195 0.9195 0.9195
2256.000000 0.9195 0.9193 0.9192 0.9191 0.9189
2261.000000 0.9188 0.9186 0.9182 0.9176 0.9169
2266.000000 0.9161 0.9154 0.9147 0.9140 0.9132
2271.000000 0.9125 0.9117 0.9110 0.9102 0.9095
2276.000000 0.9087 0.9079 0.9072 0.9064 0.9058
2281.000000 0.9053 0.9047 0.9042 0.9036 0.9031
2286.000000 0.9025 0.9019 0.9014 0.9008 0.9003
2291.000000 0.8997 0.8992 0.8986 0.8980 0.8975
2296.000000 0.8971 0.8969 0.8968 0.8968 0.8968
2301.000000 0.8970 0.8971 0.8974 0.8977 0.8980
2306.000000 0.8983 0.8985 0.8988 0.8990 0.8993
2311.000000 0.8996 0.8999 0.9002 0.9007 0.9013
2316.000000 0.9018 0.9024 0.9029 0.9035 0.9038
2321.000000 0.9040 0.9043 0.9045 0.9048 0.9051
2326.000000 0.9053 0.9056 0.9058 0.9060 0.9063
2331.000000 0.9064 0.9066 0.9068 0.9070 0.9072
2336.000000 0.9073 0.9075 0.9076 0.9078 0.9081
2341.000000 0.9083 0.9086 0.9088 0.9091 0.9094
2346.000000 0.9097 0.9099 0.9102 0.9105 0.9108
2351.000000 0.9110 0.9113 0.9116 0.9119 0.9122
2356.000000 0.9125 0.9127 0.9130 0.9133 0.9136
2361.000000 0.9138 0.9142 0.9145 0.9150 0.9155
2366.000000 0.9159 0.9164 0.9168 0.9173 0.9178
2371.000000 0.9182 0.9187 0.9191 0.9195 0.9198
2376.000000 0.9202 0.9206 0.9209 0.9213 0.9216
2381.000000 0.9220 0.9223 0.9227 0.9230 0.9234
2386.000000 0.9237 0.9239 0.9242 0.9245 0.9248
2391.000000 0.9251 0.9254 0.9256 0.9259 0.9261
2396.000000 0.9264 0.9267 0.9267 0.9267 0.9268
2401.000000 0.9268 0.9269 0.9269 0.9269 0.9269
2406.000000 0.9269 0.9269 0.9269 0.9268 0.9268
2411.000000 0.9267 0.9266 0.9265 0.9263 0.9261
2416.000000 0.9260 0.9259 0.9257 0.9256 0.9255
2421.000000 0.9253 0.9251 0.9250 0.9249 0.9247
2426.000000 0.9247 0.9246 0.9246 0.9246 0.9247
2431.000000 0.9247 0.9248 0.9248 0.9248 0.9249
2436.000000 0.9250 0.9252 0.9255 0.9258 0.9262
2441.000000 0.9265 0.9268 0.9271 0.9273 0.9275
2446.000000 0.9276 0.9278 0.9279 0.9280 0.9281
2451.000000 0.9282 0.9281 0.9280 0.9278 0.9275
2456.000000 0.9272 0.9269 0.9266 0.9263 0.9260
2461.000000 0.9257 0.9255 0.9252 0.9248 0.9245
2466.000000 0.9242 0.9239 0.9236 0.9233 0.9230
2471.000000 0.9227 0.9224 0.9221 0.9219 0.9217
2476.000000 0.9216 0.9216 0.9215 0.9215 0.9215
2481.000000 0.9215 0.9215 0.9215 0.9215 0.9215
2486.000000 0.9216 0.9216 0.9217 0.9217 0.9217
2491.000000 0.9217 0.9217 0.9218 0.9218 0.9218
2496.000000 0.9219 0.9219 0.9220 0.9221 0.9223
2501.000000 0.9224 0.9226 0.9228 0.9230 0.9232
2506.000000 0.9234 0.9236 0.9238 0.9240 0.9242
2511.000000 0.9244 0.9246 0.9249 0.9252 0.9255
2516.000000 0.9259 0.9262 0.9266 0.9269 0.9273
2521.000000 0.9277 0.9281 0.9285 0.9289 0.9293
2526.000000 0.9297 0.9301 0.9305 0.9307 0.9309
2531.000000 0.9310 0.9312 0.9314 0.9315 0.9317
2536.000000 0.9318 0.9319 0.9320 0.9321 0.9321
2541.000000 0.9321 0.9321 0.9321 0.9322 0.9322
2546.000000 0.9322 0.9322 0.9322 0.9322 0.9322
2551.000000 0.9322 0.9322 0.9322 0.9323 0.9323
2556.000000 0.9323 0.9323 0.9323 0.9323 0.9323
2561.000000 0.9323 0.9323 0.9323 0.9323 0.9324
2566.000000 0.9324 0.9324 0.9324 0.9324 0.9324
2571.000000 0.9324 0.9324 0.9324 0.9324 0.9324
2576.000000 0.9324 0.9324 0.9325 0.9325 0.9325
2581.000000 0.9325 0.9325 0.9325 0.9325 0.9325
2586.000000 0.9325 0.9325 0.9326 0.9326 0.9326
2591.000000 0.9326 0.9326 0.9326 0.9326 0.9326
2596.000000 0.9326 0.9323 0.9320 0.9317 0.9314
2601.000000 0.9311 0.9308 0.9305 0.9302 0.9299
2606.000000 0.9296 0.9293 0.9290 0.9287 0.9283
2611.000000 0.9278 0.9273 0.9268 0.9262 0.9257
2616.000000 0.9251 0.9246 0.9241 0.9236 0.9232
2621.000000 0.9228 0.9225 0.9221 0.9218 0.9214
2626.000000 0.9211 0.9211 0.9212 0.9213 0.9214
2631.000000 0.9216 0.9218 0.9222 0.9226 0.9230
2636.000000 0.9234 0.9238 0.9243 0.9247 0.9252
2641.000000 0.9257 0.9263 0.9268 0.9274 0.9280
2646.000000 0.9285 0.9291 0.9297 0.9300 0.9302
2651.000000 0.9304 0.9305 0.9306 0.9306 0.9304
2656.000000 0.9301 0.9299 0.9297 0.9295 0.9291
2661.000000 0.9286 0.9282 0.9276 0.9271 0.9266
2666.000000 0.9260 0.9255 0.9249 0.9243 0.9238
