##TITLE=SULFURYL FLUORIDE
##JCAMP-DX=4.24
##DATA TYPE=INFRARED SPECTRUM
##CLASS=COBLENTZ
##ORIGIN=DOW CHEMICAL COMPANY
##OWNER=COBLENTZ SOCIETY
Collection (C) 2018 copyright by the U.S. Secretary of Commerce
on behalf of the United States of America. All rights reserved.
##DATE=1977/02/17
##NAMES=sulfuryl difluoride
##CAS REGISTRY NO=2699-79-8
##MOLFORM=F2 O2 S
##SOURCE REFERENCE=COBLENTZ NO. 10496
##$NIST SOURCE=COBLENTZ
##$NIST IMAGE=cob-r10496
##SPECTROMETER/DATA SYSTEM=PERKIN-ELMER 180
##INSTRUMENT PARAMETERS=I0 MODE; RESOLUTION: 1 CM^-^1 AT 4000 CM^-^1
##STATE=GAS (2.1 mmHg, N2 ADD, TOTAL PRESSURE 600 mmHg)
##PATH LENGTH=10 CM
##SAMPLING PROCEDURE=TRANSMISSION
##RESOLUTION=1 CM^-^1 AT 4000
##DATA PROCESSING=DIGITIZED BY NIST FROM HARD COPY (FROM TWO SEGMENTS)
##XUNITS=1/CM
##YUNITS=TRANSMITTANCE
##XFACTOR=1.000000
##YFACTOR=1
##DELTAX=1.515152
##FIRSTX=195.455
##LASTX=3996.97
##FIRSTY=0.536
##MAXX=3996.97
##MINX=195.455
##MAXY=0.953998
##MINY=0
##NPOINTS=2510
##XYDATA=(X++(Y..Y))
195.455000 0.5360 0.0004 0.0000 0.0000 0.0000
203.030762 0.0000 0.0000 0.0000 0.0000 0.0000
210.606523 0.0000 0.0000 0.0000 0.0000 0.0000
218.182285 0.0000 0.0000 0.0000 0.0000 0.0000
225.758047 0.0000 0.0000 0.0000 0.0000 0.0000
233.333808 0.0010 0.0010 0.0010 0.0010 0.0030
240.909570 0.0030 0.0030 0.0030 0.0040 0.0040
248.485332 0.0040 0.0060 0.0060 0.0070 0.0070
256.061093 0.0070 0.0070 0.0070 0.0070 0.0070
263.636855 0.0060 0.0060 0.0060 0.0040 0.0040
271.212616 0.0040 0.0040 0.0040 0.0040 0.0040
278.788378 0.0060 0.0060 0.0060 0.0060 0.0090
286.364140 0.0090 0.0090 0.0100 0.0100 0.0120
293.939901 0.0150 0.0160 0.0180 0.0190 0.0220
301.515663 0.0220 0.0240 0.0270 0.0300 0.0330
309.091425 0.0360 0.0370 0.0390 0.0400 0.0420
316.667186 0.0480 0.0490 0.0520 0.0550 0.0580
324.242948 0.0660 0.0740 0.0800 0.0889 0.0959
331.818710 0.1050 0.1070 0.1140 0.1230 0.1320
339.394471 0.1410 0.1549 0.1689 0.1760 0.1820
346.970233 0.1880 0.2050 0.2190 0.2310 0.2370
354.545995 0.2470 0.2560 0.2649 0.2769 0.2909
362.121756 0.2940 0.3030 0.3120 0.3240 0.3350
369.697518 0.3609 0.3759 0.3850 0.3890 0.4059
377.273280 0.4100 0.4300 0.4480 0.4530 0.4570
384.849041 0.4739 0.4800 0.4919 0.5039 0.5179
392.424803 0.5270 0.5340 0.5430 0.5540 0.5640
400.000565 0.5750 0.5860 0.6049 0.6080 0.6249
407.576326 0.6370 0.6480 0.6570 0.6660 0.6730
415.152088 0.6790 0.6850 0.6930 0.7000 0.7079
422.727849 0.7170 0.7220 0.7280 0.7350 0.7430
430.303611 0.7530 0.7560 0.7620 0.7670 0.7710
437.879373 0.7790 0.7830 0.7900 0.8000 0.8030
445.455134 0.8050 0.8090 0.8150 0.8210 0.8240
453.030896 0.8290 0.8320 0.8360 0.8360 0.8420
460.606658 0.8500 0.8510 0.8510 0.8540 0.8560
468.182419 0.8590 0.8610 0.8640 0.8650 0.8680
475.758181 0.8700 0.8710 0.8740 0.8770 0.8800
483.333943 0.8820 0.8830 0.8830 0.8850 0.8860
490.909704 0.8890 0.8890 0.8910 0.8940 0.8950
498.485466 0.8970 0.9000 0.9010 0.9010 0.9000
506.061228 0.8940 0.8920 0.8880 0.8801 0.8671
513.636989 0.8620 0.8560 0.8440 0.8180 0.8080
521.212751 0.7960 0.7761 0.7621 0.7521 0.7460
528.788513 0.7400 0.7500 0.7440 0.7370 0.7081
536.364274 0.6104 0.6100 0.6408 0.7424 0.6378
543.940036 0.5301 0.6900 0.7829 0.6413 0.5004
551.515797 0.7152 0.7190 0.7220 0.7250 0.7290
559.091559 0.7350 0.7500 0.7650 0.7850 0.8109
566.667321 0.8269 0.8419 0.8589 0.8739 0.8889
574.243082 0.9000 0.9060 0.9130 0.9180 0.9190
581.818844 0.9210 0.9220 0.9240 0.9270 0.9290
589.394606 0.9320 0.9330 0.9320 0.9300 0.9300
596.970367 0.9300 0.9320 0.9320 0.9320 0.9320
604.546129 0.9320 0.9320 0.9320 0.9320 0.9320
612.121891 0.9320 0.9300 0.9300 0.9300 0.9300
619.697652 0.9290 0.9290 0.9300 0.9300 0.9300
627.273414 0.9320 0.9320 0.9320 0.9330 0.9330
634.849176 0.9330 0.9330 0.9330 0.9330 0.9330
642.424937 0.9330 0.9330 0.9330 0.9330 0.9330
650.000699 0.9290 0.9290 0.9320 0.9330 0.9350
657.576461 0.9330 0.9350 0.9390 0.9450 0.9470
665.152222 0.9450 0.9390 0.9360 0.9330 0.9320
672.727984 0.9320 0.9320 0.9330 0.9330 0.9330
680.303746 0.9330 0.9330 0.9330 0.9320 0.9320
687.879507 0.9320 0.9330 0.9350 0.9360 0.9360
695.455269 0.9360 0.9360 0.9350 0.9330 0.9330
703.031030 0.9320 0.9320 0.9320 0.9320 0.9330
710.606792 0.9330 0.9350 0.9350 0.9350 0.9350
718.182554 0.9350 0.9320 0.9320 0.9360 0.9360
725.758315 0.9360 0.9360 0.9360 0.9350 0.9330
733.334077 0.9300 0.9270 0.9270 0.9300 0.9320
740.909839 0.9330 0.9350 0.9320 0.9290 0.9250
748.485600 0.9240 0.9240 0.9250 0.9250 0.9270
756.061362 0.9270 0.9270 0.9270 0.9270 0.9290
763.637124 0.9290 0.9290 0.9300 0.9300 0.9300
771.212885 0.9330 0.9330 0.9320 0.9320 0.9320
778.788647 0.9300 0.9250 0.9250 0.9290 0.9300
786.364409 0.9330 0.9380 0.9410 0.9410 0.9330
793.940170 0.9330 0.9330 0.9320 0.9320 0.9350
801.515932 0.9380 0.9360 0.9330 0.9320 0.9300
809.091694 0.9300 0.9250 0.9160 0.9130 0.9041
816.667455 0.8910 0.8710 0.8470 0.8231 0.8090
824.243217 0.7961 0.7701 0.7431 0.7192 0.6972
831.818979 0.6700 0.6570 0.6540 0.6520 0.6510
839.394740 0.6460 0.5893 0.5303 0.4803 0.4065
846.970502 0.3300 0.2321 0.7333 0.7120 0.6322
854.546263 0.5513 0.4256 0.4061 0.3911 0.3761
862.122025 0.3670 0.3620 0.3620 0.3610 0.3510
869.697787 0.3500 0.3480 0.3510 0.4096 0.4160
877.273548 0.4160 0.4040 0.3441 0.2831 0.2232
884.849310 0.1632 0.1600 0.2048 0.6323 0.2994
892.425072 0.5069 0.4070 0.4070 0.4359 0.4709
900.000833 0.4889 0.5029 0.5328 0.6046 0.6666
907.576595 0.7110 0.8200 0.8560 0.8799 0.8970
915.152357 0.9060 0.9120 0.9160 0.9190 0.9250
922.728118 0.9250 0.9240 0.9210 0.9210 0.9190
930.303880 0.9190 0.9210 0.9210 0.9210 0.9210
937.879642 0.9220 0.9270 0.9270 0.9240 0.9220
945.455403 0.9210 0.9210 0.9220 0.9290 0.9300
953.031165 0.9290 0.9220 0.9210 0.9190 0.9160
960.606927 0.9120 0.9150 0.9190 0.9210 0.9210
968.182688 0.9180 0.9160 0.9190 0.9220 0.9220
975.758450 0.9180 0.9160 0.9180 0.9220 0.9319
983.334211 0.9330 0.9300 0.9300 0.9190 0.9130
990.909973 0.9120 0.9120 0.9160 0.9180 0.9190
998.485735 0.9210 0.9220 0.9300 0.9350 0.9410
1006.061496 0.9350 0.9300 0.9240 0.9220 0.9220
1013.637258 0.9220 0.9220 0.9270 0.9300 0.9300
1021.213020 0.9320 0.9320 0.9300 0.9300 0.9300
1028.788781 0.9240 0.9220 0.9220 0.9300 0.9300
1036.364543 0.9300 0.9300 0.9300 0.9300 0.9300
1043.940305 0.9300 0.9300 0.9300 0.9300 0.9300
1051.516066 0.9300 0.9300 0.9250 0.9210 0.9250
1059.091828 0.9250 0.9250 0.9270 0.9270 0.9220
1066.667590 0.9210 0.9210 0.9210 0.9210 0.9220
1074.243351 0.9240 0.9240 0.9240 0.9240 0.9250
1081.819113 0.9250 0.9300 0.9300 0.9250 0.9220
1089.394875 0.9220 0.9210 0.9210 0.9290 0.9300
1096.970636 0.9300 0.9300 0.9300 0.9290 0.9290
1104.546398 0.9320 0.9380 0.9410 0.9390 0.9390
1112.122160 0.9350 0.9330 0.9320 0.9290 0.9290
1119.697921 0.9300 0.9300 0.9300 0.9290 0.9270
1127.273683 0.9220 0.9220 0.9220 0.9220 0.9240
1134.849444 0.9250 0.9270 0.9290 0.9290 0.9290
1142.425206 0.9290 0.9290 0.9210 0.9220 0.9240
1150.000968 0.9250 0.9290 0.9270 0.9300 0.9330
1157.576729 0.9330 0.9330 0.9330 0.9330 0.9330
1165.152491 0.9320 0.9320 0.9300 0.9320 0.9320
1172.728253 0.9330 0.9350 0.9330 0.9320 0.9300
1180.304014 0.9270 0.9270 0.9290 0.9300 0.9320
1187.879776 0.9320 0.9320 0.9330 0.9320 0.9320
1195.455538 0.9330 0.9330 0.9350 0.9350 0.9350
1203.031299 0.9350 0.9350 0.9350 0.9350 0.9320
1210.607061 0.9320 0.9330 0.9350 0.9390 0.9410
1218.182823 0.9390 0.9350 0.9330 0.9300 0.9300
1225.758584 0.9330 0.9350 0.9330 0.9290 0.9220
1233.334346 0.9180 0.9100 0.9040 0.9030 0.9010
1240.910108 0.8890 0.8710 0.8410 0.8091 0.7821
1248.485869 0.7551 0.7261 0.6942 0.6453 0.6222
1256.061631 0.5990 0.5550 0.5101 0.5010 0.5010
1263.637392 0.5070 0.6065 0.6070 0.5742 0.5402
1271.213154 0.4039 0.2680 0.1311 0.7479 0.7490
1278.788916 0.6553 0.5604 0.4983 0.4900 0.4900
1286.364677 0.5090 0.5550 0.6109 0.6549 0.6899
1293.940439 0.8026 0.8448 0.8728 0.8919 0.9069
1301.516201 0.9180 0.9270 0.9320 0.9350 0.9380
1309.091962 0.9390 0.9410 0.9420 0.9440 0.9450
1316.667724 0.9480 0.9480 0.9450 0.9440 0.9420
1324.243486 0.9410 0.9350 0.9320 0.9330 0.9350
1331.819247 0.9350 0.9350 0.9380 0.9360 0.9350
1339.395009 0.9330 0.9320 0.9330 0.9350 0.9300
1346.970771 0.9290 0.9290 0.9320 0.9320 0.9350
1354.546532 0.9360 0.9360 0.9380 0.9360 0.9380
1362.122294 0.9380 0.9410 0.9410 0.9360 0.9330
1369.698056 0.9330 0.9330 0.9330 0.9320 0.9320
1377.273817 0.9290 0.9240 0.9240 0.9210 0.9210
1384.849579 0.9190 0.9190 0.9190 0.9190 0.9190
1392.425341 0.9250 0.9270 0.9270 0.9240 0.9240
1400.001102 0.9240 0.9240 0.9240 0.9270 0.9320
1407.576864 0.9360 0.9390 0.9390 0.9290 0.9290
1415.152625 0.9350 0.9330 0.9330 0.9330 0.9390
1422.728387 0.9390 0.9350 0.9330 0.9320 0.9330
1430.304149 0.9350 0.9360 0.9380 0.9390 0.9390
1437.879910 0.9380 0.9380 0.9360 0.9350 0.9330
1445.455672 0.9320 0.9320 0.9320 0.9320 0.9330
1453.031434 0.9330 0.9330 0.9390 0.9390 0.9380
1460.607195 0.9300 0.9220 0.9150 0.9011 0.8911
1468.182957 0.8800 0.8710 0.8650 0.8610 0.8211
1475.758719 0.7911 0.7611 0.7202 0.6643 0.6134
1483.334480 0.5599 0.4690 0.4350 0.4130 0.3911
1490.910242 0.3671 0.3610 0.3998 0.4408 0.4420
1498.486004 0.4419 0.3230 0.2031 0.0842 0.0700
1506.061765 0.3141 0.7063 0.5996 0.4897 0.3798
1513.637527 0.3470 0.3470 0.3500 0.4099 0.4349
1521.213289 0.4599 0.4998 0.6125 0.7045 0.8173
1528.789050 0.8580 0.8800 0.9000 0.9210 0.9300
1536.364812 0.9410 0.9500 0.9500 0.9450 0.9410
1543.940573 0.9360 0.9350 0.9320 0.9290 0.9300
1551.516335 0.9330 0.9380 0.9410 0.9450 0.9539
1559.092097 0.9540 0.9510 0.9290 0.9270 0.9290
1566.667858 0.9300 0.9320 0.9330 0.9350 0.9360
1574.243620 0.9380 0.9380 0.9320 0.9250 0.9240
1581.819382 0.9240 0.9270 0.9250 0.9250 0.9250
1589.395143 0.9240 0.9240 0.9270 0.9270 0.9250
1596.970905 0.9240 0.9240 0.9250 0.9290 0.9300
1604.546667 0.9290 0.9290 0.9270 0.9270 0.9270
1612.122428 0.9290 0.9320 0.9320 0.9300 0.9270
1619.698190 0.9250 0.9250 0.9290 0.9290 0.9290
1627.273952 0.9290 0.9290 0.9290 0.9330 0.9409
1634.849713 0.9410 0.9380 0.9270 0.9250 0.9290
1642.425475 0.9320 0.9350 0.9360 0.9380 0.9390
1650.001237 0.9510 0.9510 0.9440 0.9330 0.9270
1657.576998 0.9250 0.9270 0.9290 0.9290 0.9300
1665.152760 0.9300 0.9320 0.9320 0.9320 0.9300
1672.728522 0.9270 0.9250 0.9250 0.9290 0.9290
1680.304283 0.9360 0.9360 0.9290 0.9220 0.9210
1687.880045 0.9220 0.9240 0.9270 0.9330 0.9330
1695.455806 0.9300 0.9290 0.9220 0.9210 0.9210
1703.031568 0.9270 0.9270 0.9240 0.9240 0.9240
1710.607330 0.9270 0.9300 0.9300 0.9290 0.9270
1718.183091 0.9210 0.9180 0.9160 0.9160 0.9180
1725.758853 0.9190 0.9210 0.9270 0.9290 0.9290
1733.334615 0.9270 0.9240 0.9210 0.9190 0.9190
1740.910376 0.9210 0.9210 0.9240 0.9270 0.9270
1748.486138 0.9270 0.9290 0.9290 0.9290 0.9290
1756.061900 0.9290 0.9290 0.9270 0.9270 0.9250
1763.637661 0.9210 0.9270 0.9290 0.9290 0.9320
1771.213423 0.9320 0.9300 0.9250 0.9220 0.9220
1778.789185 0.9220 0.9220 0.9240 0.9250 0.9270
1786.364946 0.9290 0.9290 0.9320 0.9350 0.9350
1793.940708 0.9300 0.9270 0.9270 0.9270 0.9270
1801.516470 0.9250 0.9250 0.9250 0.9290 0.9290
1809.092231 0.9290 0.9290 0.9290 0.9270 0.9250
1816.667993 0.9250 0.9250 0.9240 0.9240 0.9250
1824.243754 0.9270 0.9290 0.9290 0.9290 0.9290
1831.819516 0.9290 0.9290 0.9290 0.9290 0.9290
1839.395278 0.9290 0.9290 0.9290 0.9250 0.9220
1846.971039 0.9240 0.9240 0.9240 0.9250 0.9270
1854.546801 0.9290 0.9290 0.9290 0.9270 0.9270
1862.122563 0.9250 0.9250 0.9250 0.9250 0.9250
1869.698324 0.9250 0.9250 0.9220 0.9220 0.9250
1877.274086 0.9250 0.9270 0.9270 0.9290 0.9270
1884.849848 0.9270 0.9270 0.9250 0.9210 0.9250
1892.425609 0.9290 0.9290 0.9250 0.9240 0.9240
1900.001371 0.9240 0.9250 0.9290 0.9290 0.9250
1907.577133 0.9250 0.9240 0.9220 0.9220 0.9270
1915.152894 0.9270 0.9270 0.9270 0.9270 0.9270
1922.728656 0.9270 0.9250 0.9250 0.9240 0.9240
1930.304418 0.9210 0.9210 0.9210 0.9220 0.9240
1937.880179 0.9240 0.9240 0.9240 0.9240 0.9240
1945.455941 0.9240 0.9210 0.9210 0.9240 0.9270
1953.031703 0.9270 0.9250 0.9240 0.9220 0.9220
1960.607464 0.9220 0.9220 0.9240 0.9240 0.9240
1968.183226 0.9240 0.9240 0.9240 0.9250 0.9250
1975.758987 0.9250 0.9240 0.9220 0.9210 0.9210
1983.334749 0.9210 0.9210 0.9210 0.9210 0.9210
1990.910511 0.9240 0.9240 0.9240 0.9220 0.9220
1998.486272 0.9220 0.9220 0.9215 0.9210 0.9210
2006.062034 0.9210 0.9210 0.9210 0.9210 0.9210
2013.637796 0.9210 0.9210 0.9210 0.9210 0.9210
2021.213557 0.9211 0.9252 0.9290 0.9290 0.9289
2028.789319 0.9263 0.9239 0.9224 0.9209 0.9199
2036.365081 0.9190 0.9185 0.9179 0.9169 0.9161
2043.940842 0.9171 0.9180 0.9180 0.9181 0.9186
2051.516604 0.9191 0.9201 0.9211 0.9216 0.9220
2059.092366 0.9220 0.9217 0.9197 0.9180 0.9180
2066.668127 0.9181 0.9186 0.9190 0.9190 0.9190
2074.243889 0.9190 0.9190 0.9190 0.9189 0.9184
2081.819651 0.9180 0.9180 0.9183 0.9198 0.9210
2089.395412 0.9210 0.9211 0.9216 0.9220 0.9220
2096.971174 0.9215 0.9195 0.9177 0.9167 0.9160
2104.546936 0.9160 0.9163 0.9173 0.9180 0.9180
2112.122697 0.9180 0.9180 0.9180 0.9180 0.9177
2119.698459 0.9167 0.9160 0.9160 0.9163 0.9173
2127.274220 0.9182 0.9187 0.9193 0.9203 0.9210
2134.849982 0.9210 0.9210 0.9210 0.9206 0.9196
2142.425744 0.9194 0.9204 0.9210 0.9210 0.9212
2150.001505 0.9217 0.9220 0.9220 0.9220 0.9220
2157.577267 0.9218 0.9213 0.9206 0.9196 0.9188
2165.153029 0.9183 0.9180 0.9180 0.9180 0.9180
2172.728790 0.9180 0.9180 0.9176 0.9166 0.9160
2180.304552 0.9160 0.9172 0.9197 0.9212 0.9217
2187.880314 0.9213 0.9198 0.9190 0.9190 0.9190
2195.456075 0.9190 0.9187 0.9182 0.9180 0.9180
2203.031837 0.9180 0.9180 0.9180 0.9180 0.9180
2210.607599 0.9180 0.9180 0.9180 0.9180 0.9180
2218.183360 0.9183 0.9188 0.9190 0.9190 0.9187
2225.759122 0.9182 0.9183 0.9188 0.9190 0.9190
2233.334884 0.9190 0.9190 0.9190 0.9190 0.9190
2240.910645 0.9190 0.9190 0.9190 0.9190 0.9190
2248.486407 0.9190 0.9190 0.9197 0.9207 0.9210
2256.062168 0.9210 0.9203 0.9193 0.9190 0.9190
2263.637930 0.9190 0.9190 0.9187 0.9182 0.9180
2271.213692 0.9180 0.9169 0.9154 0.9150 0.9150
2278.789453 0.9161 0.9176 0.9184 0.9189 0.9190
2286.365215 0.9190 0.9190 0.9190 0.9198 0.9208
2293.940977 0.9210 0.9210 0.9222 0.9237 0.9244
2301.516738 0.9249 0.9258 0.9268 0.9270 0.9270
2309.092500 0.9270 0.9270 0.9262 0.9252 0.9271
2316.668262 0.9296 0.9321 0.9346 0.9342 0.9332
2324.244023 0.9313 0.9293 0.9260 0.9225 0.9229
2331.819785 0.9239 0.9267 0.9297 0.9309 0.9319
2339.395547 0.9324 0.9330 0.9330 0.9330 0.9339
2346.971308 0.9349 0.9377 0.9407 0.9424 0.9439
2354.547070 0.9468 0.9498 0.9500 0.9500 0.9472
2362.122832 0.9441 0.9382 0.9322 0.9257 0.9192
2369.698593 0.9175 0.9160 0.9155 0.9150 0.9155
2377.274355 0.9160 0.9170 0.9180 0.9180 0.9180
2384.850117 0.9180 0.9180 0.9180 0.9180 0.9180
2392.425878 0.9180 0.9180 0.9179 0.9169 0.9160
2400.001640 0.9160 0.9160 0.9160 0.9160 0.9160
2407.577401 0.9160 0.9160 0.9160 0.9160 0.9160
2415.153163 0.9160 0.9159 0.9144 0.9130 0.9130
2422.728925 0.9131 0.9141 0.9150 0.9150 0.9150
2430.304686 0.9150 0.9151 0.9156 0.9160 0.9160
2437.880448 0.9160 0.9160 0.9160 0.9160 0.9162
2445.456210 0.9172 0.9180 0.9180 0.9180 0.9180
2453.031971 0.9180 0.9180 0.9180 0.9180 0.9180
2460.607733 0.9180 0.9180 0.9180 0.9180 0.9180
2468.183495 0.9180 0.9180 0.9180 0.9180 0.9180
2475.759256 0.9180 0.9180 0.9180 0.9180 0.9180
2483.335018 0.9180 0.9180 0.9180 0.9180 0.9180
2490.910780 0.9180 0.9177 0.9167 0.9160 0.9160
2498.486541 0.9160 0.9160 0.9155 0.9140 0.9130
2506.062303 0.9130 0.9130 0.9130 0.9125 0.9110
2513.638065 0.9100 0.9100 0.9100 0.9100 0.9100
2521.213826 0.9100 0.9100 0.9100 0.9100 0.9100
2528.789588 0.9104 0.9114 0.9126 0.9141 0.9152
2536.365349 0.9157 0.9164 0.9174 0.9180 0.9180
2543.941111 0.9180 0.9180 0.9180 0.9180 0.9180
2551.516873 0.9180 0.9180 0.9180 0.9180 0.9180
2559.092634 0.9173 0.9158 0.9145 0.9135 0.9128
2566.668396 0.9123 0.9120 0.9120 0.9120 0.9120
2574.244158 0.9123 0.9128 0.9135 0.9145 0.9153
2581.819919 0.9158 0.9160 0.9160 0.9160 0.9160
2589.395681 0.9160 0.9160 0.9166 0.9176 0.9180
2596.971443 0.9180 0.9180 0.9180 0.9180 0.9180
2604.547204 0.9180 0.9180 0.9165 0.9140 0.9130
2612.122966 0.9130 0.9139 0.9154 0.9160 0.9160
2619.698728 0.9160 0.9160 0.9160 0.9160 0.9160
2627.274489 0.9160 0.9160 0.9160 0.9160 0.9160
2634.850251 0.9160 0.9160 0.9157 0.9152 0.9143
2642.426013 0.9133 0.9126 0.9121 0.9113 0.9103
2650.001774 0.9107 0.9117 0.9120 0.9120 0.9124
2657.577536 0.9129 0.9130 0.9130 0.9130 0.9130
2665.153298 0.9138 0.9148 0.9150 0.9150 0.9154
2672.729059 0.9159 0.9160 0.9160 0.9156 0.9151
2680.304821 0.9150 0.9150 0.9150 0.9150 0.9150
2687.880582 0.9150 0.9142 0.9132 0.9126 0.9121
2695.456344 0.9120 0.9120 0.9111 0.9101 0.9100
2703.032106 0.9100 0.9100 0.9100 0.9100 0.9100
2710.607867 0.9100 0.9100 0.9100 0.9100 0.9100
2718.183629 0.9100 0.9100 0.9100 0.9100 0.9100
2725.759391 0.9100 0.9100 0.9095 0.9090 0.9081
2733.335152 0.9071 0.9056 0.9041 0.9040 0.9040
2740.910914 0.9035 0.9030 0.9030 0.9030 0.9030
2748.486676 0.9030 0.9030 0.9030 0.9035 0.9040
2756.062437 0.9050 0.9060 0.9060 0.9060 0.9060
2763.638199 0.9060 0.9065 0.9070 0.9070 0.9071
2771.213961 0.9086 0.9100 0.9110 0.9120 0.9120
2778.789722 0.9119 0.9109 0.9100 0.9100 0.9101
2786.365484 0.9116 0.9131 0.9141 0.9151 0.9156
2793.941246 0.9160 0.9160 0.9159 0.9154 0.9150
2801.517007 0.9150 0.9149 0.9139 0.9129 0.9124
2809.092769 0.9120 0.9120 0.9121 0.9126 0.9133
2816.668530 0.9148 0.9160 0.9160 0.9159 0.9154
2824.244292 0.9150 0.9150 0.9148 0.9138 0.9129
2831.820054 0.9124 0.9118 0.9108 0.9099 0.9094
2839.395815 0.9088 0.9078 0.9070 0.9070 0.9070
2846.971577 0.9070 0.9070 0.9070 0.9073 0.9083
2854.547339 0.9090 0.9090 0.9090 0.9090 0.9090
2862.123100 0.9090 0.9090 0.9090 0.9091 0.9096
2869.698862 0.9100 0.9100 0.9100 0.9100 0.9100
2877.274624 0.9100 0.9100 0.9100 0.9100 0.9100
2884.850385 0.9100 0.9100 0.9100 0.9100 0.9100
2892.426147 0.9100 0.9095 0.9079 0.9070 0.9070
2900.001909 0.9074 0.9084 0.9090 0.9090 0.9086
2907.577670 0.9076 0.9070 0.9070 0.9070 0.9070
2915.153432 0.9070 0.9070 0.9068 0.9063 0.9060
2922.729194 0.9060 0.9062 0.9067 0.9070 0.9070
2930.304955 0.9070 0.9070 0.9075 0.9085 0.9090
2937.880717 0.9090 0.9085 0.9075 0.9070 0.9070
2945.456479 0.9070 0.9070 0.9067 0.9062 0.9063
2953.032240 0.9068 0.9075 0.9085 0.9093 0.9098
2960.608002 0.9097 0.9092 0.9084 0.9074 0.9067
2968.183763 0.9062 0.9060 0.9060 0.9054 0.9044
2975.759525 0.9040 0.9040 0.9040 0.9040 0.9040
2983.335287 0.9040 0.9040 0.9040 0.9040 0.9040
2990.911048 0.9049 0.9064 0.9070 0.9070 0.9077
2998.486810 0.9087 0.9100 0.9115 0.9120 0.9120
3006.062572 0.9100 0.9070 0.9060 0.9060 0.9060
3013.638333 0.9060 0.9060 0.9060 0.9060 0.9060
3021.214095 0.9063 0.9069 0.9070 0.9070 0.9070
3028.789857 0.9070 0.9070 0.9070 0.9078 0.9088
3036.365618 0.9079 0.9064 0.9060 0.9060 0.9060
3043.941380 0.9060 0.9060 0.9060 0.9064 0.9069
3051.517142 0.9078 0.9088 0.9094 0.9099 0.9100
3059.092903 0.9100 0.9088 0.9073 0.9070 0.9070
3066.668665 0.9066 0.9061 0.9052 0.9042 0.9040
3074.244427 0.9040 0.9049 0.9059 0.9060 0.9060
3081.820188 0.9060 0.9060 0.9060 0.9060 0.9060
3089.395950 0.9060 0.9060 0.9060 0.9060 0.9060
3096.971712 0.9074 0.9089 0.9090 0.9090 0.9090
3104.547473 0.9090 0.9090 0.9090 0.9090 0.9090
3112.123235 0.9090 0.9090 0.9090 0.9090 0.9090
3119.698996 0.9090 0.9090 0.9090 0.9090 0.9090
3127.274758 0.9080 0.9070 0.9070 0.9070 0.9070
3134.850520 0.9070 0.9065 0.9060 0.9060 0.9060
3142.426281 0.9060 0.9060 0.9060 0.9060 0.9060
3150.002043 0.9060 0.9060 0.9059 0.9049 0.9040
3157.577805 0.9040 0.9040 0.9040 0.9040 0.9040
3165.153566 0.9040 0.9040 0.9040 0.9040 0.9040
3172.729328 0.9040 0.9040 0.9040 0.9039 0.9034
3180.305090 0.9030 0.9030 0.9030 0.9030 0.9030
3187.880851 0.9030 0.9030 0.9030 0.9028 0.9018
3195.456613 0.9010 0.9010 0.9010 0.9010 0.9010
3203.032375 0.9010 0.9012 0.9022 0.9030 0.9030
3210.608136 0.9030 0.9030 0.9027 0.9011 0.9000
3218.183898 0.9000 0.9000 0.9000 0.9000 0.9000
3225.759660 0.9000 0.9000 0.9000 0.9000 0.9004
3233.335421 0.9019 0.9030 0.9030 0.9022 0.8997
3240.911183 0.8980 0.8980 0.8980 0.8980 0.8983
3248.486944 0.8993 0.9000 0.9000 0.9002 0.9007
3256.062706 0.9018 0.9043 0.9060 0.9060 0.9051
3263.638468 0.9026 0.9010 0.9010 0.9008 0.9003
