##TITLE=CYCLOPENTANE
##JCAMP-DX=4.24
##DATA TYPE=INFRARED SPECTRUM
##CLASS=COBLENTZ III
##ORIGIN=STANDARD OIL OF OHIO
##OWNER=COBLENTZ SOCIETY
Collection (C) 2018 copyright by the U.S. Secretary of Commerce
on behalf of the United States of America. All rights reserved.
##DATE=1976/12/20
##CAS REGISTRY NO=287-92-3
##MOLFORM=C5 H10
##SOURCE REFERENCE=COBLENTZ NO. 10122
##$NIST SOURCE=COBLENTZ
##$NIST IMAGE=cob10122
##SPECTROMETER/DATA SYSTEM=PERKIN-ELMER 180 (GRATING)
##INSTRUMENT PARAMETERS=GRATING CHANGES AT 2000, 1000, 500, 250 CM^-^1
##STATE=LIQUID (NEAT)
##PATH LENGTH=0.006 CM, KBr CRYSTALS
##SAMPLING PROCEDURE=TRANSMISSION
##RESOLUTION=4
##DATA PROCESSING=DIGITIZED BY NIST FROM HARD COPY (FROM TWO SEGMENTS)
##XUNITS=1/CM
##YUNITS=TRANSMITTANCE
##XFACTOR=1.000000
##YFACTOR=1
##DELTAX=1.017814
##FIRSTX=295.165
##LASTX=3998.99
##FIRSTY=0.026
##MAXX=3998.99
##MINX=295.165
##MAXY=0.876
##MINY=0.001
##NPOINTS=3640
##XYDATA=(X++(Y..Y))
295.165000 0.0260 0.0280 0.0300 0.0310 0.0340
300.254069 0.0360 0.0380 0.0410 0.0430 0.0450
305.343138 0.0470 0.0500 0.0530 0.0560 0.0570
310.432207 0.0590 0.0620 0.0650 0.0680 0.0710
315.521276 0.0750 0.0770 0.0800 0.0830 0.0870
320.610345 0.0920 0.0990 0.1020 0.1020 0.1100
325.699414 0.1130 0.1200 0.1250 0.1300 0.1340
330.788483 0.1420 0.1500 0.1560 0.1620 0.1690
335.877552 0.1730 0.1810 0.1870 0.1940 0.2010
340.966621 0.2030 0.2120 0.2239 0.2300 0.2380
346.055690 0.2430 0.2510 0.2580 0.2630 0.2700
351.144758 0.2760 0.2870 0.2980 0.3060 0.3120
356.233827 0.3170 0.3330 0.3430 0.3500 0.3560
361.322896 0.3700 0.3750 0.3820 0.3890 0.3979
366.411965 0.4010 0.4010 0.4200 0.4240 0.4300
371.501034 0.4410 0.4490 0.4520 0.4600 0.4660
376.590103 0.4730 0.4800 0.4870 0.4920 0.4970
381.679172 0.5030 0.5160 0.5200 0.5250 0.5330
386.768241 0.5410 0.5440 0.5500 0.5530 0.5610
391.857310 0.5660 0.5710 0.5750 0.5810 0.5900
396.946379 0.5980 0.6030 0.6090 0.6130 0.6200
402.035448 0.6270 0.6330 0.6400 0.6420 0.6490
407.124517 0.6520 0.6590 0.6720 0.6730 0.6780
412.213586 0.6830 0.6900 0.6970 0.7000 0.7060
417.302655 0.7070 0.7080 0.7150 0.7200 0.7240
422.391724 0.7260 0.7280 0.7310 0.7340 0.7360
427.480793 0.7400 0.7410 0.7460 0.7500 0.7520
432.569862 0.7530 0.7560 0.7600 0.7610 0.7630
437.658931 0.7660 0.7710 0.7730 0.7760 0.7800
442.748000 0.7820 0.7840 0.7880 0.7900 0.7900
447.837069 0.7910 0.7930 0.7930 0.7930 0.7940
452.926137 0.7940 0.7940 0.7940 0.7950 0.7960
458.015206 0.7990 0.8000 0.8020 0.8070 0.8110
463.104275 0.8130 0.8150 0.8160 0.8170 0.8190
468.193344 0.8200 0.8240 0.8280 0.8300 0.8310
473.282413 0.8310 0.8300 0.8300 0.8300 0.8310
478.371482 0.8320 0.8340 0.8350 0.8370 0.8380
483.460551 0.8380 0.8390 0.8390 0.8390 0.8390
488.549620 0.8390 0.8390 0.8390 0.8400 0.8400
493.638689 0.8400 0.8410 0.8520 0.8749 0.8760
498.727758 0.8760 0.8760 0.8750 0.8750 0.8720
503.816827 0.8710 0.8690 0.8660 0.8640 0.8630
508.905896 0.8630 0.8630 0.8620 0.8610 0.8570
513.994965 0.8530 0.8500 0.8460 0.8440 0.8400
519.084034 0.8390 0.8340 0.8240 0.8180 0.8150
524.173103 0.8080 0.8000 0.7910 0.7801 0.7710
529.262172 0.7620 0.7510 0.7360 0.7290 0.7210
534.351241 0.7110 0.7010 0.6990 0.6980 0.6990
539.440310 0.7010 0.7070 0.7130 0.7200 0.7290
544.529379 0.7390 0.7480 0.7520 0.7590 0.7660
549.618448 0.7740 0.7820 0.7880 0.7920 0.8000
554.707516 0.8030 0.8110 0.8160 0.8200 0.8260
559.796585 0.8290 0.8330 0.8350 0.8360 0.8400
564.885654 0.8430 0.8490 0.8510 0.8520 0.8540
569.974723 0.8550 0.8560 0.8570 0.8600 0.8600
575.063792 0.8610 0.8620 0.8630 0.8620 0.8630
580.152861 0.8630 0.8630 0.8630 0.8630 0.8630
585.241930 0.8630 0.8650 0.8660 0.8670 0.8670
590.330999 0.8670 0.8660 0.8650 0.8650 0.8660
595.420068 0.8660 0.8660 0.8660 0.8660 0.8670
600.509137 0.8660 0.8670 0.8670 0.8670 0.8680
605.598206 0.8690 0.8690 0.8690 0.8690 0.8700
610.687275 0.8700 0.8700 0.8700 0.8700 0.8710
615.776344 0.8710 0.8730 0.8730 0.8730 0.8730
620.865413 0.8720 0.8730 0.8740 0.8750 0.8750
625.954482 0.8750 0.8750 0.8750 0.8750 0.8750
631.043551 0.8740 0.8740 0.8740 0.8740 0.8730
636.132620 0.8720 0.8710 0.8710 0.8700 0.8700
641.221689 0.8710 0.8710 0.8710 0.8700 0.8700
646.310758 0.8700 0.8700 0.8690 0.8700 0.8700
651.399827 0.8690 0.8680 0.8670 0.8660 0.8660
656.488896 0.8660 0.8650 0.8650 0.8640 0.8630
661.577964 0.8620 0.8620 0.8610 0.8600 0.8590
666.667033 0.8520 0.8460 0.8440 0.8450 0.8520
671.756102 0.8610 0.8640 0.8690 0.8700 0.8700
676.845171 0.8700 0.8680 0.8670 0.8660 0.8640
681.934240 0.8620 0.8610 0.8560 0.8510 0.8470
687.023309 0.8380 0.8320 0.8340 0.8420 0.8500
692.112378 0.8560 0.8580 0.8580 0.8580 0.8580
697.201447 0.8580 0.8590 0.8600 0.8600 0.8600
702.290516 0.8590 0.8590 0.8600 0.8600 0.8590
707.379585 0.8580 0.8570 0.8540 0.8520 0.8510
712.468654 0.8490 0.8460 0.8430 0.8400 0.8370
717.557723 0.8330 0.8280 0.8160 0.7971 0.7691
722.646792 0.7670 0.7880 0.7940 0.8060 0.8260
727.735861 0.8300 0.8320 0.8330 0.8330 0.8320
732.824930 0.8310 0.8310 0.8290 0.8280 0.8290
737.913999 0.8300 0.8320 0.8330 0.8330 0.8320
743.003068 0.8310 0.8250 0.8240 0.8240 0.8240
748.092137 0.8190 0.8120 0.8080 0.8050 0.8030
753.181206 0.8020 0.8000 0.7960 0.7940 0.7920
758.270275 0.7850 0.7800 0.7770 0.7760 0.7750
763.359343 0.7760 0.7800 0.7850 0.7850 0.7840
768.448412 0.7840 0.7840 0.7850 0.7870 0.7880
773.537481 0.7880 0.7880 0.7880 0.7880 0.7880
778.626550 0.7890 0.7900 0.7900 0.7900 0.7910
783.715619 0.7910 0.7940 0.7950 0.7940 0.7910
788.804688 0.7880 0.7880 0.7910 0.7950 0.8000
793.893757 0.8000 0.7940 0.7930 0.7940 0.7940
798.982826 0.7950 0.7970 0.7990 0.8000 0.8000
804.071895 0.8000 0.7960 0.7960 0.7960 0.7930
809.160964 0.7910 0.7900 0.7890 0.7880 0.7870
814.250033 0.7860 0.7860 0.7860 0.7860 0.7860
819.339102 0.7860 0.7850 0.7840 0.7830 0.7820
824.428171 0.7800 0.7800 0.7800 0.7790 0.7770
829.517240 0.7730 0.7700 0.7700 0.7680 0.7680
834.606309 0.7650 0.7630 0.7600 0.7560 0.7570
839.695378 0.7560 0.7550 0.7510 0.7490 0.7450
844.784447 0.7440 0.7420 0.7410 0.7380 0.7350
849.873516 0.7310 0.7280 0.7240 0.7200 0.7170
854.962585 0.7130 0.7110 0.7090 0.7010 0.6980
860.051654 0.6900 0.6830 0.6770 0.6700 0.6670
865.140723 0.6630 0.6520 0.6420 0.6300 0.6200
870.229791 0.6070 0.5990 0.5751 0.5650 0.5461
875.318860 0.5200 0.5000 0.4710 0.4450 0.4170
880.407929 0.3921 0.3471 0.3261 0.3041 0.2811
885.496998 0.2540 0.2300 0.2170 0.2080 0.2070
890.586067 0.2090 0.2210 0.2379 0.2519 0.2759
895.675136 0.2981 0.3500 0.3680 0.3970 0.4260
900.764205 0.4520 0.4759 0.4979 0.5189 0.5379
905.853274 0.5560 0.5740 0.5910 0.6020 0.6150
910.942343 0.6290 0.6400 0.6510 0.6679 0.6750
916.031412 0.6820 0.6850 0.6920 0.6990 0.7020
921.120481 0.7070 0.7080 0.7130 0.7150 0.7160
926.209550 0.7190 0.7200 0.7200 0.7200 0.7210
931.298619 0.7240 0.7250 0.7240 0.7240 0.7220
936.387688 0.7200 0.7190 0.7190 0.7180 0.7140
941.476757 0.7110 0.7100 0.7080 0.7040 0.7010
946.565826 0.7000 0.6980 0.6960 0.6920 0.6850
951.654895 0.6830 0.6820 0.6800 0.6750 0.6720
956.743964 0.6690 0.6680 0.6660 0.6650 0.6640
961.833033 0.6630 0.6630 0.6630 0.6630 0.6630
966.922102 0.6640 0.6690 0.6710 0.6730 0.6810
972.011170 0.6850 0.6870 0.6910 0.6990 0.7020
977.100239 0.7070 0.7120 0.7160 0.7220 0.7290
982.189308 0.7300 0.7320 0.7350 0.7390 0.7450
987.278377 0.7490 0.7520 0.7560 0.7600 0.7630
992.367446 0.7680 0.7700 0.7700 0.7710 0.7720
997.456515 0.7870 0.7960 0.8010 0.8030 0.8040
1002.545584 0.8040 0.8060 0.8060 0.8060 0.8060
1007.634653 0.8060 0.8040 0.8040 0.8040 0.8030
1012.723722 0.8030 0.8020 0.8020 0.8020 0.8020
1017.812791 0.8020 0.8020 0.8020 0.8020 0.8020
1022.901860 0.8020 0.8030 0.8040 0.8040 0.8040
1027.990929 0.8050 0.8080 0.8100 0.8120 0.8120
1033.079998 0.8140 0.8150 0.8160 0.8160 0.8170
1038.169067 0.8170 0.8180 0.8190 0.8200 0.8210
1043.258136 0.8210 0.8240 0.8250 0.8250 0.8260
1048.347205 0.8260 0.8260 0.8260 0.8250 0.8250
1053.436274 0.8250 0.8250 0.8260 0.8270 0.8280
1058.525343 0.8300 0.8300 0.8290 0.8280 0.8280
1063.614412 0.8290 0.8290 0.8300 0.8300 0.8300
1068.703481 0.8310 0.8320 0.8330 0.8350 0.8350
1073.792549 0.8360 0.8380 0.8400 0.8420 0.8440
1078.881618 0.8440 0.8460 0.8460 0.8450 0.8450
1083.970687 0.8440 0.8430 0.8430 0.8430 0.8420
1089.059756 0.8420 0.8420 0.8410 0.8410 0.8410
1094.148825 0.8410 0.8400 0.8390 0.8370 0.8360
1099.237894 0.8350 0.8340 0.8340 0.8330 0.8320
1104.326963 0.8300 0.8290 0.8280 0.8260 0.8260
1109.416032 0.8250 0.8240 0.8240 0.8220 0.8200
1114.505101 0.8160 0.8150 0.8150 0.8150 0.8150
1119.594170 0.8150 0.8150 0.8150 0.8160 0.8160
1124.683239 0.8150 0.8140 0.8110 0.8100 0.8090
1129.772308 0.8080 0.8020 0.8010 0.7990 0.8000
1134.861377 0.8000 0.7950 0.7920 0.7910 0.7930
1139.950446 0.7930 0.7930 0.7940 0.7940 0.7940
1145.039515 0.7940 0.7920 0.7910 0.7910 0.7910
1150.128584 0.7900 0.7890 0.7880 0.7860 0.7830
1155.217653 0.7800 0.7770 0.7750 0.7740 0.7720
1160.306722 0.7690 0.7680 0.7670 0.7660 0.7650
1165.395791 0.7620 0.7600 0.7590 0.7570 0.7540
1170.484860 0.7510 0.7500 0.7490 0.7410 0.7390
1175.573929 0.7390 0.7390 0.7400 0.7410 0.7400
1180.662997 0.7390 0.7380 0.7370 0.7350 0.7320
1185.752066 0.7310 0.7310 0.7300 0.7300 0.7280
1190.841135 0.7270 0.7260 0.7250 0.7250 0.7250
1195.930204 0.7250 0.7250 0.7250 0.7250 0.7240
1201.019273 0.7230 0.7230 0.7230 0.7210 0.7210
1206.108342 0.7210 0.7210 0.7210 0.7210 0.7210
1211.197411 0.7200 0.7190 0.7180 0.7180 0.7180
1216.286480 0.7180 0.7180 0.7180 0.7170 0.7170
1221.375549 0.7160 0.7160 0.7160 0.7150 0.7140
1226.464618 0.7130 0.7110 0.7090 0.7090 0.7080
1231.553687 0.7080 0.7060 0.7030 0.7000 0.6990
1236.642756 0.6990 0.6980 0.6980 0.6970 0.6970
1241.731825 0.6960 0.6960 0.6960 0.6950 0.6950
1246.820894 0.6940 0.6930 0.6920 0.6920 0.6910
1251.909963 0.6900 0.6880 0.6860 0.6860 0.6850
1256.999032 0.6840 0.6840 0.6830 0.6820 0.6810
1262.088101 0.6810 0.6800 0.6790 0.6780 0.6770
1267.177170 0.6770 0.6770 0.6770 0.6770 0.6780
1272.266239 0.6780 0.6780 0.6780 0.6770 0.6770
1277.355308 0.6760 0.6740 0.6740 0.6730 0.6730
1282.444376 0.6720 0.6720 0.6720 0.6720 0.6720
1287.533445 0.6710 0.6720 0.6720 0.6710 0.6690
1292.622514 0.6670 0.6660 0.6640 0.6610 0.6590
1297.711583 0.6570 0.6510 0.6450 0.6370 0.6270
1302.800652 0.6180 0.6110 0.5960 0.5770 0.5550
1307.889721 0.5330 0.5041 0.4791 0.4611 0.4690
1312.978790 0.4840 0.5120 0.5460 0.5800 0.6090
1318.067859 0.6350 0.6719 0.6900 0.7010 0.7090
1323.156928 0.7180 0.7270 0.7330 0.7390 0.7430
1328.245997 0.7480 0.7490 0.7520 0.7580 0.7590
1333.335066 0.7590 0.7600 0.7600 0.7600 0.7600
1338.424135 0.7600 0.7600 0.7600 0.7610 0.7610
1343.513204 0.7610 0.7610 0.7630 0.7630 0.7630
1348.602273 0.7630 0.7630 0.7620 0.7620 0.7620
1353.691342 0.7620 0.7610 0.7610 0.7590 0.7580
1358.780411 0.7580 0.7570 0.7560 0.7550 0.7540
1363.869480 0.7510 0.7500 0.7490 0.7420 0.7390
1368.958549 0.7340 0.7290 0.7250 0.7190 0.7150
1374.047618 0.7140 0.7100 0.7020 0.6980 0.6890
1379.136687 0.6730 0.6670 0.6700 0.6810 0.6999
1384.225755 0.7030 0.7030 0.7020 0.7010 0.7010
1389.314824 0.6980 0.6940 0.6920 0.6890 0.6850
1394.403893 0.6790 0.6750 0.6720 0.6680 0.6660
1399.492962 0.6630 0.6580 0.6530 0.6490 0.6400
1404.582031 0.6360 0.6300 0.6250 0.6200 0.6160
1409.671100 0.6090 0.6020 0.5890 0.5800 0.5770
1414.760169 0.5690 0.5570 0.5490 0.5400 0.5310
1419.849238 0.5210 0.5110 0.5000 0.4880 0.4730
1424.938307 0.4580 0.4490 0.4320 0.4170 0.3990
1430.027376 0.3810 0.3620 0.3420 0.3320 0.3220
1435.116445 0.3020 0.2800 0.2600 0.2390 0.2130
1440.205514 0.1960 0.1691 0.1461 0.1211 0.0971
1445.294583 0.0770 0.0540 0.0410 0.0290 0.0220
1450.383652 0.0220 0.0230 0.0260 0.0390 0.0529
1455.472721 0.0690 0.0880 0.1070 0.1280 0.1500
1460.561790 0.1700 0.1960 0.2140 0.2329 0.2519
1465.650859 0.2710 0.2880 0.3020 0.3370 0.3470
1470.739928 0.3610 0.3790 0.3910 0.4000 0.4120
1475.828997 0.4240 0.4350 0.4490 0.4570 0.4650
1480.918066 0.4750 0.4800 0.4820 0.5019 0.5140
1486.007135 0.5210 0.5310 0.5400 0.5480 0.5510
1491.096203 0.5600 0.5690 0.5730 0.5840 0.5980
1496.185272 0.6040 0.6120 0.6230 0.6320 0.6450
1501.274341 0.6480 0.6500 0.6570 0.6690 0.6720
1506.363410 0.6760 0.6810 0.6890 0.6920 0.6940
1511.452479 0.6990 0.7010 0.7100 0.7160 0.7190
1516.541548 0.7220 0.7240 0.7290 0.7320 0.7370
1521.630617 0.7410 0.7430 0.7460 0.7500 0.7510
1526.719686 0.7570 0.7600 0.7660 0.7680 0.7700
1531.808755 0.7700 0.7720 0.7750 0.7770 0.7800
1536.897824 0.7850 0.7890 0.7900 0.7910 0.7930
1541.986893 0.7950 0.8000 0.8010 0.8000 0.8010
1547.075962 0.8020 0.8070 0.8090 0.8120 0.8120
1552.165031 0.8130 0.8130 0.8140 0.8150 0.8170
1557.254100 0.8190 0.8220 0.8240 0.8250 0.8270
1562.343169 0.8270 0.8270 0.8270 0.8280 0.8280
1567.432238 0.8280 0.8300 0.8300 0.8320 0.8320
1572.521307 0.8330 0.8340 0.8340 0.8350 0.8350
1577.610376 0.8350 0.8360 0.8370 0.8370 0.8370
1582.699445 0.8370 0.8380 0.8380 0.8380 0.8400
1587.788514 0.8410 0.8410 0.8410 0.8410 0.8410
1592.877582 0.8390 0.8390 0.8410 0.8410 0.8410
1597.966651 0.8420 0.8420 0.8430 0.8430 0.8450
1603.055720 0.8460 0.8460 0.8470 0.8480 0.8470
1608.144789 0.8470 0.8470 0.8480 0.8480 0.8500
1613.233858 0.8500 0.8510 0.8520 0.8530 0.8540
1618.322927 0.8540 0.8540 0.8540 0.8560 0.8560
1623.411996 0.8510 0.8510 0.8540 0.8550 0.8550
1628.501065 0.8550 0.8560 0.8560 0.8570 0.8570
1633.590134 0.8570 0.8580 0.8580 0.8580 0.8580
1638.679203 0.8570 0.8570 0.8560 0.8570 0.8580
1643.768272 0.8590 0.8600 0.8610 0.8620 0.8620
1648.857341 0.8630 0.8640 0.8630 0.8630 0.8630
1653.946410 0.8640 0.8640 0.8650 0.8660 0.8660
1659.035479 0.8660 0.8670 0.8690 0.8690 0.8690
1664.124548 0.8680 0.8670 0.8670 0.8660 0.8660
1669.213617 0.8670 0.8670 0.8650 0.8650 0.8650
1674.302686 0.8650 0.8660 0.8660 0.8660 0.8660
1679.391755 0.8630 0.8610 0.8610 0.8620 0.8630
1684.480824 0.8640 0.8630 0.8610 0.8610 0.8600
1689.569893 0.8600 0.8600 0.8590 0.8600 0.8590
1694.658961 0.8590 0.8570 0.8550 0.8550 0.8580
1699.748030 0.8580 0.8570 0.8560 0.8560 0.8560
1704.837099 0.8570 0.8570 0.8570 0.8570 0.8560
1709.926168 0.8560 0.8560 0.8510 0.8510 0.8540
1715.015237 0.8550 0.8560 0.8580 0.8580 0.8580
1720.104306 0.8590 0.8610 0.8610 0.8590 0.8560
1725.193375 0.8550 0.8540 0.8520 0.8510 0.8520
1730.282444 0.8530 0.8540 0.8550 0.8550 0.8550
1735.371513 0.8550 0.8550 0.8550 0.8540 0.8530
1740.460582 0.8520 0.8510 0.8510 0.8510 0.8510
1745.549651 0.8510 0.8520 0.8520 0.8540 0.8550
1750.638720 0.8550 0.8580 0.8590 0.8590 0.8590
1755.727789 0.8580 0.8580 0.8580 0.8580 0.8580
1760.816858 0.8600 0.8610 0.8600 0.8610 0.8620
1765.905927 0.8630 0.8640 0.8630 0.8630 0.8630
1770.994996 0.8640 0.8650 0.8650 0.8650 0.8660
1776.084065 0.8660 0.8660 0.8670 0.8670 0.8680
1781.173134 0.8690 0.8700 0.8700 0.8700 0.8700
1786.262203 0.8690 0.8680 0.8680 0.8680 0.8670
1791.351272 0.8670 0.8680 0.8680 0.8680 0.8680
1796.440341 0.8690 0.8710 0.8700 0.8690 0.8680
1801.529409 0.8660 0.8660 0.8650 0.8630 0.8650
1806.618478 0.8670 0.8670 0.8670 0.8670 0.8660
1811.707547 0.8650 0.8650 0.8650 0.8650 0.8650
1816.796616 0.8650 0.8650 0.8650 0.8650 0.8660
1821.885685 0.8670 0.8670 0.8670 0.8670 0.8690
1826.974754 0.8690 0.8680 0.8680 0.8670 0.8680
1832.063823 0.8680 0.8690 0.8680 0.8660 0.8650
1837.152892 0.8640 0.8650 0.8650 0.8650 0.8650
1842.241961 0.8650 0.8650 0.8650 0.8640 0.8620
1847.331030 0.8600 0.8590 0.8580 0.8580 0.8600
1852.420099 0.8600 0.8600 0.8590 0.8580 0.8560
1857.509168 0.8560 0.8560 0.8560 0.8550 0.8530
1862.598237 0.8510 0.8510 0.8510 0.8500 0.8500
1867.687306 0.8500 0.8500 0.8500 0.8500 0.8500
1872.776375 0.8490 0.8490 0.8500 0.8500 0.8500
1877.865444 0.8500 0.8500 0.8500 0.8510 0.8520
1882.954513 0.8530 0.8520 0.8520 0.8530 0.8530
1888.043582 0.8550 0.8550 0.8560 0.8560 0.8560
1893.132651 0.8560 0.8560 0.8570 0.8570 0.8570
1898.221720 0.8570 0.8560 0.8560 0.8570 0.8570
1903.310788 0.8560 0.8560 0.8560 0.8560 0.8560
1908.399857 0.8540 0.8530 0.8530 0.8540 0.8540
1913.488926 0.8560 0.8560 0.8560 0.8560 0.8550
1918.577995 0.8550 0.8550 0.8550 0.8550 0.8560
1923.667064 0.8560 0.8570 0.8590 0.8610 0.8620
1928.756133 0.8630 0.8620 0.8620 0.8610 0.8610
1933.845202 0.8610 0.8620 0.8630 0.8640 0.8650
1938.934271 0.8660 0.8660 0.8660 0.8670 0.8670
1944.023340 0.8670 0.8670 0.8680 0.8680 0.8690
1949.112409 0.8690 0.8680 0.8670 0.8660 0.8650
1954.201478 0.8650 0.8660 0.8680 0.8680 0.8670
1959.290547 0.8670 0.8660 0.8650 0.8660 0.8650
1964.379616 0.8640 0.8640 0.8640 0.8640 0.8640
1969.468685 0.8640 0.8630 0.8620 0.8610 0.8620
1974.557754 0.8620 0.8610 0.8610 0.8610 0.8610
1979.646823 0.8610 0.8610 0.8610 0.8600 0.8600
1984.735892 0.8600 0.8600 0.8600 0.8600 0.8600
1989.824961 0.8600 0.8600 0.8590 0.8600 0.8590
1994.914030 0.8580 0.8580 0.8580 0.8580 0.8590
2000.003099 0.8610 0.8655 0.8700 0.8690 0.8680
2005.092168 0.8675 0.8670 0.8660 0.8650 0.8645
2010.181236 0.8640 0.8630 0.8620 0.8605 0.8590
2015.270305 0.8575 0.8560 0.8555 0.8550 0.8545
2020.359374 0.8540 0.8540 0.8540 0.8540 0.8540
2025.448443 0.8540 0.8540 0.8545 0.8550 0.8550
2030.537512 0.8550 0.8560 0.8570 0.8570 0.8570
2035.626581 0.8565 0.8560 0.8555 0.8550 0.8545
2040.715650 0.8540 0.8540 0.8540 0.8535 0.8530
2045.804719 0.8530 0.8530 0.8530 0.8530 0.8525
2050.893788 0.8520 0.8525 0.8530 0.8535 0.8540
2055.982857 0.8545 0.8550 0.8560 0.8570 0.8580
2061.071926 0.8590 0.8595 0.8600 0.8600 0.8600
2066.160995 0.8600 0.8600 0.8610 0.8620 0.8630
2071.250064 0.8640 0.8640 0.8640 0.8650 0.8660
2076.339133 0.8665 0.8670 0.8675 0.8680 0.8680
2081.428202 0.8680 0.8680 0.8680 0.8675 0.8670
2086.517271 0.8665 0.8660 0.8660 0.8660 0.8655
2091.606340 0.8650 0.8650 0.8650 0.8650 0.8650
2096.695409 0.8655 0.8660 0.8660 0.8660 0.8670
2101.784478 0.8680 0.8685 0.8690 0.8690 0.8690
2106.873547 0.8690 0.8690 0.8690 0.8690 0.8685
2111.962615 0.8680 0.8680 0.8680 0.8690 0.8700
2117.051684 0.8700 0.8700 0.8705 0.8710 0.8705
2122.140753 0.8699 0.8689 0.8679 0.8669 0.8659
2127.229822 0.8644 0.8630 0.8630 0.8630 0.8625
2132.318891 0.8620 0.8620 0.8619 0.8609 0.8599
2137.407960 0.8579 0.8559 0.8549 0.8539 0.8524
2142.497029 0.8509 0.8499 0.8489 0.8479 0.8470
2147.586098 0.8465 0.8458 0.8433 0.8408 0.8378
2152.675167 0.8348 0.8318 0.8287 0.8247 0.8208
2157.764236 0.8178 0.8146 0.8086 0.8028 0.8003
2162.853305 0.7977 0.7937 0.7897 0.7868 0.7839
2167.942374 0.7829 0.7821 0.7831 0.7843 0.7878
2173.031443 0.7914 0.7959 0.8001 0.8016 0.8033
2178.120512 0.8078 0.8121 0.8136 0.8152 0.8172
2183.209581 0.8190 0.8195 0.8200 0.8200 0.8200
2188.298650 0.8195 0.8190 0.8190 0.8191 0.8201
2193.387719 0.8210 0.8215 0.8221 0.8236 0.8250
2198.476788 0.8255 0.8260 0.8265 0.8270 0.8275
2203.565857 0.8281 0.8291 0.8301 0.8311 0.8321
2208.654926 0.8326 0.8331 0.8341 0.8350 0.8356
2213.743994 0.8360 0.8366 0.8370 0.8370 0.8370
2218.833063 0.8370 0.8370 0.8375 0.8380 0.8380
2223.922132 0.8380 0.8380 0.8380 0.8380 0.8380
2229.011201 0.8380 0.8379 0.8374 0.8369 0.8364
2234.100270 0.8360 0.8360 0.8359 0.8354 0.8349
2239.189339 0.8339 0.8329 0.8324 0.8318 0.8303
2244.278408 0.8289 0.8284 0.8282 0.8297 0.8310
2249.367477 0.8310 0.8309 0.8304 0.8300 0.8300
2254.456546 0.8300 0.8300 0.8299 0.8294 0.8289
2259.545615 0.8284 0.8281 0.8286 0.8292 0.8307
2264.634684 0.8321 0.8331 0.8340 0.8340 0.8340
2269.723753 0.8340 0.8341 0.8351 0.8361 0.8371
2274.812822 0.8381 0.8391 0.8401 0.8406 0.8411
2279.901891 0.8421 0.8431 0.8441 0.8450 0.8450
2284.990960 0.8451 0.8456 0.8461 0.8466 0.8471
2290.080029 0.8476 0.8481 0.8486 0.8490 0.8490
2295.169098 0.8489 0.8484 0.8479 0.8474 0.8468
2300.258167 0.8453 0.8439 0.8429 0.8419 0.8414
2305.347236 0.8410 0.8410 0.8409 0.8404 0.8399
2310.436305 0.8394 0.8386 0.8361 0.8335 0.8305
2315.525374 0.8274 0.8234 0.8197 0.8177 0.8153
2320.614442 0.8108 0.8063 0.8013 0.7963 0.7918
2325.703511 0.7873 0.7833 0.7785 0.7695 0.7607
2330.792580 0.7527 0.7448 0.7373 0.7310 0.7310
2335.881649 0.7314 0.7339 0.7370 0.7430 0.7497
2340.970718 0.7602 0.7702 0.7777 0.7850 0.7916
2346.059787 0.7974 0.7999 0.8032 0.8102 0.8170
2351.148856 0.8225 0.8274 0.8299 0.8326 0.8361
2356.237925 0.8391 0.8396 0.8402 0.8412 0.8422
2361.326994 0.8432 0.8441 0.8446 0.8452 0.8462
2366.416063 0.8471 0.8476 0.8482 0.8492 0.8500
