##TITLE=PYRIMIDINE
##JCAMP-DX=4.24
##DATA TYPE=INFRARED SPECTRUM
##CLASS=COBLENTZ III
##ORIGIN=DOW CHEMICAL COMPANY
##OWNER=COBLENTZ SOCIETY
Collection (C) 2018 copyright by the U.S. Secretary of Commerce
on behalf of the United States of America. All rights reserved.
##DATE=1965/09/08
##CAS REGISTRY NO=289-95-2
##MOLFORM=C4 H4 N2
##SOURCE REFERENCE=COBLENTZ NO. 5683
##$NIST SOURCE=COBLENTZ
##$NIST IMAGE=cob5683
##SPECTROMETER/DATA SYSTEM=DOW KBr FOREPRISM-GRATING
##INSTRUMENT PARAMETERS=BLAZED AT 3.5, 12.0, 20.0 MICRON AND CHANGED AT 5.0, 7.5, 14.9 MICRON
##STATE=SOLUTION (10% IN CCl4 FOR 3800-1370, 10% IN CS2 FOR 1370-450 CM^-^1)
##PATH LENGTH=0.010 CM, 0.010 CM
$$SPECTRAL CONTAMINATION DUE TO H2O AROUND 3420 AND 3675 CM^-^1
##SAMPLING PROCEDURE=TRANSMISSION
##RESOLUTION=2
##DATA PROCESSING=DIGITIZED BY NIST FROM HARD COPY (FROM TWO SEGMENTS)
##XUNITS=1/CM
##YUNITS=TRANSMITTANCE
##XFACTOR=1.000000
##YFACTOR=1
##DELTAX=0.873109
##FIRSTX=443.248
##LASTX=3783.76
##FIRSTY=0.761
##MAXX=3783.76
##MINX=443.248
##MAXY=0.99
##MINY=5.48626e-006
##NPOINTS=3827
##XYDATA=(X++(Y..Y))
443.248000 0.7610 0.7620 0.7640 0.7650 0.7660
447.613546 0.7680 0.7690 0.7710 0.7610 0.7620
451.979093 0.7640 0.7650 0.7660 0.7680 0.7690
456.344639 0.7710 0.7720 0.7730 0.7750 0.7760
460.710185 0.7770 0.7800 0.7800 0.7810 0.7810
465.075731 0.7830 0.7830 0.7840 0.7870 0.7870
469.441278 0.7870 0.7870 0.7870 0.7870 0.7870
473.806824 0.7870 0.7870 0.7870 0.7880 0.7890
478.172370 0.7890 0.7890 0.7890 0.7890 0.7890
482.537916 0.7890 0.7890 0.7890 0.7890 0.7890
486.903463 0.7910 0.7910 0.7910 0.7910 0.7910
491.269009 0.7920 0.7950 0.7980 0.7990 0.8000
495.634555 0.8000 0.8020 0.8030 0.8040 0.8060
500.000101 0.8070 0.8070 0.8080 0.8080 0.8100
504.365648 0.8100 0.8110 0.8110 0.8130 0.8110
508.731194 0.8110 0.8130 0.8130 0.8130 0.8130
513.096740 0.8130 0.8140 0.8140 0.8140 0.8140
517.462286 0.8140 0.8150 0.8150 0.8150 0.8170
521.827833 0.8170 0.8170 0.8170 0.8170 0.8170
526.193379 0.8170 0.8170 0.8150 0.8150 0.8150
530.558925 0.8150 0.8150 0.8140 0.8140 0.8140
534.924471 0.8140 0.8140 0.8130 0.8110 0.8100
539.290018 0.8080 0.8070 0.8060 0.8040 0.8040
543.655564 0.8060 0.8070 0.8100 0.8100 0.8080
548.021110 0.8080 0.8070 0.8040 0.8030 0.7990
552.386656 0.7980 0.7990 0.8000 0.8000 0.8060
556.752203 0.8080 0.8100 0.8110 0.8170 0.8180
561.117749 0.8210 0.8220 0.8230 0.8250 0.8260
565.483295 0.8260 0.8270 0.8270 0.8270 0.8270
569.848841 0.8270 0.8290 0.8290 0.8290 0.8290
574.214388 0.8290 0.8290 0.8290 0.8290 0.8290
578.579934 0.8300 0.8300 0.8300 0.8300 0.8300
582.945480 0.8300 0.8300 0.8300 0.8300 0.8300
587.311026 0.8300 0.8300 0.8300 0.8300 0.8290
591.676573 0.8290 0.8290 0.8290 0.8290 0.8290
596.042119 0.8270 0.8260 0.8250 0.8230 0.8220
600.407665 0.8210 0.8180 0.8140 0.8130 0.8100
604.773211 0.8070 0.8040 0.7990 0.7920 0.7850
609.138758 0.7810 0.7680 0.7560 0.7450 0.7201
613.504304 0.6861 0.6701 0.6541 0.5933 0.5711
617.869850 0.4900 0.2662 0.1591 0.1311 0.1091
622.235396 0.1070 0.1080 0.2006 0.2936 0.3855
626.600943 0.4550 0.5240 0.5929 0.6609 0.6620
630.966489 0.6879 0.7010 0.7139 0.7369 0.7529
635.332035 0.7610 0.7690 0.7710 0.7720 0.7750
639.697581 0.7770 0.7790 0.7790 0.7790 0.7790
644.063128 0.7790 0.7770 0.7770 0.7760 0.7750
648.428674 0.7750 0.7730 0.7720 0.7720 0.7710
652.794220 0.7660 0.7650 0.7680 0.7730 0.7850
657.159767 0.7880 0.7920 0.7980 0.8000 0.8020
661.525313 0.8040 0.8070 0.8070 0.8070 0.8070
665.890859 0.8060 0.7990 0.7990 0.7841 0.7681
670.256405 0.7460 0.7340 0.7190 0.6890 0.6491
674.621952 0.5941 0.5671 0.5361 0.5131 0.5120
678.987498 0.5130 0.5620 0.6110 0.6589 0.6850
683.353044 0.7109 0.7260 0.7280 0.7350 0.7350
687.718590 0.7350 0.7340 0.7280 0.7260 0.7230
692.084137 0.7180 0.7110 0.6970 0.6850 0.6571
696.449683 0.6490 0.6420 0.6350 0.5880 0.5441
700.815229 0.5001 0.4761 0.4551 0.3843 0.3591
705.180775 0.3550 0.3500 0.3480 0.2910 0.2690
709.546322 0.1951 0.1721 0.1491 0.0852 0.0631
713.911868 0.0430 0.0160 0.0080 0.0000 0.0010
718.277414 0.0010 0.0020 0.0957 0.1887 0.1910
722.642960 0.2190 0.2460 0.2909 0.3339 0.3599
727.008507 0.4019 0.4429 0.4719 0.5317 0.5897
731.374053 0.6490 0.6700 0.6880 0.7050 0.7220
735.739599 0.7390 0.7729 0.7790 0.7800 0.7850
740.105145 0.7880 0.7880 0.7890 0.7890 0.7910
744.470692 0.8070 0.8229 0.8449 0.8480 0.8490
748.836238 0.8530 0.8570 0.8600 0.8630 0.8640
753.201784 0.8650 0.8650 0.8670 0.8680 0.8670
757.567330 0.8690 0.8690 0.8690 0.8710 0.8710
761.932877 0.8710 0.8720 0.8720 0.8730 0.8750
766.298423 0.8750 0.8730 0.8710 0.8690 0.8560
770.663969 0.8500 0.8500 0.8500 0.8530 0.8590
775.029515 0.8630 0.8650 0.8670 0.8680 0.8680
779.395062 0.8670 0.8650 0.8640 0.8600 0.8481
783.760608 0.8460 0.8400 0.8340 0.8290 0.8230
788.126154 0.7951 0.7751 0.7561 0.7351 0.7340
792.491700 0.7340 0.7340 0.7340 0.7330 0.7310
796.857247 0.7280 0.7260 0.6801 0.4877 0.4621
801.222793 0.4170 0.4140 0.4150 0.4370 0.4590
805.588339 0.4810 0.4940 0.5080 0.5708 0.6347
809.953885 0.6850 0.7050 0.7240 0.7600 0.7720
814.319432 0.7990 0.8060 0.8110 0.8170 0.8180
818.684978 0.8180 0.8170 0.8110 0.8100 0.8080
823.050524 0.8070 0.7980 0.7920 0.7910 0.7890
827.416070 0.7890 0.7790 0.7730 0.7560 0.7301
831.781617 0.7111 0.7080 0.7100 0.7160 0.7498
836.147163 0.7850 0.8210 0.8220 0.8230 0.8250
840.512709 0.8250 0.8250 0.8230 0.8220 0.8111
844.878256 0.8080 0.7980 0.7910 0.7890 0.7830
849.243802 0.7760 0.7690 0.7640 0.7610 0.7610
853.609348 0.7610 0.7610 0.7610 0.7640 0.7650
857.974894 0.7710 0.7720 0.7730 0.7840 0.7880
862.340441 0.7910 0.7910 0.7950 0.7980 0.8000
866.705987 0.8070 0.8080 0.8100 0.8110 0.8150
871.071533 0.8180 0.8190 0.8210 0.8220 0.8260
875.437079 0.8270 0.8290 0.8300 0.8310 0.8370
879.802626 0.8420 0.8500 0.8560 0.8590 0.8670
884.168172 0.8680 0.8710 0.8730 0.8860 0.8870
888.533718 0.8910 0.8940 0.8980 0.8990 0.9010
892.899264 0.9030 0.9060 0.9070 0.9090 0.9100
897.264811 0.9110 0.9130 0.9130 0.9130 0.9130
901.630357 0.9110 0.9100 0.9090 0.9070 0.9060
905.995903 0.8950 0.8870 0.8860 0.8870 0.8880
910.361449 0.8940 0.8980 0.8980 0.8990 0.9010
914.726996 0.9020 0.9060 0.9060 0.9060 0.9060
919.092542 0.9050 0.9030 0.9020 0.8970 0.8940
923.458088 0.8900 0.8870 0.8760 0.8690 0.8570
927.823634 0.8440 0.8271 0.8220 0.8260 0.8549
932.189181 0.8640 0.8870 0.8880 0.8900 0.8920
936.554727 0.8940 0.8950 0.8970 0.8980 0.8980
940.920273 0.8980 0.8980 0.8970 0.8950 0.8950
945.285819 0.8920 0.8920 0.8910 0.8910 0.8900
949.651366 0.8900 0.8880 0.8870 0.8860 0.8860
954.016912 0.8860 0.8860 0.8860 0.8860 0.8860
958.382458 0.8860 0.8860 0.8860 0.8860 0.8860
962.748004 0.8860 0.8860 0.8860 0.8860 0.8840
967.113551 0.8830 0.8820 0.8800 0.8780 0.8730
971.479097 0.8690 0.8680 0.8670 0.8570 0.8530
975.844643 0.8500 0.8480 0.8450 0.8410 0.8370
980.210189 0.7871 0.7611 0.7311 0.6931 0.5944
984.575736 0.5660 0.5350 0.4720 0.4410 0.4100
988.941282 0.4090 0.4100 0.5057 0.6007 0.6956
993.306828 0.7190 0.7420 0.7870 0.8080 0.8300
997.672374 0.8450 0.8490 0.8520 0.8550 0.8560
1002.037921 0.8590 0.8600 0.8610 0.8650 0.8650
1006.403467 0.8650 0.8650 0.8650 0.8650 0.8640
1010.769013 0.8610 0.8590 0.8550 0.8500 0.8480
1015.134559 0.8460 0.8400 0.8330 0.8290 0.8270
1019.500106 0.8180 0.7990 0.7920 0.7840 0.7760
1023.865652 0.7720 0.7600 0.7540 0.7410 0.7271
1028.231198 0.7199 0.6760 0.6590 0.6260 0.6230
1032.596744 0.6230 0.6240 0.6310 0.6569 0.6819
1036.962291 0.6920 0.6950 0.6960 0.6990 0.7010
1041.327837 0.7030 0.7040 0.7070 0.7100 0.7110
1045.693383 0.7140 0.7140 0.7120 0.7120 0.7140
1050.058930 0.7200 0.7240 0.7310 0.7370 0.7410
1054.424476 0.7410 0.7420 0.7410 0.7370 0.7340
1058.790022 0.7300 0.6951 0.6801 0.6491 0.6311
1063.155568 0.5980 0.5820 0.5660 0.4851 0.4660
1067.521115 0.4281 0.4250 0.4260 0.4280 0.4738
1071.886661 0.5181 0.6010 0.6820 0.6970 0.7120
1076.252207 0.7389 0.7599 0.7720 0.7760 0.7810
1080.617753 0.7890 0.7980 0.7980 0.8000 0.8020
1084.983300 0.8080 0.8100 0.8100 0.8080 0.8080
1089.348846 0.8080 0.8080 0.8100 0.8110 0.8140
1093.714392 0.8210 0.8290 0.8340 0.8400 0.8460
1098.079938 0.8480 0.8520 0.8550 0.8560 0.8570
1102.445485 0.8590 0.8590 0.8590 0.8590 0.8600
1106.811031 0.8610 0.8650 0.8650 0.8670 0.8670
1111.176577 0.8680 0.8680 0.8670 0.8690 0.8690
1115.542123 0.8710 0.8720 0.8720 0.8730 0.8720
1119.907670 0.8720 0.8690 0.8680 0.8670 0.8670
1124.273216 0.8650 0.8610 0.8570 0.8530 0.8490
1128.638762 0.8480 0.8380 0.8270 0.8170 0.7911
1133.004308 0.7730 0.7560 0.7160 0.7040 0.7040
1137.369855 0.7050 0.7259 0.7659 0.7919 0.7940
1141.735401 0.7940 0.7920 0.7920 0.7910 0.7840
1146.100947 0.7750 0.7640 0.7530 0.7410 0.7231
1150.466493 0.6910 0.6800 0.6570 0.6400 0.6260
1154.832040 0.5941 0.5790 0.5650 0.5481 0.5470
1159.197586 0.5480 0.5860 0.6230 0.6839 0.7299
1163.563132 0.7759 0.7940 0.8099 0.8220 0.8300
1167.928678 0.8340 0.8380 0.8460 0.8500 0.8530
1172.294225 0.8590 0.8640 0.8670 0.8680 0.8680
1176.659771 0.8680 0.8680 0.8680 0.8680 0.8710
1181.025317 0.8730 0.8750 0.8760 0.8760 0.8780
1185.390863 0.8780 0.8780 0.8760 0.8760 0.8760
1189.756410 0.8760 0.8760 0.8730 0.8680 0.8670
1194.121956 0.8670 0.8610 0.8570 0.8530 0.8490
1198.487502 0.8450 0.8400 0.8360 0.8300 0.8290
1202.853048 0.8270 0.8230 0.8190 0.8170 0.7990
1207.218595 0.7950 0.7910 0.7870 0.7661 0.7471
1211.584141 0.7280 0.7110 0.6740 0.6460 0.5791
1215.949687 0.5001 0.3942 0.2504 0.2370 0.2121
1220.315233 0.2100 0.2110 0.2330 0.2910 0.3480
1224.680780 0.4289 0.5088 0.5898 0.6698 0.7079
1229.046326 0.7460 0.7660 0.7840 0.8000 0.8310
1233.411872 0.8340 0.8370 0.8480 0.8480 0.8520
1237.777418 0.8530 0.8560 0.8560 0.8570 0.8590
1242.142965 0.8610 0.8630 0.8680 0.8680 0.8680
1246.508511 0.8690 0.8710 0.8720 0.8720 0.8750
1250.874057 0.8760 0.8760 0.8780 0.8790 0.8800
1255.239604 0.8820 0.8820 0.8830 0.8820 0.8820
1259.605150 0.8820 0.8820 0.8820 0.8820 0.8800
1263.970696 0.8800 0.8800 0.8820 0.8800 0.8790
1268.336242 0.8790 0.8780 0.8760 0.8730 0.8720
1272.701789 0.8690 0.8680 0.8670 0.8650 0.8570
1277.067335 0.8530 0.8480 0.8480 0.8480 0.8480
1281.432881 0.8550 0.8600 0.8600 0.8630 0.8670
1285.798427 0.8670 0.8670 0.8630 0.8610 0.8560
1290.163974 0.8490 0.8460 0.8400 0.8310 0.8290
1294.529520 0.8150 0.7980 0.7910 0.7790 0.7720
1298.895066 0.7519 0.6970 0.6350 0.5370 0.5350
1303.260612 0.5360 0.5420 0.5470 0.5520 0.5580
1307.626159 0.5860 0.5880 0.5890 0.5900 0.6000
1311.991705 0.6090 0.6260 0.6420 0.6570 0.6729
1316.357251 0.6920 0.7070 0.7200 0.7260 0.7380
1320.722797 0.7410 0.7410 0.7390 0.7380 0.7240
1325.088344 0.7220 0.7180 0.7160 0.7180 0.7260
1329.453890 0.7410 0.7600 0.7770 0.7890 0.7920
1333.819436 0.8020 0.8110 0.8190 0.8520 0.8670
1338.184982 0.8680 0.8720 0.8750 0.8780 0.8800
1342.550529 0.8820 0.8820 0.8820 0.8820 0.8800
1346.916075 0.8780 0.8760 0.8710 0.8670 0.8630
1351.281621 0.8570 0.8550 0.8520 0.8500 0.8500
1355.647167 0.8500 0.8490 0.8480 0.8360 0.8310
1360.012714 0.8230 0.8140 0.8110 0.8100 0.7990
1364.378260 0.7940 0.7850 0.7840 0.7850 0.7880
1368.743806 0.7910 0.7910 0.7840 0.7680 0.7580
1373.109352 0.7460 0.7340 0.7230 0.6991 0.6880
1377.474899 0.6760 0.6630 0.6530 0.6400 0.6280
1381.840445 0.5881 0.5730 0.5580 0.5431 0.4952
1386.205991 0.4790 0.4630 0.4440 0.3870 0.3600
1390.571537 0.2711 0.2431 0.1772 0.1591 0.1421
1394.937084 0.1240 0.0900 0.0730 0.0350 0.0180
1399.302630 0.0040 0.0020 0.0020 0.0279 0.0539
1403.668176 0.0790 0.0930 0.1050 0.1310 0.1860
1408.033722 0.2419 0.3139 0.3858 0.4568 0.5277
1412.399269 0.5660 0.5920 0.6160 0.6760 0.6910
1416.764815 0.7050 0.7110 0.7459 0.7600 0.7620
1421.130361 0.7680 0.7710 0.7710 0.7690 0.7650
1425.495907 0.7580 0.7520 0.7460 0.7330 0.7220
1429.861454 0.6610 0.6460 0.6320 0.6170 0.6160
1434.227000 0.6170 0.6340 0.6500 0.6759 0.6999
1438.592546 0.7880 0.8000 0.8110 0.8180 0.8170
1442.958092 0.8170 0.8150 0.8140 0.8140 0.8130
1447.323639 0.8130 0.8130 0.8110 0.7990 0.7870
1451.689185 0.7750 0.7650 0.7600 0.7560 0.7500
1456.054731 0.7460 0.6890 0.6770 0.6610 0.5601
1460.420278 0.4712 0.2925 0.1963 0.1173 0.1150
1464.785824 0.1161 0.1950 0.2580 0.3220 0.3839
1469.151370 0.4529 0.5208 0.5898 0.6578 0.6590
1473.516916 0.6690 0.6800 0.6910 0.7000 0.7100
1477.882463 0.7150 0.7230 0.7230 0.6971 0.6860
1482.248009 0.6730 0.6540 0.6460 0.6440 0.6460
1486.613555 0.6949 0.7120 0.7300 0.7878 0.7990
1490.979101 0.8100 0.8140 0.8150 0.8150 0.8140
1495.344648 0.8130 0.8110 0.8110 0.8080 0.7980
1499.710194 0.7920 0.7870 0.7830 0.7790 0.7750
1504.075740 0.7730 0.7640 0.7570 0.7470 0.7410
1508.441286 0.7390 0.7350 0.7300 0.7230 0.7190
1512.806833 0.7110 0.7100 0.7080 0.7070 0.6970
1517.172379 0.6920 0.6910 0.6860 0.6820 0.6740
1521.537925 0.6720 0.6630 0.6620 0.6590 0.6530
1525.903471 0.6500 0.6470 0.6440 0.6420 0.6340
1530.269018 0.6260 0.6190 0.6120 0.5791 0.5730
1534.634564 0.5660 0.5590 0.5520 0.5440 0.5400
1539.000110 0.5310 0.5230 0.4791 0.4591 0.4480
1543.365656 0.4300 0.4249 0.3830 0.3710 0.3600
1547.731203 0.3490 0.3370 0.3260 0.3150 0.2921
1552.096749 0.2810 0.2580 0.2390 0.2220 0.1880
1556.462295 0.1680 0.1440 0.0981 0.0751 0.0521
1560.827841 0.0060 0.0040 0.0040 0.0040 0.0040
1565.193388 0.0040 0.0040 0.0040 0.0040 0.0020
1569.558934 0.0040 0.0040 0.0040 0.0040 0.0060
1573.924480 0.0270 0.0480 0.0699 0.0919 0.1040
1578.290026 0.1151 0.1820 0.1850 0.1860 0.1890
1582.655573 0.1910 0.1930 0.1950 0.2000 0.2050
1587.021119 0.2160 0.2270 0.2380 0.2920 0.3459
1591.386665 0.4009 0.4549 0.4909 0.5279 0.5509
1595.752211 0.5750 0.5920 0.6020 0.6120 0.6280
1600.117758 0.6430 0.6590 0.6760 0.6890 0.6920
1604.483304 0.6960 0.6970 0.6970 0.6960 0.6910
1608.848850 0.6770 0.6620 0.6470 0.5971 0.5940
1613.214396 0.5960 0.6010 0.6070 0.6160 0.6989
1617.579943 0.7190 0.7390 0.7570 0.7730 0.7909
1621.945489 0.7980 0.8030 0.8130 0.8190 0.8300
1626.311035 0.8310 0.8340 0.8400 0.8460 0.8490
1630.676581 0.8520 0.8570 0.8600 0.8600 0.8640
1635.042128 0.8690 0.8690 0.8710 0.8730 0.8760
1639.407674 0.8790 0.8790 0.8790 0.8800 0.8820
1643.773220 0.8830 0.8840 0.8860 0.8870 0.8880
1648.138767 0.8880 0.8880 0.8880 0.8880 0.8880
1652.504313 0.8880 0.8880 0.8880 0.8880 0.8880
1656.869859 0.8880 0.8880 0.8880 0.8880 0.8880
1661.235405 0.8870 0.8860 0.8830 0.8800 0.8760
1665.600952 0.8710 0.8680 0.8610 0.8590 0.8570
1669.966498 0.8570 0.8590 0.8640 0.8670 0.8680
1674.332044 0.8690 0.8730 0.8790 0.8880 0.8910
1678.697590 0.8990 0.9020 0.9030 0.9110 0.9140
1683.063137 0.9170 0.9180 0.9200 0.9210 0.9220
1687.428683 0.9240 0.9220 0.9220 0.9210 0.9180
1691.794229 0.9140 0.9140 0.9140 0.9170 0.9200
1696.159775 0.9220 0.9250 0.9320 0.9330 0.9400
1700.525322 0.9440 0.9480 0.9510 0.9530 0.9520
1704.890868 0.9550 0.9560 0.9600 0.9620 0.9620
1709.256414 0.9630 0.9630 0.9670 0.9680 0.9680
1713.621960 0.9680 0.9700 0.9700 0.9700 0.9700
1717.987507 0.9700 0.9700 0.9700 0.9700 0.9700
1722.353053 0.9700 0.9700 0.9700 0.9700 0.9700
1726.718599 0.9700 0.9700 0.9700 0.9700 0.9680
1731.084145 0.9680 0.9680 0.9680 0.9680 0.9680
1735.449692 0.9680 0.9660 0.9660 0.9640 0.9630
1739.815238 0.9620 0.9570 0.9530 0.9520 0.9510
1744.180784 0.9510 0.9490 0.9490 0.9520 0.9520
1748.546330 0.9520 0.9520 0.9530 0.9550 0.9550
1752.911877 0.9480 0.9450 0.9430 0.9400 0.9330
1757.277423 0.9320 0.9280 0.9220 0.9220 0.9250
1761.642969 0.9250 0.9260 0.9260 0.9290 0.9330
1766.008515 0.9390 0.9410 0.9440 0.9440 0.9430
1770.374062 0.9430 0.9400 0.9370 0.9340 0.9330
1774.739608 0.9300 0.9290 0.9280 0.9290 0.9320
1779.105154 0.9330 0.9340 0.9340 0.9320 0.9320
1783.470700 0.9300 0.9300 0.9290 0.9290 0.9300
1787.836247 0.9320 0.9340 0.9390 0.9430 0.9450
1792.201793 0.9490 0.9520 0.9530 0.9550 0.9560
1796.567339 0.9590 0.9620 0.9630 0.9630 0.9660
1800.932885 0.9680 0.9700 0.9700 0.9700 0.9700
1805.298432 0.9700 0.9680 0.9680 0.9680 0.9670
1809.663978 0.9670 0.9670 0.9640 0.9620 0.9620
1814.029524 0.9600 0.9590 0.9570 0.9570 0.9570
1818.395070 0.9570 0.9570 0.9570 0.9570 0.9560
1822.760617 0.9560 0.9560 0.9550 0.9550 0.9530
1827.126163 0.9530 0.9520 0.9490 0.9480 0.9450
1831.491709 0.9450 0.9480 0.9490 0.9510 0.9510
1835.857255 0.9520 0.9520 0.9550 0.9560 0.9570
1840.222802 0.9590 0.9600 0.9640 0.9660 0.9660
1844.588348 0.9660 0.9660 0.9660 0.9660 0.9660
1848.953894 0.9660 0.9660 0.9670 0.9680 0.9680
1853.319441 0.9670 0.9670 0.9660 0.9660 0.9640
1857.684987 0.9630 0.9620 0.9620 0.9620 0.9620
1862.050533 0.9660 0.9660 0.9680 0.9680 0.9700
1866.416079 0.9710 0.9710 0.9720 0.9740 0.9740
1870.781626 0.9750 0.9750 0.9750 0.9750 0.9750
1875.147172 0.9750 0.9750 0.9750 0.9750 0.9750
1879.512718 0.9750 0.9750 0.9750 0.9750 0.9750
1883.878264 0.9750 0.9750 0.9750 0.9750 0.9750
1888.243811 0.9740 0.9740 0.9740 0.9740 0.9740
1892.609357 0.9700 0.9680 0.9680 0.9680 0.9660
1896.974903 0.9660 0.9640 0.9630 0.9630 0.9630
1901.340449 0.9620 0.9600 0.9600 0.9590 0.9570
1905.705996 0.9560 0.9560 0.9550 0.9550 0.9550
1910.071542 0.9550 0.9550 0.9590 0.9620 0.9620
1914.437088 0.9630 0.9630 0.9640 0.9640 0.9660
1918.802634 0.9660 0.9670 0.9670 0.9670 0.9660
1923.168181 0.9660 0.9640 0.9630 0.9620 0.9620
1927.533727 0.9600 0.9570 0.9560 0.9550 0.9530
1931.899273 0.9520 0.9490 0.9470 0.9450 0.9440
1936.264819 0.9430 0.9400 0.9390 0.9370 0.9360
1940.630366 0.9340 0.9320 0.9250 0.9210 0.9140
1944.995912 0.8990 0.8920 0.8900 0.8780 0.8720
1949.361458 0.8680 0.8530 0.8370 0.8260 0.8150
1953.727004 0.8040 0.8040 0.8040 0.8110 0.8220
1958.092551 0.8410 0.8500 0.8570 0.8760 0.8800
1962.458097 0.8840 0.8880 0.8990 0.9100 0.9110
1966.823643 0.9110 0.9140 0.9150 0.9150 0.9140
1971.189189 0.9130 0.9100 0.8970 0.8920 0.8910
1975.554736 0.8860 0.8820 0.8790 0.8750 0.8720
1979.920282 0.8720 0.8760 0.8870 0.8970 0.9050
1984.285828 0.9110 0.9130 0.9200 0.9220 0.9300
1988.651374 0.9330 0.9360 0.9390 0.9410 0.9440
1993.016921 0.9450 0.9440 0.9360 0.9290 0.9280
1997.382467 0.9290 0.9330 0.9390 0.9440 0.9455
2001.748013 0.9471 0.9496 0.9521 0.9536 0.9550
2006.113559 0.9550 0.9550 0.9556 0.9561 0.9566
2010.479106 0.9572 0.9587 0.9602 0.9612 0.9622
2014.844652 0.9632 0.9640 0.9640 0.9642 0.9652
2019.210198 0.9660 0.9660 0.9660 0.9660 0.9660
2023.575744 0.9660 0.9660 0.9660 0.9660 0.9660
2027.941291 0.9662 0.9667 0.9670 0.9670 0.9672
2032.306837 0.9677 0.9680 0.9680 0.9685 0.9695
2036.672383 0.9695 0.9685 0.9685 0.9695 0.9703
2041.037929 0.9708 0.9710 0.9710 0.9710 0.9710
2045.403476 0.9710 0.9710 0.9710 0.9710 0.9713
2049.769022 0.9718 0.9720 0.9720 0.9720 0.9720
2054.134568 0.9720 0.9720 0.9720 0.9720 0.9728
2058.500115 0.9738 0.9740 0.9740 0.9740 0.9740
2062.865661 0.9740 0.9740 0.9740 0.9740 0.9744
2067.231207 0.9749 0.9750 0.9750 0.9750 0.9750
2071.596753 0.9750 0.9750 0.9750 0.9750 0.9750
2075.962300 0.9750 0.9750 0.9750 0.9750 0.9750
2080.327846 0.9750 0.9750 0.9750 0.9750 0.9750
2084.693392 0.9750 0.9750 0.9750 0.9750 0.9750
2089.058938 0.9750 0.9750 0.9750 0.9749 0.9744
2093.424485 0.9740 0.9740 0.9740 0.9740 0.9740
2097.790031 0.9740 0.9737 0.9727 0.9720 0.9720
2102.155577 0.9720 0.9720 0.9720 0.9720 0.9724
2106.521123 0.9734 0.9742 0.9747 0.9752 0.9757
2110.886670 0.9760 0.9760 0.9765 0.9775 0.9780
2115.252216 0.9780 0.9780 0.9780 0.9780 0.9780
2119.617762 0.9780 0.9780 0.9780 0.9780 0.9773
2123.983308 0.9763 0.9760 0.9760 0.9742 0.9717
2128.348855 0.9710 0.9710 0.9706 0.9701 0.9692
2132.714401 0.9682 0.9672 0.9662 0.9644 0.9624
2137.079947 0.9620 0.9620 0.9607 0.9592 0.9577
2141.445493 0.9561 0.9537 0.9512 0.9496 0.9481
2145.811040 0.9475 0.9470 0.9475 0.9480 0.9515
2150.176586 0.9551 0.9586 0.9621 0.9651 0.9682
2154.542132 0.9712 0.9740 0.9740 0.9741 0.9751
2158.907678 0.9760 0.9760 0.9762 0.9772 0.9781
2163.273225 0.9786 0.9790 0.9790 0.9792 0.9802
2167.638771 0.9811 0.9816 0.9820 0.9820 0.9820
2172.004317 0.9820 0.9820 0.9820 0.9820 0.9820
2176.369863 0.9820 0.9820 0.9820 0.9820 0.9820
2180.735410 0.9820 0.9820 0.9820 0.9820 0.9820
2185.100956 0.9820 0.9820 0.9817 0.9812 0.9810
2189.466502 0.9810 0.9810 0.9810 0.9804 0.9794
2193.832048 0.9790 0.9790 0.9790 0.9790 0.9787
2198.197595 0.9782 0.9780 0.9780 0.9780 0.9780
2202.563141 0.9780 0.9780 0.9773 0.9762 0.9760
2206.928687 0.9760 0.9760 0.9760 0.9743 0.9723
