##TITLE=METHANE, TRIBROMOFLUORO-
##JCAMP-DX=4.24
##DATA TYPE=INFRARED SPECTRUM
##CLASS=COBLENTZ III
##ORIGIN=DOW CHEMICAL COMPANY
##OWNER=COBLENTZ SOCIETY
Collection (C) 2018 copyright by the U.S. Secretary of Commerce
on behalf of the United States of America. All rights reserved.
##DATE=1965/07/09
##NAMES=tribromo(fluoro)methane
##CAS REGISTRY NO=353-54-8
##MOLFORM=C Br3 F
##SOURCE REFERENCE=COBLENTZ NO. 10024
##$NIST SOURCE=COBLENTZ
##$NIST IMAGE=cob10024
##SPECTROMETER/DATA SYSTEM=DOW KBr FOREPRISM-GRATING
##INSTRUMENT PARAMETERS=BLAZED AT 3.5, 12.0, 20.0 MICRON, CHANGED AT 5.0, 7.5, 14.9 MICRON
##STATE=SOLUTION (10% IN CCl4 FOR 3800-1330, AND 10% IN CS2 FOR 1330-460 CM^-^1)
##PATH LENGTH=0.011, 0.011 CM
$$SPECTRAL CONTAMINATION DUE TO CCl4 AROUND 1550, AND CS2 AROUND 855 CM^-^1
##SAMPLING PROCEDURE=TRANSMISSION
##RESOLUTION=4
##DATA PROCESSING=DIGITIZED BY NIST FROM HARD COPY (FROM TWO SEGMENTS)
##XUNITS=1/CM
##YUNITS=TRANSMITTANCE
##XFACTOR=1.000000
##YFACTOR=1
##DELTAX=0.870040
##FIRSTX=455.682
##LASTX=3794.02
##FIRSTY=0.855
##MAXX=3794.02
##MINX=455.682
##MAXY=0.997942
##MINY=0
##NPOINTS=3838
##XYDATA=(X++(Y..Y))
455.682000 0.8550 0.8550 0.8560 0.8560 0.8580
460.032199 0.8590 0.8600 0.8630 0.8660 0.8660
464.382398 0.8660 0.8670 0.8680 0.8700 0.8700
468.732597 0.8710 0.8710 0.8720 0.8740 0.8740
473.082796 0.8750 0.8770 0.8770 0.8780 0.8790
477.432995 0.8790 0.8810 0.8810 0.8810 0.8820
481.783194 0.8830 0.8860 0.8860 0.8860 0.8860
486.133393 0.8870 0.8870 0.8870 0.8890 0.8890
490.483592 0.8890 0.8910 0.8910 0.8930 0.8930
494.833791 0.8940 0.8950 0.8970 0.8970 0.8980
499.183990 0.8980 0.8980 0.9000 0.8980 0.8980
503.534189 0.8980 0.8980 0.8970 0.8970 0.8950
507.884388 0.8950 0.8950 0.8950 0.8940 0.8930
512.234587 0.8910 0.8890 0.8870 0.8860 0.8810
516.584786 0.8790 0.8790 0.8770 0.8770 0.8750
520.934985 0.8740 0.8740 0.8740 0.8750 0.8770
525.285184 0.8810 0.8860 0.8890 0.8940 0.8970
529.635383 0.9000 0.9010 0.9060 0.9080 0.9080
533.985582 0.9080 0.9080 0.9080 0.9080 0.9090
538.335781 0.9090 0.9090 0.9100 0.9120 0.9120
542.685980 0.9120 0.9120 0.9100 0.9100 0.9100
547.036179 0.9130 0.9130 0.9140 0.9160 0.9170
551.386378 0.9200 0.9200 0.9200 0.9210 0.9210
555.736577 0.9220 0.9220 0.9240 0.9250 0.9270
560.086776 0.9270 0.9250 0.9270 0.9270 0.9270
564.436975 0.9250 0.9250 0.9270 0.9270 0.9270
568.787174 0.9280 0.9270 0.9270 0.9270 0.9250
573.137373 0.9250 0.9250 0.9250 0.9270 0.9270
577.487572 0.9270 0.9270 0.9270 0.9290 0.9290
581.837771 0.9270 0.9270 0.9270 0.9270 0.9270
586.187970 0.9270 0.9240 0.9220 0.9220 0.9220
590.538169 0.9240 0.9250 0.9270 0.9270 0.9270
594.888368 0.9280 0.9280 0.9280 0.9290 0.9290
599.238567 0.9290 0.9290 0.9290 0.9280 0.9270
603.588766 0.9270 0.9220 0.9210 0.9200 0.9180
607.938965 0.9180 0.9180 0.9180 0.9180 0.9180
612.289164 0.9180 0.9180 0.9200 0.9220 0.9270
616.639363 0.9270 0.9280 0.9280 0.9280 0.9280
620.989562 0.9280 0.9290 0.9290 0.9290 0.9290
625.339761 0.9290 0.9280 0.9270 0.9250 0.9250
629.689960 0.9250 0.9280 0.9280 0.9270 0.9220
634.040159 0.9210 0.9200 0.9180 0.9170 0.9160
638.390358 0.9140 0.9120 0.9090 0.9060 0.9060
642.740557 0.9020 0.9000 0.8950 0.8940 0.8910
647.090756 0.8900 0.8870 0.8860 0.8850 0.8850
651.440955 0.8830 0.8820 0.8810 0.8810 0.8810
655.791154 0.8830 0.8860 0.8870 0.8900 0.8930
660.141353 0.8940 0.8950 0.8970 0.8980 0.9000
664.491552 0.9010 0.9010 0.9010 0.8980 0.8970
668.841751 0.8950 0.8940 0.8940 0.8980 0.9020
673.191950 0.9060 0.9060 0.9080 0.9060 0.9050
677.542149 0.9050 0.9010 0.9000 0.8940 0.8890
681.892348 0.8850 0.8810 0.8770 0.8660 0.8540
686.242547 0.8440 0.8270 0.8101 0.7941 0.7671
690.592746 0.7330 0.6910 0.6521 0.6201 0.5552
694.942945 0.5052 0.4024 0.3861 0.3671 0.3481
699.293144 0.3120 0.3090 0.3100 0.3410 0.3709
703.643343 0.4019 0.4708 0.5268 0.5867 0.6507
707.993542 0.6950 0.7370 0.7470 0.7520 0.7500
712.343741 0.7470 0.7390 0.7171 0.7050 0.7020
716.693940 0.6980 0.6970 0.6940 0.6910 0.6820
721.044139 0.6561 0.6161 0.5941 0.5542 0.5053
725.394338 0.4240 0.3400 0.3200 0.3000 0.2221
729.744537 0.1133 0.0143 0.0060 0.0020 0.0010
734.094736 0.0000 0.0000 0.0010 0.0010 0.0020
738.444935 0.0050 0.0050 0.0060 0.0060 0.0080
742.795134 0.0120 0.0210 0.0620 0.1099 0.1330
747.145333 0.2008 0.2558 0.3198 0.3847 0.4477
751.495532 0.5010 0.5640 0.5930 0.6290 0.6709
755.845731 0.6999 0.7289 0.7499 0.7699 0.7810
760.195930 0.8050 0.8210 0.8320 0.8440 0.8470
764.546129 0.8520 0.8600 0.8670 0.8720 0.8770
768.896327 0.8810 0.8830 0.8890 0.8950 0.9000
773.246526 0.9010 0.9060 0.9080 0.9120 0.9140
777.596725 0.9180 0.9210 0.9250 0.9270 0.9280
781.946924 0.9280 0.9280 0.9290 0.9290 0.9290
786.297123 0.9290 0.9290 0.9290 0.9310 0.9310
790.647322 0.9330 0.9360 0.9360 0.9350 0.9350
794.997521 0.9360 0.9390 0.9400 0.9400 0.9400
799.347720 0.9400 0.9430 0.9400 0.9400 0.9400
803.697919 0.9400 0.9410 0.9430 0.9430 0.9430
808.048118 0.9430 0.9430 0.9430 0.9480 0.9510
812.398317 0.9520 0.9510 0.9500 0.9500 0.9500
816.748516 0.9500 0.9500 0.9500 0.9500 0.9500
821.098715 0.9500 0.9500 0.9480 0.9480 0.9480
825.448914 0.9480 0.9440 0.9440 0.9430 0.9410
829.799113 0.9410 0.9410 0.9400 0.9390 0.9360
834.149312 0.9320 0.9280 0.9210 0.9160 0.9130
838.499511 0.9090 0.9050 0.9000 0.8900 0.8850
842.849710 0.8780 0.8710 0.8680 0.8580 0.8470
847.199909 0.8320 0.8180 0.8080 0.7980 0.7910
851.550108 0.7860 0.7820 0.7810 0.7790 0.7790
855.900307 0.7820 0.7820 0.7860 0.7910 0.7940
860.250506 0.7940 0.7970 0.8000 0.8020 0.8080
864.600705 0.8130 0.8200 0.8250 0.8270 0.8280
868.950904 0.8290 0.8330 0.8370 0.8440 0.8480
873.301103 0.8500 0.8520 0.8550 0.8590 0.8640
877.651302 0.8640 0.8670 0.8700 0.8740 0.8780
882.001501 0.8830 0.8860 0.8900 0.8970 0.9050
886.351700 0.9080 0.9100 0.9160 0.9180 0.9210
890.701899 0.9240 0.9280 0.9350 0.9360 0.9370
895.052098 0.9390 0.9400 0.9430 0.9430 0.9440
899.402297 0.9440 0.9440 0.9440 0.9440 0.9440
903.752496 0.9450 0.9470 0.9470 0.9480 0.9500
908.102695 0.9500 0.9510 0.9520 0.9520 0.9540
912.452894 0.9540 0.9550 0.9560 0.9560 0.9560
916.803093 0.9580 0.9590 0.9590 0.9600 0.9620
921.153292 0.9600 0.9600 0.9600 0.9620 0.9620
925.503491 0.9600 0.9600 0.9600 0.9600 0.9600
929.853690 0.9620 0.9620 0.9620 0.9630 0.9630
934.203889 0.9620 0.9620 0.9620 0.9590 0.9580
938.554088 0.9580 0.9620 0.9630 0.9620 0.9600
942.904287 0.9590 0.9580 0.9560 0.9540 0.9510
947.254486 0.9480 0.9410 0.9390 0.9370 0.9360
951.604685 0.9330 0.9330 0.9350 0.9360 0.9370
955.954884 0.9430 0.9480 0.9510 0.9540 0.9560
960.305083 0.9590 0.9620 0.9670 0.9670 0.9660
964.655282 0.9640 0.9640 0.9660 0.9660 0.9660
969.005481 0.9640 0.9640 0.9660 0.9700 0.9710
973.355680 0.9710 0.9700 0.9700 0.9670 0.9670
977.705879 0.9670 0.9670 0.9670 0.9670 0.9680
982.056078 0.9680 0.9680 0.9680 0.9670 0.9660
986.406277 0.9660 0.9660 0.9660 0.9670 0.9670
990.756476 0.9660 0.9640 0.9630 0.9630 0.9620
995.106675 0.9600 0.9600 0.9590 0.9580 0.9560
999.456874 0.9560 0.9560 0.9560 0.9550 0.9520
1003.807073 0.9510 0.9510 0.9500 0.9500 0.9480
1008.157272 0.9480 0.9480 0.9470 0.9450 0.9430
1012.507471 0.9390 0.9350 0.9320 0.9280 0.9250
1016.857670 0.9160 0.9090 0.9060 0.8970 0.8851
1021.207869 0.8680 0.8620 0.8510 0.8440 0.8310
1025.558068 0.8250 0.8100 0.7911 0.7721 0.7551
1029.908267 0.7350 0.7160 0.6930 0.6710 0.6510
1034.258466 0.6291 0.6001 0.5591 0.5022 0.4672
1038.608665 0.4350 0.3980 0.3450 0.3020 0.2551
1042.958864 0.2430 0.2141 0.1871 0.1601 0.1281
1047.309063 0.1080 0.1020 0.0600 0.0370 0.0240
1051.659262 0.0200 0.0180 0.0170 0.0180 0.0220
1056.009461 0.0320 0.0450 0.0590 0.0750 0.1249
1060.359660 0.1829 0.2478 0.3128 0.3767 0.4308
1064.709859 0.4820 0.5220 0.5720 0.6130 0.6480
1069.060058 0.6769 0.7129 0.7429 0.7779 0.7949
1073.410257 0.7980 0.8120 0.8280 0.8470 0.8620
1077.760456 0.8700 0.8780 0.8860 0.8930 0.9000
1082.110655 0.9060 0.9120 0.9160 0.9210 0.9270
1086.460854 0.9280 0.9290 0.9310 0.9310 0.9320
1090.811053 0.9370 0.9400 0.9410 0.9410 0.9430
1095.161252 0.9430 0.9450 0.9500 0.9500 0.9510
1099.511451 0.9510 0.9520 0.9550 0.9560 0.9590
1103.861650 0.9590 0.9580 0.9560 0.9580 0.9580
1108.211849 0.9580 0.9580 0.9590 0.9590 0.9590
1112.562048 0.9590 0.9600 0.9600 0.9600 0.9600
1116.912247 0.9600 0.9620 0.9620 0.9590 0.9590
1121.262446 0.9600 0.9620 0.9630 0.9630 0.9620
1125.612645 0.9590 0.9580 0.9580 0.9580 0.9560
1129.962844 0.9560 0.9550 0.9520 0.9500 0.9450
1134.313043 0.9440 0.9410 0.9390 0.9370 0.9360
1138.663242 0.9350 0.9350 0.9350 0.9350 0.9390
1143.013441 0.9480 0.9510 0.9550 0.9560 0.9590
1147.363640 0.9590 0.9600 0.9630 0.9640 0.9640
1151.713839 0.9640 0.9630 0.9630 0.9630 0.9640
1156.064038 0.9660 0.9660 0.9660 0.9660 0.9670
1160.414237 0.9670 0.9670 0.9670 0.9660 0.9660
1164.764436 0.9660 0.9660 0.9670 0.9670 0.9670
1169.114635 0.9660 0.9660 0.9660 0.9660 0.9660
1173.464834 0.9660 0.9660 0.9660 0.9670 0.9620
1177.815033 0.9520 0.9470 0.9440 0.9480 0.9520
1182.165232 0.9600 0.9660 0.9660 0.9680 0.9700
1186.515431 0.9710 0.9710 0.9710 0.9710 0.9710
1190.865630 0.9720 0.9710 0.9710 0.9700 0.9700
1195.215829 0.9700 0.9710 0.9710 0.9710 0.9710
1199.566028 0.9710 0.9710 0.9680 0.9670 0.9660
1203.916227 0.9660 0.9670 0.9670 0.9680 0.9680
1208.266426 0.9680 0.9680 0.9680 0.9720 0.9720
1212.616625 0.9740 0.9750 0.9750 0.9750 0.9750
1216.966824 0.9750 0.9750 0.9750 0.9750 0.9750
1221.317023 0.9740 0.9770 0.9780 0.9780 0.9780
1225.667222 0.9770 0.9750 0.9750 0.9750 0.9750
1230.017421 0.9750 0.9750 0.9780 0.9770 0.9770
1234.367620 0.9750 0.9720 0.9720 0.9710 0.9680
1238.717819 0.9680 0.9700 0.9700 0.9680 0.9660
1243.068018 0.9660 0.9660 0.9640 0.9620 0.9620
1247.418217 0.9600 0.9590 0.9580 0.9580 0.9580
1251.768416 0.9560 0.9560 0.9560 0.9560 0.9540
1256.118615 0.9540 0.9540 0.9520 0.9520 0.9520
1260.468814 0.9520 0.9520 0.9540 0.9540 0.9550
1264.819013 0.9550 0.9560 0.9580 0.9590 0.9590
1269.169212 0.9590 0.9580 0.9580 0.9550 0.9550
1273.519411 0.9550 0.9550 0.9560 0.9560 0.9560
1277.869610 0.9560 0.9580 0.9580 0.9580 0.9580
1282.219809 0.9590 0.9590 0.9590 0.9590 0.9600
1286.570008 0.9600 0.9600 0.9600 0.9620 0.9620
1290.920207 0.9620 0.9620 0.9630 0.9630 0.9630
1295.270406 0.9630 0.9640 0.9640 0.9640 0.9640
1299.620605 0.9660 0.9660 0.9660 0.9660 0.9660
1303.970804 0.9660 0.9660 0.9660 0.9660 0.9670
1308.321003 0.9670 0.9670 0.9670 0.9670 0.9680
1312.671202 0.9680 0.9680 0.9680 0.9680 0.9680
1317.021401 0.9700 0.9700 0.9700 0.9700 0.9700
1321.371600 0.9700 0.9710 0.9710 0.9710 0.9710
1325.721799 0.9710 0.9710 0.9720 0.9720 0.9720
1330.071998 0.9720 0.9720 0.9720 0.9740 0.9740
1334.422197 0.9740 0.9740 0.9740 0.9740 0.9740
1338.772396 0.9740 0.9740 0.9740 0.9720 0.9720
1343.122595 0.9710 0.9680 0.9670 0.9660 0.9640
1347.472794 0.9630 0.9620 0.9590 0.9560 0.9520
1351.822993 0.9450 0.9410 0.9390 0.9360 0.9350
1356.173192 0.9330 0.9330 0.9330 0.9330 0.9350
1360.523391 0.9360 0.9360 0.9390 0.9410 0.9410
1364.873590 0.9440 0.9450 0.9470 0.9500 0.9510
1369.223789 0.9520 0.9520 0.9540 0.9550 0.9560
1373.573988 0.9580 0.9590 0.9590 0.9620 0.9620
1377.924187 0.9620 0.9630 0.9630 0.9640 0.9680
1382.274386 0.9720 0.9770 0.9770 0.9770 0.9750
1386.624585 0.9740 0.9720 0.9720 0.9720 0.9720
1390.974783 0.9710 0.9710 0.9710 0.9700 0.9700
1395.324982 0.9700 0.9720 0.9720 0.9720 0.9720
1399.675181 0.9720 0.9720 0.9740 0.9720 0.9720
1404.025380 0.9720 0.9720 0.9700 0.9680 0.9680
1408.375579 0.9680 0.9680 0.9670 0.9680 0.9680
1412.725778 0.9660 0.9660 0.9660 0.9660 0.9660
1417.075977 0.9660 0.9660 0.9640 0.9640 0.9640
1421.426176 0.9660 0.9660 0.9660 0.9660 0.9670
1425.776375 0.9670 0.9670 0.9670 0.9660 0.9660
1430.126574 0.9660 0.9640 0.9620 0.9620 0.9620
1434.476773 0.9620 0.9600 0.9560 0.9540 0.9540
1438.826972 0.9540 0.9540 0.9540 0.9550 0.9550
1443.177171 0.9550 0.9550 0.9540 0.9520 0.9520
1447.527370 0.9520 0.9520 0.9520 0.9520 0.9520
1451.877569 0.9510 0.9510 0.9500 0.9500 0.9500
1456.227768 0.9500 0.9500 0.9500 0.9500 0.9450
1460.577967 0.9440 0.9430 0.9400 0.9400 0.9400
1464.928166 0.9400 0.9400 0.9390 0.9370 0.9360
1469.278365 0.9350 0.9330 0.9320 0.9310 0.9280
1473.628564 0.9240 0.9210 0.9180 0.9170 0.9170
1477.978763 0.9170 0.9160 0.9140 0.9140 0.9130
1482.328962 0.9100 0.9090 0.9080 0.9060 0.9020
1486.679161 0.9010 0.9000 0.8950 0.8940 0.8910
1491.029360 0.8900 0.8860 0.8860 0.8810 0.8790
1495.379559 0.8770 0.8720 0.8680 0.8600 0.8590
1499.729758 0.8560 0.8520 0.8480 0.8400 0.8350
1504.079957 0.8320 0.8310 0.8280 0.8180 0.8080
1508.430156 0.7980 0.7950 0.7940 0.7870 0.7790
1512.780355 0.7740 0.7710 0.7630 0.7590 0.7550
1517.130554 0.7550 0.7450 0.7400 0.7370 0.7310
1521.480753 0.7220 0.7200 0.7140 0.7130 0.7080
1525.830952 0.7020 0.6940 0.6890 0.6830 0.6770
1530.181151 0.6720 0.6660 0.6590 0.6450 0.6410
1534.531350 0.6320 0.6290 0.6180 0.6100 0.6000
1538.881549 0.5910 0.5740 0.5630 0.5500 0.5450
1543.231748 0.5400 0.5310 0.5170 0.5100 0.5010
1547.581947 0.4970 0.4950 0.4940 0.4950 0.4980
1551.932146 0.5010 0.5020 0.5050 0.5100 0.5120
1556.282345 0.5170 0.5250 0.5360 0.5470 0.5540
1560.632544 0.5620 0.5720 0.5820 0.5900 0.6000
1564.982743 0.6060 0.6140 0.6200 0.6290 0.6360
1569.332942 0.6450 0.6520 0.6560 0.6590 0.6640
1573.683141 0.6710 0.6720 0.6750 0.6770 0.6790
1578.033340 0.6810 0.6820 0.6830 0.6850 0.6890
1582.383539 0.6910 0.6940 0.6950 0.7020 0.7050
1586.733738 0.7090 0.7120 0.7140 0.7220 0.7290
1591.083937 0.7370 0.7440 0.7540 0.7640 0.7740
1595.434136 0.7810 0.7910 0.7950 0.8010 0.8120
1599.784335 0.8200 0.8280 0.8400 0.8520 0.8600
1604.134534 0.8660 0.8700 0.8740 0.8780 0.8860
1608.484733 0.8900 0.8950 0.9000 0.9060 0.9100
1612.834932 0.9140 0.9180 0.9200 0.9280 0.9290
1617.185131 0.9320 0.9350 0.9360 0.9360 0.9370
1621.535330 0.9410 0.9410 0.9430 0.9450 0.9470
1625.885529 0.9480 0.9500 0.9500 0.9510 0.9510
1630.235728 0.9520 0.9540 0.9540 0.9560 0.9560
1634.585927 0.9560 0.9560 0.9560 0.9560 0.9580
1638.936126 0.9580 0.9580 0.9580 0.9590 0.9590
1643.286325 0.9590 0.9590 0.9590 0.9580 0.9580
1647.636524 0.9590 0.9590 0.9600 0.9590 0.9600
1651.986723 0.9600 0.9620 0.9620 0.9620 0.9620
1656.336922 0.9630 0.9630 0.9630 0.9630 0.9640
1660.687121 0.9640 0.9630 0.9620 0.9620 0.9630
1665.037320 0.9640 0.9640 0.9640 0.9640 0.9640
1669.387519 0.9640 0.9630 0.9630 0.9630 0.9630
1673.737718 0.9630 0.9630 0.9630 0.9630 0.9630
1678.087917 0.9630 0.9630 0.9630 0.9640 0.9660
1682.438116 0.9630 0.9620 0.9620 0.9620 0.9620
1686.788315 0.9620 0.9620 0.9620 0.9630 0.9630
1691.138514 0.9630 0.9640 0.9640 0.9640 0.9630
1695.488713 0.9630 0.9620 0.9630 0.9630 0.9620
1699.838912 0.9620 0.9630 0.9660 0.9670 0.9640
1704.189111 0.9630 0.9630 0.9630 0.9630 0.9630
1708.539310 0.9640 0.9640 0.9630 0.9630 0.9620
1712.889509 0.9620 0.9620 0.9620 0.9620 0.9620
1717.239708 0.9620 0.9630 0.9630 0.9630 0.9620
1721.589907 0.9620 0.9630 0.9630 0.9630 0.9630
1725.940106 0.9630 0.9640 0.9640 0.9640 0.9630
1730.290305 0.9630 0.9640 0.9640 0.9620 0.9620
1734.640504 0.9620 0.9620 0.9620 0.9620 0.9620
1738.990703 0.9620 0.9620 0.9630 0.9640 0.9640
1743.340902 0.9630 0.9630 0.9630 0.9640 0.9630
1747.691101 0.9630 0.9640 0.9640 0.9660 0.9660
1752.041300 0.9660 0.9660 0.9660 0.9670 0.9670
1756.391499 0.9670 0.9660 0.9640 0.9640 0.9640
1760.741698 0.9660 0.9660 0.9680 0.9680 0.9660
1765.091897 0.9640 0.9660 0.9660 0.9670 0.9670
1769.442096 0.9670 0.9660 0.9660 0.9680 0.9680
1773.792295 0.9670 0.9660 0.9660 0.9660 0.9670
1778.142494 0.9670 0.9670 0.9670 0.9670 0.9670
1782.492693 0.9660 0.9660 0.9660 0.9660 0.9660
1786.842892 0.9670 0.9680 0.9680 0.9660 0.9640
1791.193091 0.9630 0.9630 0.9640 0.9640 0.9640
1795.543290 0.9640 0.9640 0.9640 0.9640 0.9640
1799.893489 0.9640 0.9640 0.9640 0.9630 0.9630
1804.243688 0.9630 0.9630 0.9630 0.9630 0.9630
1808.593887 0.9620 0.9620 0.9620 0.9620 0.9620
1812.944086 0.9630 0.9630 0.9630 0.9640 0.9640
1817.294285 0.9630 0.9630 0.9630 0.9630 0.9630
1821.644484 0.9640 0.9640 0.9620 0.9620 0.9620
1825.994683 0.9620 0.9630 0.9630 0.9620 0.9620
1830.344882 0.9620 0.9620 0.9620 0.9620 0.9620
1834.695081 0.9620 0.9620 0.9600 0.9600 0.9600
1839.045280 0.9600 0.9600 0.9600 0.9620 0.9620
1843.395479 0.9590 0.9590 0.9590 0.9600 0.9600
1847.745678 0.9600 0.9600 0.9590 0.9590 0.9590
1852.095877 0.9590 0.9590 0.9590 0.9600 0.9600
1856.446076 0.9600 0.9620 0.9600 0.9590 0.9590
1860.796275 0.9590 0.9590 0.9560 0.9590 0.9590
1865.146474 0.9600 0.9620 0.9620 0.9620 0.9600
1869.496673 0.9600 0.9600 0.9600 0.9600 0.9620
1873.846872 0.9620 0.9620 0.9630 0.9630 0.9620
1878.197071 0.9620 0.9620 0.9620 0.9620 0.9620
1882.547270 0.9640 0.9640 0.9630 0.9620 0.9620
1886.897469 0.9620 0.9620 0.9640 0.9640 0.9630
1891.247668 0.9630 0.9640 0.9640 0.9630 0.9620
1895.597867 0.9620 0.9620 0.9620 0.9630 0.9640
1899.948066 0.9640 0.9640 0.9640 0.9640 0.9640
1904.298265 0.9640 0.9640 0.9630 0.9630 0.9640
1908.648464 0.9640 0.9640 0.9640 0.9640 0.9660
1912.998663 0.9670 0.9670 0.9660 0.9640 0.9640
1917.348862 0.9640 0.9640 0.9660 0.9670 0.9680
1921.699061 0.9680 0.9670 0.9670 0.9670 0.9670
1926.049260 0.9670 0.9660 0.9660 0.9660 0.9670
1930.399459 0.9670 0.9660 0.9660 0.9660 0.9660
1934.749658 0.9660 0.9670 0.9660 0.9660 0.9660
1939.099857 0.9660 0.9660 0.9660 0.9670 0.9640
1943.450056 0.9640 0.9660 0.9660 0.9670 0.9670
1947.800255 0.9670 0.9660 0.9640 0.9640 0.9630
1952.150454 0.9630 0.9630 0.9640 0.9670 0.9710
1956.500653 0.9740 0.9740 0.9670 0.9640 0.9630
1960.850852 0.9630 0.9630 0.9620 0.9620 0.9620
1965.201051 0.9620 0.9620 0.9620 0.9620 0.9620
1969.551250 0.9620 0.9620 0.9620 0.9620 0.9620
1973.901449 0.9620 0.9620 0.9630 0.9630 0.9630
1978.251648 0.9630 0.9630 0.9630 0.9630 0.9630
1982.601847 0.9630 0.9630 0.9630 0.9640 0.9640
1986.952046 0.9640 0.9660 0.9660 0.9660 0.9670
1991.302245 0.9670 0.9670 0.9680 0.9680 0.9700
1995.652444 0.9700 0.9710 0.9720 0.9740 0.9750
2000.002643 0.9770 0.9775 0.9780 0.9780 0.9780
2004.352842 0.9785 0.9790 0.9790 0.9790 0.9790
2008.703041 0.9790 0.9790 0.9790 0.9800 0.9810
2013.053239 0.9810 0.9810 0.9810 0.9810 0.9810
2017.403438 0.9810 0.9815 0.9820 0.9820 0.9820
2021.753637 0.9820 0.9820 0.9820 0.9820 0.9825
2026.103836 0.9830 0.9830 0.9830 0.9830 0.9830
2030.454035 0.9830 0.9830 0.9830 0.9830 0.9840
2034.804234 0.9850 0.9850 0.9850 0.9850 0.9850
2039.154433 0.9850 0.9850 0.9850 0.9850 0.9850
2043.504632 0.9850 0.9855 0.9860 0.9855 0.9850
2047.854831 0.9850 0.9850 0.9850 0.9850 0.9850
2052.205030 0.9850 0.9840 0.9830 0.9830 0.9830
2056.555229 0.9830 0.9830 0.9830 0.9830 0.9830
2060.905428 0.9830 0.9830 0.9830 0.9830 0.9830
2065.255627 0.9825 0.9820 0.9820 0.9820 0.9820
2069.605826 0.9820 0.9815 0.9810 0.9800 0.9790
2073.956025 0.9790 0.9790 0.9790 0.9790 0.9790
2078.306224 0.9790 0.9780 0.9770 0.9770 0.9770
2082.656423 0.9770 0.9770 0.9760 0.9749 0.9734
2087.006622 0.9719 0.9699 0.9679 0.9669 0.9659
2091.356821 0.9644 0.9630 0.9625 0.9619 0.9604
2095.707020 0.9590 0.9590 0.9590 0.9585 0.9580
2100.057219 0.9580 0.9580 0.9570 0.9560 0.9560
2104.407418 0.9560 0.9555 0.9550 0.9550 0.9550
2108.757617 0.9555 0.9561 0.9571 0.9580 0.9585
2113.107816 0.9591 0.9606 0.9620 0.9625 0.9632
2117.458015 0.9667 0.9700 0.9705 0.9711 0.9731
2121.808214 0.9751 0.9766 0.9780 0.9785 0.9792
2126.158413 0.9812 0.9831 0.9841 0.9850 0.9855
2130.508612 0.9860 0.9860 0.9860 0.9860 0.9860
2134.858811 0.9865 0.9870 0.9870 0.9871 0.9881
2139.209010 0.9890 0.9890 0.9890 0.9890 0.9890
2143.559209 0.9890 0.9890 0.9895 0.9900 0.9900
2147.909408 0.9900 0.9900 0.9900 0.9905 0.9910
2152.259607 0.9910 0.9910 0.9910 0.9911 0.9921
2156.609806 0.9930 0.9935 0.9940 0.9940 0.9940
2160.960005 0.9940 0.9940 0.9935 0.9930 0.9930
2165.310204 0.9929 0.9919 0.9911 0.9921 0.9930
2169.660403 0.9930 0.9930 0.9930 0.9930 0.9930
2174.010602 0.9930 0.9930 0.9930 0.9930 0.9930
2178.360801 0.9930 0.9930 0.9930 0.9930 0.9930
2182.711000 0.9930 0.9930 0.9929 0.9919 0.9910
2187.061199 0.9910 0.9910 0.9910 0.9910 0.9910
2191.411398 0.9910 0.9910 0.9911 0.9921 0.9930
2195.761597 0.9930 0.9930 0.9930 0.9930 0.9930
2200.111796 0.9930 0.9930 0.9931 0.9941 0.9952
2204.461995 0.9967 0.9979 0.9974 0.9968 0.9947
