##TITLE=DICHLOROFLUORO ACETONITRILE
##JCAMP-DX=4.24
##DATA TYPE=INFRARED SPECTRUM
##CLASS=COBLENTZ
##ORIGIN=DOW CHEMICAL COMPANY
##OWNER=COBLENTZ SOCIETY
Collection (C) 2018 copyright by the U.S. Secretary of Commerce
on behalf of the United States of America. All rights reserved.
##DATE=Not specified, most likely prior to 1970
##NAMES=dichloro(fluoro)acetonitrile
##CAS REGISTRY NO=353-82-2
##MOLFORM=C2 Cl2 F N
##SOURCE REFERENCE=COBLENTZ NO. 3258
##$NIST SOURCE=COBLENTZ
##$NIST IMAGE=cob3258
##SPECTROMETER/DATA SYSTEM=Not specified, most likely a prism, grating, or hybrid spectrometer.
##STATE=SOLUTION (10% CCl4 FOR 5000-1330, 10% CS2 FOR 1330-625 CM^-^1)
##PATH LENGTH=0.0118 CM, 0.0118 CM
$$SPECTRAL CONTAMINATION DUE TO CCl4 AROUND 1550 CM^-^1
##SAMPLING PROCEDURE=TRANSMISSION
##RESOLUTION=4
##DATA PROCESSING=DIGITIZED BY NIST FROM HARD COPY
##XUNITS=MICROMETERS
##YUNITS=TRANSMITTANCE
##XFACTOR=1.000000
##YFACTOR=1
##DELTAX=000.006859
##FIRSTX=2.021
##LASTX=15.8839
##FIRSTY=0.895
##MAXX=15.8839
##MINX=2.021
##MAXY=0.917
##MINY=0
##NPOINTS=2022
##XYDATA=(X++(Y..Y))
2.021000 0.8950 0.8950 0.8950 0.8950 0.8950
2.055314 0.8950 0.8950 0.8950 0.8950 0.8950
2.089000 0.8970 0.8970 0.8970 0.8970 0.8990
2.123314 0.8990 0.8990 0.8990 0.8990 0.9000
2.158000 0.9000 0.9000 0.9000 0.9000 0.9000
2.192314 0.9000 0.9000 0.9000 0.8990 0.8950
2.226000 0.8950 0.8950 0.8950 0.8970 0.9000
2.260314 0.9020 0.9020 0.9000 0.9000 0.8970
2.295000 0.8970 0.8950 0.8950 0.9000 0.9020
2.329314 0.9050 0.9070 0.9070 0.9040 0.9020
2.364000 0.9000 0.8970 0.8970 0.8970 0.9000
2.398314 0.9020 0.9040 0.9050 0.9050 0.9050
2.432000 0.9050 0.9040 0.9020 0.9000 0.9000
2.466314 0.9000 0.9040 0.9070 0.9070 0.9070
2.501000 0.8970 0.8970 0.8970 0.8990 0.8990
2.535314 0.9090 0.9090 0.9000 0.9000 0.9000
2.569000 0.9000 0.9000 0.9000 0.9020 0.9020
2.603314 0.9070 0.9070 0.9020 0.9020 0.9020
2.638000 0.8990 0.8970 0.8970 0.8990 0.8990
2.672314 0.9000 0.9020 0.9020 0.9020 0.9020
2.707000 0.9020 0.8990 0.8970 0.8990 0.8990
2.741314 0.8990 0.8990 0.8990 0.8990 0.8970
2.775000 0.8970 0.8950 0.8950 0.8940 0.8940
2.809314 0.8920 0.8920 0.8940 0.8940 0.8950
2.844000 0.8950 0.8950 0.8950 0.8950 0.8950
2.878314 0.8950 0.8950 0.8940 0.8920 0.8920
2.912000 0.8900 0.8880 0.8880 0.8880 0.8880
2.946314 0.8880 0.8880 0.8880 0.8900 0.8900
2.981000 0.8900 0.8920 0.8920 0.8940 0.8940
3.015314 0.8940 0.8940 0.8950 0.8940 0.8920
3.049000 0.8900 0.8900 0.8900 0.8880 0.8900
3.083314 0.8900 0.8920 0.8940 0.8950 0.8940
3.118000 0.8940 0.8940 0.8920 0.8920 0.8900
3.152314 0.8880 0.8900 0.8900 0.8920 0.8940
3.187000 0.8950 0.8950 0.8950 0.8950 0.8920
3.221314 0.8900 0.8880 0.8880 0.8880 0.8880
3.255000 0.8880 0.8880 0.8900 0.8900 0.8900
3.289314 0.8900 0.8880 0.8870 0.8880 0.8880
3.324000 0.8880 0.8880 0.8880 0.8880 0.8850
3.358314 0.8820 0.8820 0.8800 0.8820 0.8830
3.392000 0.8870 0.8870 0.8870 0.8870 0.8880
3.426314 0.8880 0.8880 0.8900 0.8900 0.8880
3.461000 0.8870 0.8870 0.8880 0.8920 0.8950
3.495314 0.8950 0.8970 0.8970 0.8990 0.8990
3.530000 0.8990 0.8990 0.8990 0.8990 0.8990
3.564314 0.8990 0.8990 0.8990 0.8970 0.8950
3.598000 0.8920 0.8900 0.8900 0.8920 0.8940
3.632314 0.8970 0.8990 0.8990 0.8990 0.8950
3.667000 0.8950 0.8950 0.8950 0.8950 0.8950
3.701314 0.8970 0.8990 0.8990 0.9000 0.9000
3.735000 0.8990 0.8990 0.8970 0.8970 0.8970
3.769314 0.8970 0.8970 0.8950 0.8950 0.8990
3.804000 0.8990 0.8990 0.8990 0.8990 0.8990
3.838314 0.8990 0.9000 0.9000 0.9020 0.9020
3.873000 0.9020 0.9020 0.9000 0.8990 0.8990
3.907314 0.9020 0.9020 0.9020 0.9020 0.9000
3.941000 0.8970 0.8970 0.8990 0.9020 0.9020
3.975314 0.9000 0.9020 0.9020 0.9020 0.9040
4.010000 0.9040 0.9040 0.9040 0.9040 0.9020
4.044314 0.9000 0.8990 0.8990 0.8970 0.8950
4.078000 0.8880 0.8850 0.8870 0.8870 0.8880
4.112314 0.8900 0.8900 0.8920 0.8990 0.9000
4.147000 0.9000 0.9000 0.8990 0.8990 0.8990
4.181314 0.8970 0.8970 0.8990 0.8970 0.8950
4.216000 0.8950 0.8950 0.8940 0.8920 0.8900
4.250314 0.8880 0.8880 0.8820 0.8800 0.8800
4.284000 0.8800 0.8800 0.8780 0.8760 0.8730
4.318314 0.8680 0.8680 0.8660 0.8590 0.8470
4.353000 0.8300 0.7980 0.7650 0.7240 0.6800
4.387314 0.6180 0.5890 0.5700 0.5700 0.5840
4.421000 0.6780 0.7580 0.8180 0.8490 0.8590
4.455314 0.8680 0.8710 0.8730 0.8700 0.8640
4.490000 0.8630 0.8640 0.8640 0.8640 0.8630
4.524314 0.8630 0.8630 0.8660 0.8680 0.8750
4.559000 0.8800 0.8870 0.8920 0.8940 0.8950
4.593314 0.8950 0.8990 0.9020 0.9040 0.9040
4.627000 0.9040 0.9040 0.9040 0.9040 0.9040
4.661314 0.9020 0.9000 0.9000 0.8990 0.8970
4.696000 0.8950 0.8900 0.8900 0.8870 0.8870
4.730314 0.8850 0.8850 0.8820 0.8800 0.8780
4.764000 0.8780 0.8780 0.8800 0.8820 0.8820
4.798314 0.8820 0.8830 0.8830 0.8850 0.8880
4.833000 0.8950 0.8990 0.9000 0.9020 0.9020
4.867314 0.9040 0.9040 0.9020 0.9020 0.9020
4.902000 0.9020 0.9020 0.9020 0.9020 0.9020
4.936314 0.9040 0.9040 0.9040 0.9040 0.9040
4.970000 0.9040 0.9020 0.9000 0.9000 0.9000
5.004314 0.9000 0.9000 0.9020 0.9020 0.9040
5.039000 0.9050 0.9050 0.9050 0.9070 0.9070
5.073314 0.9070 0.9070 0.9070 0.9070 0.9070
5.107000 0.9090 0.9110 0.9110 0.9110 0.9120
5.141314 0.9120 0.9140 0.9140 0.9140 0.9160
5.176000 0.9170 0.9170 0.9170 0.9170 0.9170
5.210314 0.9160 0.9160 0.9140 0.9140 0.9170
5.244000 0.9170 0.9170 0.9140 0.9110 0.9120
5.278314 0.9110 0.9110 0.9110 0.9110 0.9110
5.313000 0.9110 0.9110 0.9090 0.9070 0.9020
5.347314 0.8990 0.8990 0.8990 0.8990 0.8990
5.382000 0.8990 0.8990 0.8990 0.8970 0.8970
5.416314 0.8990 0.9000 0.9020 0.9020 0.9020
5.450000 0.9020 0.9020 0.9000 0.9020 0.9020
5.484314 0.9020 0.9020 0.9040 0.9040 0.9040
5.519000 0.9020 0.9020 0.9000 0.9020 0.9040
5.553314 0.9020 0.9040 0.9040 0.9070 0.9090
5.587000 0.9090 0.9110 0.9120 0.9120 0.9110
5.621314 0.9110 0.9090 0.9040 0.9000 0.8990
5.656000 0.8990 0.8990 0.8970 0.8920 0.8870
5.690314 0.8820 0.8800 0.8750 0.8750 0.8730
5.725000 0.8710 0.8710 0.8710 0.8730 0.8760
5.759314 0.8780 0.8820 0.8870 0.8880 0.8900
5.793000 0.8900 0.8920 0.8940 0.8940 0.8950
5.827314 0.8950 0.8970 0.8970 0.8990 0.9000
5.862000 0.9000 0.9000 0.8990 0.8970 0.8900
5.896314 0.8900 0.8900 0.8900 0.8880 0.8880
5.930000 0.8880 0.8870 0.8870 0.8870 0.8870
5.964314 0.8880 0.8900 0.8920 0.8940 0.8970
5.999000 0.8990 0.9000 0.9000 0.9000 0.9000
6.033314 0.9000 0.9000 0.9000 0.9000 0.9020
6.068000 0.9020 0.9020 0.9020 0.9000 0.8950
6.102314 0.8880 0.8830 0.8820 0.8800 0.8780
6.136000 0.8780 0.8710 0.8680 0.8610 0.8580
6.170314 0.8520 0.8490 0.8410 0.8300 0.8150
6.205000 0.8010 0.7840 0.7700 0.7550 0.7430
6.239314 0.7260 0.7040 0.6940 0.6820 0.6660
6.273000 0.6560 0.6510 0.6460 0.6410 0.6320
6.307314 0.6290 0.6230 0.6180 0.6110 0.6050
6.342000 0.5980 0.5880 0.5770 0.5700 0.5600
6.376314 0.5500 0.5450 0.5400 0.5210 0.5040
6.411000 0.4950 0.4820 0.4780 0.4730 0.4710
6.445314 0.4730 0.4800 0.4870 0.5020 0.5210
6.479000 0.5450 0.5670 0.5890 0.6030 0.6110
6.513314 0.6180 0.6230 0.6290 0.6350 0.6460
6.548000 0.6510 0.6610 0.6750 0.6850 0.6920
6.582314 0.6990 0.7050 0.7120 0.7240 0.7400
6.616000 0.7580 0.7650 0.7760 0.7840 0.7960
6.650314 0.8010 0.8100 0.8150 0.8200 0.8290
6.685000 0.8320 0.8410 0.8470 0.8560 0.8630
6.719314 0.8680 0.8680 0.8680 0.8680 0.8680
6.754000 0.8680 0.8680 0.8700 0.8710 0.8730
6.788314 0.8730 0.8730 0.8750 0.8710 0.8700
6.822000 0.8700 0.8700 0.8710 0.8750 0.8780
6.856314 0.8820 0.8830 0.8870 0.8880 0.8880
6.891000 0.8880 0.8900 0.8900 0.8920 0.8920
6.925314 0.8950 0.8970 0.8970 0.8970 0.8970
6.959000 0.8970 0.8990 0.8990 0.8990 0.8990
6.993314 0.8990 0.8950 0.8950 0.8940 0.8940
7.028000 0.8940 0.8950 0.8970 0.9000 0.9020
7.062314 0.9020 0.9020 0.9000 0.9000 0.9000
7.097000 0.9000 0.9000 0.9000 0.9000 0.9000
7.131314 0.9000 0.9000 0.9000 0.9000 0.9000
7.165000 0.9000 0.9020 0.9020 0.9040 0.9040
7.199314 0.9040 0.9040 0.9040 0.9040 0.9040
7.234000 0.9020 0.9020 0.9020 0.9000 0.9000
7.268314 0.9000 0.9000 0.9000 0.9020 0.9020
7.302000 0.9020 0.9020 0.9020 0.9020 0.9000
7.336314 0.9000 0.9000 0.9000 0.9000 0.9020
7.371000 0.9020 0.9020 0.9000 0.9000 0.8990
7.405314 0.8970 0.8970 0.8950 0.8940 0.8900
7.439000 0.8880 0.8870 0.8850 0.8850 0.8830
7.473314 0.8820 0.8820 0.8820 0.8820 0.8820
7.508000 0.8830 0.8830 0.8830 0.8850 0.8870
7.542314 0.8870 0.8880 0.8880 0.8880 0.8880
7.577000 0.8880 0.8900 0.8940 0.8970 0.8990
7.611314 0.8990 0.8990 0.8990 0.8990 0.8990
7.645000 0.8990 0.8990 0.8970 0.8950 0.8900
7.679314 0.8880 0.8880 0.8830 0.8800 0.8780
7.714000 0.8760 0.8730 0.8710 0.8700 0.8700
7.748314 0.8680 0.8680 0.8680 0.8680 0.8680
7.782000 0.8680 0.8700 0.8730 0.8730 0.8730
7.816314 0.8710 0.8700 0.8700 0.8680 0.8660
7.851000 0.8680 0.8680 0.8680 0.8680 0.8700
7.885314 0.8700 0.8700 0.8710 0.8710 0.8710
7.920000 0.8710 0.8710 0.8710 0.8710 0.8710
7.954314 0.8680 0.8680 0.8660 0.8640 0.8640
7.988000 0.8630 0.8630 0.8640 0.8640 0.8660
8.022314 0.8680 0.8700 0.8700 0.8700 0.8700
8.057000 0.8680 0.8680 0.8680 0.8660 0.8640
8.091314 0.8640 0.8640 0.8630 0.8630 0.8580
8.125000 0.8520 0.8510 0.8510 0.8490 0.8490
8.159314 0.8460 0.8410 0.8370 0.8370 0.8340
8.194000 0.8320 0.8290 0.8230 0.8220 0.8220
8.228314 0.8220 0.8220 0.8230 0.8270 0.8300
8.263000 0.8340 0.8350 0.8350 0.8370 0.8370
8.297314 0.8370 0.8370 0.8370 0.8370 0.8370
8.331000 0.8370 0.8410 0.8420 0.8460 0.8520
8.365314 0.8560 0.8610 0.8630 0.8660 0.8660
8.400000 0.8700 0.8710 0.8730 0.8730 0.8750
8.434314 0.8750 0.8760 0.8760 0.8780 0.8780
8.468000 0.8780 0.8780 0.8780 0.8780 0.8780
8.502314 0.8780 0.8780 0.8780 0.8780 0.8780
8.537000 0.8780 0.8780 0.8780 0.8780 0.8780
8.571314 0.8780 0.8780 0.8780 0.8780 0.8780
8.606000 0.8760 0.8750 0.8710 0.8700 0.8700
8.640314 0.8680 0.8640 0.8610 0.8590 0.8560
8.674000 0.8520 0.8510 0.8460 0.8410 0.8320
8.708314 0.8250 0.8220 0.8180 0.8130 0.8100
8.743000 0.8050 0.8010 0.7960 0.7910 0.7840
8.777314 0.7770 0.7700 0.7640 0.7550 0.7450
8.811000 0.7350 0.7240 0.7110 0.6990 0.6830
8.845314 0.6680 0.6490 0.6300 0.6100 0.5880
8.880000 0.5600 0.5410 0.5160 0.4870 0.4680
8.914314 0.4370 0.3980 0.3500 0.3020 0.2520
8.949000 0.2080 0.1700 0.1410 0.1090 0.0800
8.983314 0.0510 0.0290 0.0230 0.0170 0.0150
9.017000 0.0100 0.0100 0.0100 0.0150 0.0250
9.051314 0.0350 0.0470 0.0540 0.0680 0.0800
9.086000 0.0900 0.1000 0.1040 0.1070 0.1040
9.120314 0.0990 0.0900 0.0800 0.0710 0.0680
9.154000 0.0660 0.0680 0.0800 0.1000 0.1190
9.188314 0.1350 0.1860 0.2300 0.2730 0.3110
9.223000 0.3480 0.3880 0.4200 0.4510 0.4760
9.257314 0.4990 0.5190 0.5380 0.5530 0.5650
9.292000 0.5770 0.5890 0.6000 0.6080 0.6180
9.326314 0.6270 0.6370 0.6470 0.6590 0.6730
9.360000 0.6870 0.7040 0.7140 0.7210 0.7260
9.394314 0.7330 0.7410 0.7500 0.7570 0.7620
9.429000 0.7640 0.7690 0.7700 0.7720 0.7770
9.463314 0.7770 0.7790 0.7810 0.7840 0.7860
9.497000 0.7860 0.7880 0.7880 0.7880 0.7880
9.531314 0.7880 0.7860 0.7840 0.7810 0.7790
9.566000 0.7770 0.7740 0.7700 0.7690 0.7640
9.600314 0.7600 0.7570 0.7520 0.7470 0.7430
9.634000 0.7400 0.7310 0.7260 0.7190 0.7040
9.668314 0.6990 0.6880 0.6760 0.6640 0.6510
9.703000 0.6350 0.6200 0.6050 0.5860 0.5670
9.737314 0.5470 0.5240 0.5000 0.4760 0.4490
9.772000 0.4200 0.3890 0.3580 0.3240 0.2870
9.806314 0.2080 0.1570 0.1280 0.1050 0.0870
9.840000 0.0560 0.0390 0.0230 0.0180 0.0110
9.874314 0.0080 0.0080 0.0080 0.0080 0.0100
9.909000 0.0180 0.0290 0.0410 0.0580 0.0780
9.943314 0.1040 0.1240 0.1450 0.1690 0.1790
9.977000 0.1860 0.1880 0.1820 0.1740 0.1650
10.011314 0.1550 0.1470 0.1380 0.1350 0.1330
10.046000 0.1350 0.1470 0.1550 0.1700 0.1840
10.080314 0.2010 0.2150 0.2290 0.2410 0.2520
10.115000 0.2610 0.2680 0.2710 0.2780 0.2800
10.149314 0.2820 0.2820 0.2820 0.2820 0.2800
10.183000 0.2780 0.2760 0.2730 0.2640 0.2520
10.217314 0.2390 0.2270 0.2150 0.2010 0.1770
10.252000 0.1530 0.1330 0.1050 0.0880 0.0700
10.286314 0.0560 0.0510 0.0460 0.0420 0.0460
10.320000 0.0540 0.0610 0.0750 0.0870 0.1000
10.354314 0.1140 0.1330 0.1520 0.1760 0.2010
10.389000 0.2300 0.2630 0.2950 0.3260 0.3580
10.423314 0.3700 0.4000 0.4250 0.4510 0.4730
10.458000 0.4830 0.5090 0.5350 0.5530 0.5790
10.492314 0.6010 0.6220 0.6410 0.6590 0.6780
10.526000 0.6940 0.7090 0.7230 0.7350 0.7410
10.560314 0.7480 0.7570 0.7640 0.7650 0.7740
10.595000 0.7810 0.7880 0.7930 0.7980 0.8010
10.629314 0.8080 0.8110 0.8170 0.8180 0.8200
10.663000 0.8220 0.8270 0.8270 0.8290 0.8320
10.697314 0.8370 0.8370 0.8390 0.8390 0.8420
10.732000 0.8490 0.8510 0.8520 0.8580 0.8580
10.766314 0.8590 0.8590 0.8610 0.8610 0.8630
10.801000 0.8640 0.8640 0.8640 0.8640 0.8660
10.835314 0.8660 0.8680 0.8680 0.8700 0.8700
10.869000 0.8680 0.8680 0.8680 0.8680 0.8680
10.903314 0.8680 0.8680 0.8680 0.8680 0.8680
10.938000 0.8680 0.8700 0.8700 0.8700 0.8700
10.972314 0.8700 0.8700 0.8700 0.8700 0.8710
11.006000 0.8710 0.8700 0.8700 0.8700 0.8680
11.040314 0.8660 0.8680 0.8680 0.8640 0.8630
11.075000 0.8610 0.8590 0.8590 0.8580 0.8580
11.109314 0.8580 0.8520 0.8520 0.8490 0.8490
11.144000 0.8440 0.8390 0.8370 0.8300 0.8290
11.178314 0.8230 0.8220 0.8180 0.8130 0.8080
11.212000 0.8010 0.7960 0.7940 0.7880 0.7820
11.246314 0.7790 0.7720 0.7670 0.7600 0.7530
11.281000 0.7500 0.7470 0.7410 0.7350 0.7290
11.315314 0.7230 0.7170 0.7110 0.7000 0.6950
11.349000 0.6880 0.6820 0.6750 0.6680 0.6630
11.383314 0.6590 0.6540 0.6490 0.6440 0.6370
11.418000 0.6320 0.6250 0.6180 0.6110 0.6030
11.452314 0.5940 0.5860 0.5770 0.5670 0.5570
11.487000 0.5450 0.5350 0.5210 0.5070 0.4940
11.521314 0.4780 0.4630 0.4440 0.4250 0.4000
11.555000 0.3810 0.3580 0.3380 0.3120 0.2870
11.589314 0.2580 0.2300 0.2030 0.1770 0.1530
11.624000 0.1350 0.1190 0.1040 0.0970 0.0900
11.658314 0.0830 0.0800 0.0780 0.0780 0.0780
11.692000 0.0780 0.0780 0.0800 0.0800 0.0800
11.726314 0.0800 0.0820 0.0820 0.0820 0.0820
11.761000 0.0820 0.0800 0.0800 0.0780 0.0710
11.795314 0.0700 0.0610 0.0520 0.0410 0.0350
11.829000 0.0300 0.0220 0.0180 0.0110 0.0050
11.863314 0.0010 0.0010 0.0000 0.0000 0.0000
11.898000 0.0000 0.0000 0.0000 0.0000 0.0000
11.932314 0.0000 0.0000 0.0000 0.0000 0.0000
11.967000 0.0000 0.0000 0.0000 0.0000 0.0000
12.001314 0.0000 0.0000 0.0000 0.0000 0.0000
12.035000 0.0000 0.0000 0.0000 0.0000 0.0050
12.069314 0.0100 0.0150 0.0230 0.0350 0.0540
12.104000 0.0730 0.0940 0.1110 0.1310 0.1550
12.138314 0.1820 0.2100 0.2390 0.2660 0.2940
12.172000 0.3160 0.3350 0.3550 0.3720 0.4000
12.206314 0.4220 0.4470 0.4640 0.4750 0.4850
12.241000 0.4950 0.5040 0.5110 0.5190 0.5240
12.275314 0.5290 0.5350 0.5380 0.5410 0.5480
12.310000 0.5500 0.5580 0.5620 0.5690 0.5770
12.344314 0.5840 0.5960 0.6050 0.6150 0.6270
12.378000 0.6390 0.6510 0.6640 0.6760 0.6870
12.412314 0.6970 0.7040 0.7050 0.7160 0.7230
12.447000 0.7310 0.7400 0.7480 0.7520 0.7580
12.481314 0.7620 0.7670 0.7690 0.7700 0.7720
12.515000 0.7770 0.7790 0.7810 0.7840 0.7880
12.549314 0.7890 0.7910 0.7940 0.7960 0.7960
12.584000 0.7980 0.8000 0.8010 0.8030 0.8050
12.618314 0.8050 0.8060 0.8060 0.8060 0.8060
12.653000 0.8050 0.8050 0.8030 0.8030 0.8010
12.687314 0.8000 0.7980 0.7980 0.7960 0.7960
12.721000 0.7960 0.7960 0.7960 0.7940 0.7940
12.755314 0.7940 0.7960 0.7980 0.7980 0.8000
12.790000 0.8010 0.8010 0.8030 0.8050 0.8100
12.824314 0.8110 0.8130 0.8180 0.8180 0.8200
12.858000 0.8220 0.8230 0.8270 0.8290 0.8290
12.892314 0.8290 0.8300 0.8300 0.8320 0.8340
12.927000 0.8340 0.8340 0.8340 0.8340 0.8340
12.961314 0.8340 0.8340 0.8340 0.8340 0.8340
12.996000 0.8320 0.8320 0.8300 0.8300 0.8290
13.030314 0.8270 0.8270 0.8250 0.8250 0.8230
13.064000 0.8220 0.8200 0.8170 0.8170 0.8150
13.098314 0.8130 0.8110 0.8100 0.8100 0.8050
13.133000 0.8030 0.8030 0.8030 0.8010 0.8010
13.167314 0.8010 0.8030 0.8030 0.8050 0.8060
13.201000 0.8080 0.8110 0.8130 0.8130 0.8150
13.235314 0.8170 0.8180 0.8180 0.8180 0.8180
13.270000 0.8180 0.8200 0.8200 0.8200 0.8200
13.304314 0.8200 0.8220 0.8220 0.8220 0.8220
13.339000 0.8220 0.8220 0.8220 0.8220 0.8220
13.373314 0.8200 0.8200 0.8200 0.8200 0.8180
13.407000 0.8180 0.8200 0.8180 0.8180 0.8180
13.441314 0.8180 0.8180 0.8170 0.8180 0.8180
13.476000 0.8180 0.8180 0.8180 0.8180 0.8180
13.510314 0.8180 0.8180 0.8180 0.8180 0.8180
13.544000 0.8170 0.8150 0.8150 0.8130 0.8130
13.578314 0.8130 0.8130 0.8130 0.8110 0.8100
13.613000 0.8100 0.8080 0.8080 0.8060 0.8060
13.647314 0.8060 0.8050 0.8050 0.8030 0.8010
13.682000 0.8010 0.8000 0.7980 0.7960 0.7940
13.716314 0.7910 0.7910 0.7910 0.7890 0.7890
13.750000 0.7890 0.7890 0.7880 0.7890 0.7880
13.784314 0.7880 0.7860 0.7860 0.7840 0.7840
13.819000 0.7820 0.7820 0.7820 0.7810 0.7810
13.853314 0.7790 0.7790 0.7790 0.7790 0.7790
13.887000 0.7770 0.7770 0.7760 0.7760 0.7740
13.921314 0.7720 0.7700 0.7700 0.7700 0.7690
13.956000 0.7670 0.7670 0.7670 0.7670 0.7650
13.990314 0.7650 0.7640 0.7620 0.7620 0.7600
14.024000 0.7580 0.7580 0.7580 0.7580 0.7570
14.058314 0.7550 0.7550 0.7530 0.7530 0.7520
14.093000 0.7500 0.7500 0.7500 0.7480 0.7480
14.127314 0.7480 0.7480 0.7480 0.7450 0.7430
14.162000 0.7410 0.7410 0.7400 0.7400 0.7400
14.196314 0.7400 0.7400 0.7360 0.7330 0.7330
14.230000 0.7310 0.7310 0.7290 0.7290 0.7290
14.264314 0.7280 0.7260 0.7260 0.7240 0.7230
14.299000 0.7210 0.7190 0.7190 0.7190 0.7170
14.333314 0.7160 0.7160 0.7140 0.7140 0.7120
14.367000 0.7110 0.7110 0.7090 0.7090 0.7090
14.401314 0.7070 0.7070 0.7070 0.7040 0.7020
14.436000 0.7000 0.7000 0.6990 0.6970 0.6970
14.470314 0.6950 0.6940 0.6920 0.6900 0.6900
14.505000 0.6880 0.6880 0.6870 0.6870 0.6850
14.539314 0.6850 0.6820 0.6800 0.6800 0.6780
14.573000 0.6780 0.6750 0.6750 0.6730 0.6700
14.607314 0.6700 0.6660 0.6660 0.6640 0.6630
14.642000 0.6610 0.6580 0.6580 0.6540 0.6540
14.676314 0.6520 0.6510 0.6490 0.6470 0.6460
14.710000 0.6440 0.6420 0.6410 0.6390 0.6350
14.744314 0.6320 0.6300 0.6290 0.6290 0.6250
14.779000 0.6230 0.6220 0.6180 0.6150 0.6130
14.813314 0.6110 0.6080 0.6060 0.6060 0.6050
14.848000 0.6030 0.6000 0.6000 0.5980 0.5940
14.882314 0.5910 0.5880 0.5820 0.5810 0.5790
14.916000 0.5770 0.5760 0.5720 0.5700 0.5690
14.950314 0.5670 0.5670 0.5670 0.5650 0.5650
14.985000 0.5640 0.5620 0.5600 0.5600 0.5580
15.019314 0.5580 0.5580 0.5570 0.5550 0.5520
15.053000 0.5500 0.5500 0.5480 0.5470 0.5430
15.087314 0.5410 0.5400 0.5380 0.5350 0.5330
15.122000 0.5330 0.5310 0.5290 0.5290 0.5280
15.156314 0.5230 0.5210 0.5190 0.5190 0.5160
15.191000 0.5140 0.5110 0.5090 0.5070 0.5070
15.225314 0.5020 0.5020 0.5000 0.4990 0.4990
15.259000 0.4970 0.4970 0.4940 0.4900 0.4880
15.293314 0.4880 0.4870 0.4850 0.4830 0.4820
15.328000 0.4800 0.4760 0.4760 0.4750 0.4750
15.362314 0.4730 0.4730 0.4730 0.4710 0.4700
15.396000 0.4700 0.4700 0.4660 0.4660 0.4640
15.430314 0.4640 0.4640 0.4640 0.4630 0.4630
15.465000 0.4630 0.4610 0.4610 0.4610 0.4590
15.499314 0.4590 0.4580 0.4580 0.4580 0.4560
15.534000 0.4560 0.4560 0.4560 0.4560 0.4560
15.568314 0.4560 0.4540 0.4540 0.4520 0.4520
15.602000 0.4510 0.4510 0.4490 0.4490 0.4490
15.636314 0.4490 0.4490 0.4470 0.4470 0.4470
15.671000 0.4460 0.4460 0.4460 0.4440 0.4420
15.705314 0.4420 0.4420 0.4410 0.4410 0.4410
15.739000 0.4390 0.4390 0.4370 0.4370 0.4350
15.773314 0.4350 0.4350 0.4340 0.4320 0.4320
15.808000 0.4300 0.4300 0.4290 0.4270 0.4270
15.842314 0.4270 0.4250 0.4250 0.4250 0.4230
15.877000 0.4230 0.4230
##END=
