##TITLE=PROPANE, 1,2-DICHLORO-2-FLUORO-
##JCAMP-DX=4.24
##DATA TYPE=INFRARED SPECTRUM
##CLASS=COBLENTZ III
##ORIGIN=DOW CHEMICAL COMPANY
##OWNER=COBLENTZ SOCIETY
Collection (C) 2018 copyright by the U.S. Secretary of Commerce
on behalf of the United States of America. All rights reserved.
##DATE=1964/05/04
##NAMES=1,2-dichloro-2-fluoropropane
##CAS REGISTRY NO=420-97-3
##MOLFORM=C3 H5 Cl2 F
##SOURCE REFERENCE=COBLENTZ NO. 10030
##$NIST SOURCE=COBLENTZ
##$NIST IMAGE=cob10030
##SPECTROMETER/DATA SYSTEM=DOW KBr FOREPRISM-GRATING
##INSTRUMENT PARAMETERS=BLAZED AT 3.5, 12.0, 20.0 MICRON, CHANGED AT 5.0, 7.5, 14.9 MICRON
##STATE=SOLUTION (10% IN CCl4 FOR 3800-1333 AND 10% IN CS2 FOR 1333-450 CM^-^1)
##PATH LENGTH=0.011, 0.011 CM
$$SPECTRAL CONTAMINATION DUE TO CCl4 AROUND 1550 CM^-^1
##SAMPLING PROCEDURE=TRANSMISSION
##RESOLUTION=4
##DATA PROCESSING=DIGITIZED BY NIST FROM HARD COPY (FROM TWO SEGMENTS)
##XUNITS=1/CM
##YUNITS=TRANSMITTANCE
##XFACTOR=1.000000
##YFACTOR=1
##DELTAX=0.869565
##FIRSTX=451.304
##LASTX=3798.26
##FIRSTY=0.851
##MAXX=3798.26
##MINX=451.304
##MAXY=1.002
##MINY=0.04
##NPOINTS=3850
##XYDATA=(X++(Y..Y))
451.304000 0.8510 0.8510 0.8500 0.8480 0.8430
455.651827 0.8400 0.8360 0.8330 0.8330 0.8320
459.999654 0.8260 0.8200 0.8110 0.8020 0.7980
464.347482 0.7860 0.7770 0.7621 0.7471 0.7351
468.695309 0.7170 0.7050 0.6810 0.6620 0.6381
473.043136 0.6320 0.6210 0.6190 0.6190 0.6220
477.390963 0.6320 0.6410 0.6550 0.6710 0.7269
481.738791 0.7838 0.8348 0.8519 0.8709 0.8800
486.086618 0.8930 0.8970 0.9050 0.9150 0.9180
490.434445 0.9250 0.9330 0.9350 0.9400 0.9410
494.782272 0.9440 0.9460 0.9490 0.9500 0.9520
499.130099 0.9560 0.9560 0.9560 0.9570 0.9590
503.477927 0.9590 0.9590 0.9600 0.9600 0.9600
507.825754 0.9600 0.9600 0.9600 0.9590 0.9570
512.173581 0.9550 0.9490 0.9480 0.9480 0.9480
516.521408 0.9480 0.9490 0.9500 0.9550 0.9570
520.869235 0.9590 0.9600 0.9590 0.9560 0.9550
525.217063 0.9490 0.9450 0.9350 0.9121 0.8911
529.564890 0.8690 0.8690 0.8780 0.9040 0.9180
533.912717 0.9310 0.9370 0.9480 0.9560 0.9610
538.260544 0.9680 0.9720 0.9780 0.9790 0.9820
542.608372 0.9850 0.9860 0.9860 0.9860 0.9870
546.956199 0.9890 0.9900 0.9930 0.9940 0.9970
551.304026 0.9970 0.9980 0.9980 0.9980 1.0000
555.651853 1.0010 1.0010 1.0010 1.0010 1.0010
559.999680 1.0020 1.0020 1.0010 1.0010 1.0020
564.347508 1.0020 1.0020 1.0020 1.0020 1.0020
568.695335 1.0020 1.0020 1.0020 1.0010 1.0010
573.043162 1.0010 1.0010 1.0000 1.0000 0.9980
577.390989 0.9980 0.9980 0.9970 0.9970 0.9970
581.738816 0.9940 0.9930 0.9910 0.9910 0.9900
586.086644 0.9870 0.9850 0.9820 0.9790 0.9780
590.434471 0.9740 0.9680 0.9650 0.9630 0.9590
594.782298 0.9560 0.9480 0.9420 0.9380 0.9340
599.130125 0.9270 0.9120 0.8930 0.8730 0.8520
603.477953 0.8321 0.8031 0.7761 0.7282 0.6852
607.825780 0.6450 0.6180 0.5811 0.5461 0.5420
612.173607 0.5580 0.5729 0.5919 0.6179 0.6518
616.521434 0.6970 0.7389 0.7600 0.8428 0.8729
620.869261 0.8800 0.8910 0.9248 0.9270 0.9330
625.217089 0.9330 0.9340 0.9340 0.9340 0.9330
629.564916 0.9330 0.9290 0.9230 0.9190 0.9150
633.912743 0.9120 0.9010 0.8930 0.8840 0.8740
638.260570 0.8660 0.8521 0.8500 0.8500 0.8520
642.608397 0.8670 0.8700 0.8730 0.8770 0.8800
646.956225 0.8800 0.8800 0.8800 0.8780 0.8770
651.304052 0.8770 0.8760 0.8710 0.8690 0.8660
655.651879 0.8660 0.8660 0.8650 0.8650 0.8650
659.999706 0.8630 0.8630 0.8590 0.8540 0.8480
664.347534 0.8330 0.8161 0.7971 0.7821 0.7621
668.695361 0.7450 0.6881 0.6171 0.5941 0.5501
673.043188 0.4683 0.4162 0.2358 0.1902 0.1433
677.391015 0.0950 0.0810 0.0680 0.0400 0.0400
681.738842 0.0729 0.1278 0.1400 0.1997 0.2856
686.086670 0.3460 0.4069 0.4669 0.5009 0.5579
690.434497 0.6029 0.6289 0.6818 0.6860 0.6969
694.782324 0.7110 0.7300 0.7500 0.7789 0.8129
699.130151 0.8240 0.8409 0.8579 0.8729 0.8819
703.477978 0.8920 0.8930 0.8970 0.9000 0.9030
707.825806 0.9050 0.9120 0.9150 0.9180 0.9200
712.173633 0.9220 0.9220 0.9220 0.9220 0.9220
716.521460 0.9220 0.9220 0.9220 0.9200 0.9190
720.869287 0.9160 0.9120 0.9120 0.9080 0.9050
725.217115 0.9010 0.8950 0.8920 0.8840 0.8810
729.564942 0.8810 0.8770 0.8710 0.8620 0.8510
733.912769 0.8321 0.8061 0.7801 0.7561 0.6933
738.260596 0.6450 0.5281 0.3173 0.2751 0.2301
742.608423 0.1861 0.1332 0.1151 0.1001 0.1000
746.956251 0.1560 0.2119 0.2669 0.3219 0.3778
751.304078 0.4298 0.6092 0.6448 0.6599 0.6849
755.651905 0.7260 0.7420 0.7580 0.7650 0.7830
759.999732 0.8029 0.8179 0.8260 0.8330 0.8320
764.347559 0.8310 0.8240 0.8140 0.8020 0.7940
768.695387 0.7940 0.7950 0.7980 0.8070 0.8199
773.043214 0.8310 0.8370 0.8410 0.8410 0.8390
777.391041 0.8320 0.8220 0.8071 0.7861 0.7611
781.738868 0.7380 0.6970 0.6750 0.6660 0.6660
786.086696 0.6750 0.6860 0.6940 0.7049 0.7418
790.434523 0.7800 0.8160 0.8430 0.8500 0.8550
794.782350 0.8660 0.8740 0.8800 0.8890 0.8910
799.130177 0.8920 0.8950 0.9030 0.9080 0.9100
803.478004 0.9110 0.9120 0.9140 0.9150 0.9150
807.825832 0.9160 0.9160 0.9160 0.9150 0.9120
812.173659 0.9120 0.9120 0.9080 0.9050 0.9010
816.521486 0.8960 0.8930 0.8920 0.8890 0.8800
820.869313 0.8700 0.8551 0.8411 0.8320 0.8141
825.217140 0.7860 0.7570 0.7320 0.6731 0.6171
829.564968 0.5352 0.4353 0.3364 0.3061 0.2562
833.912795 0.1780 0.1640 0.1640 0.1890 0.2080
838.260622 0.2419 0.2948 0.3289 0.3320 0.3161
842.608449 0.3070 0.2970 0.2860 0.2760 0.2760
846.956277 0.3139 0.3518 0.4107 0.4647 0.5426
851.304104 0.5690 0.6260 0.6370 0.6600 0.6750
855.651931 0.6850 0.6960 0.7090 0.7190 0.7260
859.999758 0.7410 0.7490 0.7580 0.7670 0.7720
864.347585 0.7770 0.7820 0.7870 0.7940 0.7950
868.695413 0.7970 0.8020 0.8060 0.8110 0.8140
873.043240 0.8160 0.8200 0.8210 0.8210 0.8210
877.391067 0.8200 0.8170 0.8160 0.8090 0.8020
881.738894 0.7910 0.7751 0.7601 0.7341 0.6932
886.086721 0.6490 0.6140 0.5361 0.5360 0.5609
890.434549 0.5799 0.6109 0.6379 0.6509 0.6789
894.782376 0.7090 0.7430 0.7759 0.8019 0.8239
899.130203 0.8350 0.8509 0.8669 0.8769 0.8810
903.478030 0.8810 0.8770 0.8730 0.8710 0.8560
907.825858 0.8410 0.8280 0.8101 0.7722 0.7491
912.173685 0.7220 0.7090 0.7090 0.7280 0.7599
916.521512 0.7670 0.7760 0.7949 0.7970 0.7970
920.869339 0.7950 0.7950 0.7940 0.7940 0.7950
925.217166 0.7970 0.8139 0.8329 0.8439 0.8539
929.564994 0.8560 0.8590 0.8580 0.8520 0.8500
933.912821 0.8410 0.8320 0.8161 0.7991 0.7821
938.260648 0.7730 0.7620 0.7410 0.7131 0.6671
942.608475 0.6281 0.6141 0.6140 0.6289 0.6628
946.956302 0.6810 0.7130 0.7320 0.7390 0.7390
951.304130 0.7280 0.7001 0.6821 0.6641 0.6232
955.651957 0.5960 0.5420 0.4951 0.4611 0.3961
959.999784 0.3551 0.3610 0.3710 0.3969 0.4517
964.347611 0.5360 0.5830 0.6249 0.6809 0.7269
968.695439 0.7569 0.7879 0.8169 0.8538 0.8669
973.043266 0.8890 0.8930 0.9050 0.9150 0.9230
977.391093 0.9330 0.9340 0.9370 0.9440 0.9480
981.738920 0.9500 0.9530 0.9550 0.9550 0.9570
986.086747 0.9600 0.9610 0.9630 0.9640 0.9650
990.434575 0.9700 0.9710 0.9720 0.9740 0.9750
994.782402 0.9760 0.9780 0.9780 0.9780 0.9790
999.130229 0.9790 0.9790 0.9800 0.9800 0.9790
1003.478056 0.9790 0.9790 0.9790 0.9790 0.9790
1007.825883 0.9780 0.9780 0.9780 0.9760 0.9760
1012.173711 0.9750 0.9720 0.9720 0.9720 0.9710
1016.521538 0.9710 0.9700 0.9680 0.9670 0.9650
1020.869365 0.9640 0.9630 0.9630 0.9630 0.9630
1025.217192 0.9630 0.9610 0.9600 0.9590 0.9570
1029.565020 0.9570 0.9570 0.9560 0.9550 0.9550
1033.912847 0.9520 0.9500 0.9490 0.9480 0.9450
1038.260674 0.9420 0.9410 0.9370 0.9310 0.9250
1042.608501 0.9200 0.9150 0.9110 0.9030 0.8960
1046.956328 0.8910 0.8820 0.8770 0.8730 0.8690
1051.304156 0.8480 0.8350 0.8310 0.8240 0.8130
1055.651983 0.7980 0.7870 0.7760 0.7421 0.7301
1059.999810 0.7090 0.6700 0.6430 0.6180 0.5891
1064.347637 0.5392 0.5061 0.4632 0.4112 0.3066
1068.695464 0.2620 0.2001 0.1151 0.1040 0.0940
1073.043292 0.0771 0.0760 0.0770 0.0999 0.1298
1077.391119 0.1590 0.2040 0.2200 0.2619 0.2820
1081.738946 0.2870 0.2870 0.2800 0.2531 0.2341
1086.086773 0.2110 0.1710 0.1380 0.1360 0.1131
1090.434601 0.1000 0.0880 0.0830 0.0800 0.0830
1094.782428 0.1080 0.1300 0.1729 0.2418 0.2759
1099.130255 0.3179 0.3668 0.4098 0.4398 0.4678
1103.478082 0.4680 0.4670 0.4570 0.4450 0.4181
1107.825909 0.3951 0.3800 0.3760 0.3173 0.3170
1112.173737 0.3460 0.3620 0.3840 0.4259 0.4609
1116.521564 0.4999 0.5359 0.5679 0.5789 0.6357
1120.869391 0.6620 0.6740 0.6920 0.6920 0.6850
1125.217218 0.6830 0.6780 0.6780 0.6860 0.6940
1129.565045 0.7020 0.7410 0.7860 0.8060 0.8240
1133.912873 0.8350 0.8509 0.8540 0.8580 0.8630
1138.260700 0.8700 0.8730 0.8780 0.8820 0.8880
1142.608527 0.8920 0.8930 0.8950 0.8970 0.9000
1146.956354 0.9010 0.9030 0.9050 0.9080 0.9100
1151.304182 0.9110 0.9120 0.9120 0.9140 0.9140
1155.652009 0.9140 0.9140 0.9140 0.9140 0.9140
1159.999836 0.9140 0.9140 0.9120 0.9120 0.9110
1164.347663 0.9100 0.9080 0.9070 0.9050 0.9050
1168.695490 0.9030 0.9030 0.8990 0.8950 0.8930
1173.043318 0.8910 0.8890 0.8810 0.8730 0.8610
1177.391145 0.8520 0.8500 0.8480 0.8430 0.8350
1181.738972 0.8220 0.8100 0.7970 0.7790 0.7650
1186.086799 0.7580 0.7431 0.7261 0.7091 0.6921
1190.434626 0.6620 0.6280 0.5980 0.5890 0.5621
1194.782454 0.5251 0.5021 0.4821 0.4711 0.4670
1199.130281 0.4500 0.4330 0.4160 0.3990 0.3880
1203.478108 0.3651 0.3371 0.3240 0.3160 0.3110
1207.825935 0.3020 0.3010 0.3020 0.3240 0.3559
1212.173763 0.3620 0.3799 0.3959 0.4030 0.4159
1216.521590 0.4260 0.4370 0.4490 0.4670 0.4909
1220.869417 0.5249 0.5698 0.5879 0.6039 0.6358
1225.217244 0.6620 0.6900 0.7020 0.7110 0.7260
1229.565071 0.7370 0.7490 0.7669 0.7839 0.7860
1233.912899 0.7830 0.7820 0.7760 0.7650 0.7460
1238.260726 0.7271 0.7190 0.7051 0.7040 0.7070
1242.608553 0.7190 0.7320 0.7390 0.7490 0.7580
1246.956380 0.7580 0.7470 0.7420 0.7261 0.7091
1251.304207 0.6670 0.6190 0.5980 0.5621 0.4672
1255.652035 0.4311 0.4250 0.4250 0.4439 0.4629
1259.999862 0.5240 0.5790 0.6319 0.6899 0.7090
1264.347689 0.7299 0.7579 0.7769 0.7949 0.8129
1268.695516 0.8200 0.8330 0.8410 0.8510 0.8540
1273.043344 0.8510 0.8500 0.8440 0.8390 0.8350
1277.391171 0.8320 0.8220 0.8110 0.7870 0.7611
1281.738998 0.6972 0.6382 0.5832 0.5611 0.5640
1286.086825 0.5950 0.6320 0.6769 0.7189 0.7459
1290.434652 0.8058 0.8498 0.8510 0.8580 0.8660
1294.782480 0.8700 0.8710 0.8740 0.8740 0.8760
1299.130307 0.8770 0.8760 0.8780 0.8800 0.8840
1303.478134 0.8890 0.8910 0.8970 0.9030 0.9110
1307.825961 0.9160 0.9220 0.9260 0.9300 0.9330
1312.173788 0.9350 0.9370 0.9380 0.9410 0.9410
1316.521616 0.9420 0.9440 0.9460 0.9480 0.9480
1320.869443 0.9490 0.9490 0.9490 0.9490 0.9500
1325.217270 0.9500 0.9500 0.9500 0.9500 0.9500
1329.565097 0.9500 0.9500 0.9490 0.9490 0.9490
1333.912925 0.9490 0.9490 0.9490 0.9490 0.9490
1338.260752 0.9480 0.9480 0.9480 0.9490 0.9490
1342.608579 0.9490 0.9490 0.9490 0.9490 0.9490
1346.956406 0.9490 0.9490 0.9490 0.9490 0.9490
1351.304233 0.9490 0.9490 0.9490 0.9490 0.9480
1355.652061 0.9480 0.9460 0.9440 0.9420 0.9410
1359.999888 0.9370 0.9330 0.9250 0.9180 0.9140
1364.347715 0.9110 0.9040 0.8960 0.8920 0.8910
1368.695542 0.8810 0.8810 0.8730 0.8591 0.8411
1373.043369 0.8320 0.8130 0.7980 0.7770 0.7580
1377.391197 0.7171 0.6681 0.6531 0.5106 0.4453
1381.739024 0.2170 0.1790 0.0991 0.0990 0.1788
1386.086851 0.2787 0.3209 0.4077 0.4946 0.5308
1390.434678 0.6450 0.6970 0.7489 0.7620 0.7869
1394.782506 0.8069 0.8180 0.8319 0.8370 0.8460
1399.130333 0.8500 0.8510 0.8560 0.8610 0.8630
1403.478160 0.8650 0.8650 0.8650 0.8650 0.8630
1407.825987 0.8630 0.8620 0.8610 0.8610 0.8550
1412.173814 0.8510 0.8500 0.8460 0.8390 0.8320
1416.521642 0.8220 0.8140 0.7950 0.7830 0.7461
1420.869469 0.7091 0.6383 0.5812 0.5382 0.4525
1425.217296 0.4520 0.4940 0.5140 0.5350 0.5490
1429.565123 0.5690 0.5889 0.6289 0.6678 0.7118
1433.912950 0.7190 0.7260 0.7320 0.7350 0.7390
1438.260778 0.7390 0.7350 0.7240 0.7160 0.7080
1442.608605 0.6750 0.6630 0.6530 0.6071 0.5871
1446.956432 0.5730 0.5690 0.5720 0.5829 0.6019
1451.304259 0.6360 0.6830 0.7130 0.7579 0.7830
1455.652087 0.8020 0.8170 0.8240 0.8320 0.8400
1459.999914 0.8500 0.8550 0.8630 0.8700 0.8700
1464.347741 0.8740 0.8780 0.8800 0.8820 0.8840
1468.695568 0.8850 0.8850 0.8840 0.8840 0.8820
1473.043395 0.8820 0.8820 0.8820 0.8840 0.8840
1477.391223 0.8840 0.8840 0.8850 0.8850 0.8850
1481.739050 0.8850 0.8850 0.8840 0.8820 0.8810
1486.086877 0.8800 0.8770 0.8760 0.8730 0.8710
1490.434704 0.8670 0.8630 0.8590 0.8540 0.8510
1494.782531 0.8470 0.8430 0.8400 0.8360 0.8330
1499.130359 0.8320 0.8240 0.8140 0.8110 0.8020
1503.478186 0.7970 0.7940 0.7830 0.7770 0.7750
1507.826013 0.7690 0.7620 0.7600 0.7500 0.7430
1512.173840 0.7390 0.7340 0.7280 0.7230 0.7190
1516.521668 0.7150 0.7090 0.7080 0.7040 0.7000
1520.869495 0.6930 0.6900 0.6850 0.6810 0.6750
1525.217322 0.6700 0.6640 0.6600 0.6550 0.6480
1529.565149 0.6470 0.6330 0.6290 0.6150 0.6060
1533.912976 0.6000 0.5890 0.5810 0.5661 0.5551
1538.260804 0.5470 0.5380 0.5270 0.5120 0.5000
1542.608631 0.5000 0.4890 0.4820 0.4790 0.4760
1546.956458 0.4760 0.4750 0.4750 0.4750 0.4780
1551.304285 0.4790 0.4820 0.4830 0.4900 0.4999
1555.652112 0.5020 0.5120 0.5240 0.5290 0.5340
1559.999940 0.5470 0.5530 0.5640 0.5759 0.5850
1564.347767 0.5870 0.5940 0.6000 0.6060 0.6150
1568.695594 0.6170 0.6290 0.6300 0.6340 0.6380
1573.043421 0.6400 0.6430 0.6450 0.6450 0.6490
1577.391249 0.6510 0.6530 0.6550 0.6550 0.6580
1581.739076 0.6600 0.6630 0.6640 0.6680 0.6740
1586.086903 0.6770 0.6830 0.6900 0.6970 0.7040
1590.434730 0.7090 0.7170 0.7340 0.7410 0.7470
1594.782557 0.7570 0.7650 0.7750 0.7830 0.7939
1599.130385 0.7970 0.8100 0.8170 0.8310 0.8350
1603.478212 0.8430 0.8500 0.8510 0.8560 0.8650
1607.826039 0.8700 0.8760 0.8780 0.8820 0.8860
1612.173866 0.8920 0.8920 0.8930 0.8950 0.8960
1616.521693 0.8960 0.8960 0.8960 0.8950 0.8950
1620.869521 0.8930 0.8920 0.8910 0.8910 0.8860
1625.217348 0.8820 0.8770 0.8710 0.8590 0.8510
1629.565175 0.8470 0.8320 0.8131 0.8050 0.8050
1633.913002 0.8320 0.8520 0.8730 0.8910 0.8960
1638.260830 0.8970 0.8990 0.8970 0.8960 0.8920
1642.608657 0.8890 0.8820 0.8770 0.8700 0.8590
1646.956484 0.8371 0.8370 0.8430 0.8619 0.8819
1651.304311 0.8910 0.9050 0.9190 0.9230 0.9270
1655.652138 0.9310 0.9310 0.9330 0.9340 0.9350
1659.999966 0.9370 0.9380 0.9400 0.9400 0.9410
1664.347793 0.9410 0.9410 0.9410 0.9420 0.9410
1668.695620 0.9410 0.9410 0.9410 0.9410 0.9400
1673.043447 0.9400 0.9380 0.9370 0.9370 0.9350
1677.391274 0.9350 0.9350 0.9340 0.9340 0.9350
1681.739102 0.9370 0.9370 0.9370 0.9370 0.9380
1686.086929 0.9380 0.9380 0.9380 0.9380 0.9370
1690.434756 0.9370 0.9350 0.9340 0.9340 0.9340
1694.782583 0.9350 0.9370 0.9380 0.9380 0.9380
1699.130411 0.9380 0.9380 0.9370 0.9350 0.9350
1703.478238 0.9340 0.9340 0.9340 0.9330 0.9310
1707.826065 0.9310 0.9290 0.9270 0.9250 0.9200
1712.173892 0.9180 0.9150 0.9120 0.9080 0.9040
1716.521719 0.9000 0.8970 0.8950 0.8920 0.8920
1720.869547 0.8910 0.8850 0.8820 0.8800 0.8770
1725.217374 0.8740 0.8730 0.8730 0.8700 0.8700
1729.565201 0.8690 0.8690 0.8670 0.8670 0.8670
1733.913028 0.8670 0.8670 0.8690 0.8700 0.8700
1738.260855 0.8700 0.8710 0.8760 0.8800 0.8820
1742.608683 0.8850 0.8860 0.8910 0.8930 0.8960
1746.956510 0.9010 0.9030 0.9050 0.9110 0.9120
1751.304337 0.9160 0.9180 0.9190 0.9190 0.9190
1755.652164 0.9200 0.9200 0.9200 0.9200 0.9200
1759.999992 0.9200 0.9220 0.9220 0.9220 0.9230
1764.347819 0.9250 0.9260 0.9270 0.9270 0.9270
1768.695646 0.9270 0.9270 0.9270 0.9270 0.9290
1773.043473 0.9300 0.9300 0.9300 0.9300 0.9300
1777.391300 0.9300 0.9300 0.9290 0.9290 0.9270
1781.739128 0.9270 0.9250 0.9230 0.9220 0.9200
1786.086955 0.9200 0.9190 0.9180 0.9150 0.9140
1790.434782 0.9120 0.9110 0.9100 0.9100 0.9100
1794.782609 0.9080 0.9080 0.9080 0.9100 0.9100
1799.130436 0.9110 0.9110 0.9140 0.9150 0.9200
1803.478264 0.9220 0.9250 0.9270 0.9310 0.9310
1807.826091 0.9330 0.9340 0.9340 0.9330 0.9330
1812.173918 0.9340 0.9340 0.9350 0.9380 0.9400
1816.521745 0.9410 0.9410 0.9420 0.9410 0.9410
1820.869573 0.9410 0.9410 0.9420 0.9420 0.9420
1825.217400 0.9420 0.9420 0.9440 0.9440 0.9440
1829.565227 0.9440 0.9440 0.9420 0.9410 0.9410
1833.913054 0.9400 0.9400 0.9400 0.9400 0.9410
1838.260881 0.9420 0.9420 0.9420 0.9420 0.9420
1842.608709 0.9440 0.9440 0.9420 0.9420 0.9420
1846.956536 0.9410 0.9410 0.9410 0.9410 0.9420
1851.304363 0.9420 0.9420 0.9420 0.9420 0.9420
1855.652190 0.9420 0.9420 0.9410 0.9410 0.9410
1860.000017 0.9410 0.9410 0.9420 0.9420 0.9440
1864.347845 0.9440 0.9440 0.9440 0.9450 0.9450
1868.695672 0.9460 0.9480 0.9490 0.9490 0.9480
1873.043499 0.9480 0.9480 0.9480 0.9480 0.9480
1877.391326 0.9480 0.9480 0.9460 0.9460 0.9460
1881.739154 0.9460 0.9460 0.9460 0.9460 0.9460
1886.086981 0.9460 0.9460 0.9450 0.9450 0.9440
1890.434808 0.9420 0.9420 0.9420 0.9440 0.9440
1894.782635 0.9440 0.9450 0.9450 0.9450 0.9450
1899.130462 0.9450 0.9450 0.9450 0.9480 0.9480
1903.478290 0.9490 0.9490 0.9490 0.9490 0.9490
1907.826117 0.9480 0.9480 0.9480 0.9460 0.9460
1912.173944 0.9480 0.9480 0.9460 0.9460 0.9460
1916.521771 0.9460 0.9460 0.9460 0.9460 0.9450
1920.869598 0.9440 0.9420 0.9420 0.9420 0.9410
1925.217426 0.9410 0.9410 0.9410 0.9410 0.9420
1929.565253 0.9440 0.9440 0.9450 0.9450 0.9450
1933.913080 0.9460 0.9460 0.9460 0.9480 0.9480
1938.260907 0.9490 0.9500 0.9500 0.9520 0.9520
1942.608735 0.9520 0.9500 0.9490 0.9480 0.9480
1946.956562 0.9480 0.9480 0.9480 0.9480 0.9480
1951.304389 0.9480 0.9480 0.9480 0.9460 0.9460
1955.652216 0.9460 0.9460 0.9460 0.9460 0.9460
1960.000043 0.9460 0.9460 0.9460 0.9460 0.9460
1964.347871 0.9460 0.9460 0.9460 0.9460 0.9460
1968.695698 0.9480 0.9490 0.9490 0.9500 0.9520
1973.043525 0.9530 0.9530 0.9530 0.9530 0.9530
1977.391352 0.9520 0.9520 0.9520 0.9500 0.9500
1981.739179 0.9490 0.9490 0.9490 0.9490 0.9490
1986.087007 0.9490 0.9490 0.9490 0.9490 0.9490
1990.434834 0.9500 0.9500 0.9480 0.9460 0.9450
1994.782661 0.9450 0.9480 0.9530 0.9550 0.9550
1999.130488 0.9560 0.9560 0.9560 0.9560 0.9565
2003.478316 0.9570 0.9570 0.9570 0.9570 0.9570
2007.826143 0.9585 0.9600 0.9615 0.9630 0.9635
2012.173970 0.9640 0.9655 0.9670 0.9670 0.9670
2016.521797 0.9660 0.9650 0.9650 0.9650 0.9650
2020.869624 0.9650 0.9645 0.9640 0.9635 0.9630
2025.217452 0.9630 0.9630 0.9630 0.9630 0.9630
2029.565279 0.9630 0.9630 0.9630 0.9621 0.9611
2033.913106 0.9610 0.9610 0.9620 0.9630 0.9630
2038.260933 0.9630 0.9630 0.9630 0.9621 0.9611
2042.608760 0.9605 0.9600 0.9600 0.9600 0.9595
2046.956588 0.9590 0.9581 0.9571 0.9570 0.9570
2051.304415 0.9565 0.9560 0.9560 0.9560 0.9560
2055.652242 0.9560 0.9560 0.9560 0.9560 0.9560
2060.000069 0.9560 0.9560 0.9560 0.9560 0.9565
2064.347897 0.9570 0.9570 0.9570 0.9570 0.9570
2068.695724 0.9579 0.9589 0.9595 0.9600 0.9614
2073.043551 0.9629 0.9635 0.9640 0.9640 0.9640
2077.391378 0.9640 0.9640 0.9645 0.9650 0.9659
2081.739205 0.9669 0.9674 0.9679 0.9689 0.9699
2086.087033 0.9700 0.9700 0.9700 0.9700 0.9700
2090.434860 0.9700 0.9691 0.9681 0.9676 0.9671
2094.782687 0.9670 0.9670 0.9661 0.9651 0.9650
2099.130514 0.9650 0.9650 0.9650 0.9650 0.9650
2103.478341 0.9650 0.9650 0.9659 0.9669 0.9670
2107.826169 0.9670 0.9670 0.9670 0.9674 0.9679
2112.173996 0.9689 0.9699 0.9700 0.9700 0.9700
2116.521823 0.9700 0.9700 0.9700 0.9700 0.9700
2120.869650 0.9700 0.9700 0.9700 0.9700 0.9700
2125.217478 0.9700 0.9700 0.9700 0.9691 0.9682
2129.565305 0.9676 0.9671 0.9670 0.9670 0.9662
2133.913132 0.9652 0.9650 0.9650 0.9650 0.9650
2138.260959 0.9650 0.9650 0.9650 0.9650 0.9650
2142.608786 0.9650 0.9650 0.9650 0.9650 0.9650
2146.956614 0.9650 0.9650 0.9650 0.9650 0.9650
2151.304441 0.9650 0.9650 0.9650 0.9650 0.9650
2155.652268 0.9650 0.9650 0.9650 0.9650 0.9650
2160.000095 0.9650 0.9650 0.9650 0.9650 0.9650
2164.347922 0.9650 0.9650 0.9658 0.9668 0.9670
2168.695750 0.9670 0.9670 0.9670 0.9670 0.9670
2173.043577 0.9670 0.9670 0.9670 0.9670 0.9670
2177.391404 0.9670 0.9670 0.9670 0.9670 0.9670
2181.739231 0.9670 0.9670 0.9670 0.9670 0.9670
2186.087059 0.9670 0.9674 0.9679 0.9680 0.9680
2190.434886 0.9680 0.9680 0.9680 0.9680 0.9680
2194.782713 0.9680 0.9680 0.9680 0.9688 0.9698
2199.130540 0.9688 0.9673 0.9670 0.9670 0.9670
2203.478367 0.9670 0.9670 0.9670 0.9670 0.9670
