##TITLE=Cyclopropane, bromo-
##JCAMP-DX=4.24
##DATA TYPE=INFRARED SPECTRUM
##CLASS=COBLENTZ
##ORIGIN=DOW CHEMICAL COMPANY
##OWNER=Copyright (C) 1987 by the Coblentz Society
Collection (C) 2018 copyright by the U.S. Secretary of Commerce
on behalf of the United States of America. All rights reserved.
##DATE=1964
##NAMES=bromocyclopropane
CYCLOPROPYL BROMIDE
##CAS REGISTRY NO=4333-56-6
##MOLFORM=C3 H5 Br
##SOURCE REFERENCE=COBLENTZ NO. 8826
##$NIST SOURCE=COBLENTZ
##$NIST IMAGE=cob8826
##SPECTROMETER/DATA SYSTEM=DOW KBr FOREPRISM-GRATING
##INSTRUMENT PARAMETERS=GRATING CHANGED AT 5.0, 7.5, 15.0 MICRON
##STATE=GAS (50 mmHg, N2 ADDED, TOTAL PRESSURE 600 mmHg)
##PATH LENGTH=10 CM
##SAMPLING PROCEDURE=TRANSMISSION
##RESOLUTION=2
##DATA PROCESSING=DIGITIZED BY COBLENTZ SOCIETY (BATCH II) FROM HARD COPY
##XUNITS=1/CM
##YUNITS=TRANSMITTANCE
##XFACTOR=1.0
##YFACTOR=1
##FIRSTX=462
##LASTX=3794
##FIRSTY=0.8485
##MAXX=3794
##MINX=462
##MAXY=0.8932
##MINY=0.0992
##NPOINTS=3333
##XYDATA=(X++(Y..Y))
462.000000 0.8485 0.8489 0.8490 0.8491 0.8492
467.000000 0.8494 0.8495 0.8496 0.8496 0.8495
472.000000 0.8495 0.8495 0.8494 0.8494 0.8493
477.000000 0.8493 0.8491 0.8490 0.8488 0.8487
482.000000 0.8485 0.8484 0.8482 0.8481 0.8479
487.000000 0.8478 0.8476 0.8474 0.8473 0.8471
492.000000 0.8470 0.8468 0.8467 0.8465 0.8464
497.000000 0.8462 0.8460 0.8459 0.8457 0.8456
502.000000 0.8454 0.8452 0.8450 0.8448 0.8446
507.000000 0.8443 0.8441 0.8439 0.8437 0.8435
512.000000 0.8433 0.8431 0.8430 0.8430 0.8430
517.000000 0.8430 0.8430 0.8430 0.8430 0.8430
522.000000 0.8430 0.8428 0.8422 0.8416 0.8411
527.000000 0.8393 0.8361 0.8324 0.8284 0.8245
532.000000 0.8192 0.8131 0.8064 0.7981 0.7898
537.000000 0.7791 0.7673 0.7553 0.7398 0.7218
542.000000 0.7021 0.6824 0.6628 0.6431 0.6235
547.000000 0.6038 0.5841 0.5660 0.5645 0.5751
552.000000 0.5842 0.5934 0.6025 0.6071 0.5716
557.000000 0.5518 0.5691 0.5943 0.6196 0.6239
562.000000 0.6253 0.5105 0.5039 0.5830 0.6193
567.000000 0.6555 0.6918 0.7281 0.7643 0.8006
572.000000 0.8369 0.8495 0.8535 0.8549 0.8558
577.000000 0.8560 0.8561 0.8562 0.8563 0.8564
582.000000 0.8565 0.8566 0.8565 0.8563 0.8561
587.000000 0.8559 0.8556 0.8554 0.8552 0.8549
592.000000 0.8546 0.8543 0.8539 0.8536 0.8533
597.000000 0.8529 0.8526 0.8523 0.8521 0.8519
602.000000 0.8517 0.8515 0.8513 0.8511 0.8509
607.000000 0.8507 0.8504 0.8500 0.8497 0.8494
612.000000 0.8490 0.8487 0.8484 0.8480 0.8477
617.000000 0.8473 0.8470 0.8466 0.8462 0.8458
622.000000 0.8454 0.8451 0.8447 0.8443 0.8443
627.000000 0.8444 0.8446 0.8447 0.8449 0.8449
632.000000 0.8446 0.8443 0.8438 0.8430 0.8422
637.000000 0.8413 0.8407 0.8404 0.8402 0.8405
642.000000 0.8415 0.8424 0.8436 0.8448 0.8458
647.000000 0.8455 0.8453 0.8451 0.8449 0.8448
652.000000 0.8448 0.8450 0.8452 0.8453 0.8455
657.000000 0.8457 0.8459 0.8466 0.8474 0.8482
662.000000 0.8490 0.8498 0.8505 0.8513 0.8521
667.000000 0.8527 0.8530 0.8533 0.8488 0.8438
672.000000 0.8410 0.8414 0.8417 0.8508 0.8618
677.000000 0.8686 0.8689 0.8691 0.8693 0.8693
682.000000 0.8693 0.8693 0.8693 0.8693 0.8693
687.000000 0.8693 0.8693 0.8694 0.8694 0.8694
692.000000 0.8695 0.8696 0.8697 0.8698 0.8671
697.000000 0.8699 0.8699 0.8700 0.8701 0.8701
702.000000 0.8702 0.8702 0.8703 0.8704 0.8704
707.000000 0.8705 0.8706 0.8707 0.8707 0.8708
712.000000 0.8709 0.8710 0.8710 0.8710 0.8708
717.000000 0.8706 0.8705 0.8703 0.8701 0.8699
722.000000 0.8698 0.8696 0.8692 0.8689 0.8685
727.000000 0.8682 0.8678 0.8675 0.8671 0.8666
732.000000 0.8659 0.8651 0.8644 0.8637 0.8630
737.000000 0.8622 0.8615 0.8608 0.8599 0.8588
742.000000 0.8576 0.8565 0.8554 0.8534 0.8511
747.000000 0.8468 0.8391 0.8335 0.8327 0.8322
752.000000 0.8321 0.8317 0.8281 0.8207 0.8138
757.000000 0.8092 0.8076 0.8061 0.8046 0.8031
762.000000 0.8020 0.8010 0.7975 0.7895 0.7796
767.000000 0.7689 0.7609 0.7529 0.7416 0.7391
772.000000 0.7383 0.7374 0.7365 0.7357 0.7353
777.000000 0.7348 0.7344 0.7339 0.7334 0.7326
782.000000 0.7319 0.7311 0.7301 0.7285 0.7269
787.000000 0.7241 0.7145 0.7039 0.6891 0.6674
792.000000 0.6300 0.5764 0.5229 0.4955 0.4963
797.000000 0.4975 0.5080 0.5302 0.5524 0.5746
802.000000 0.5937 0.6024 0.6086 0.6717 0.7407
807.000000 0.7430 0.7247 0.7005 0.6762 0.6736
812.000000 0.6771 0.6750 0.6908 0.6976 0.7045
817.000000 0.7113 0.7181 0.7250 0.7318 0.7386
822.000000 0.7455 0.7523 0.7591 0.7659 0.7728
827.000000 0.7778 0.7820 0.7862 0.7885 0.7891
832.000000 0.7890 0.7903 0.7878 0.7856 0.7832
837.000000 0.7792 0.7749 0.7709 0.7670 0.7631
842.000000 0.7586 0.7541 0.7485 0.7420 0.7389
847.000000 0.7385 0.7380 0.7317 0.7226 0.7207
852.000000 0.7209 0.7251 0.7276 0.7328 0.7413
857.000000 0.7513 0.7604 0.7675 0.7736 0.7766
862.000000 0.7788 0.7796 0.7804 0.7821 0.7804
867.000000 0.7720 0.7450 0.7179 0.6909 0.6882
872.000000 0.7914 0.7909 0.7915 0.7929 0.7943
877.000000 0.7960 0.7977 0.7995 0.8014 0.8039
882.000000 0.8066 0.8092 0.8117 0.8142 0.8167
887.000000 0.8192 0.8226 0.8261 0.8295 0.8345
892.000000 0.8396 0.8437 0.8474 0.8507 0.8528
897.000000 0.8548 0.8557 0.8562 0.8565 0.8585
902.000000 0.8563 0.8557 0.8543 0.8528 0.8505
907.000000 0.8483 0.8456 0.8427 0.8397 0.8367
912.000000 0.8330 0.8294 0.8258 0.8222 0.8178
917.000000 0.8132 0.8087 0.8042 0.7996 0.7938
922.000000 0.7879 0.7786 0.7717 0.7723 0.7739
927.000000 0.7791 0.7844 0.7895 0.7890 0.7728
932.000000 0.7470 0.7246 0.7249 0.7265 0.7319
937.000000 0.7376 0.7389 0.7389 0.7389 0.7387
942.000000 0.7378 0.7442 0.7595 0.7719 0.7829
947.000000 0.7931 0.8020 0.8103 0.8161 0.8218
952.000000 0.8276 0.8325 0.8368 0.8411 0.8454
957.000000 0.8487 0.8520 0.8553 0.8587 0.8613
962.000000 0.8633 0.8654 0.8675 0.8695 0.8707
967.000000 0.8719 0.8731 0.8743 0.8753 0.8762
972.000000 0.8770 0.8779 0.8801 0.8822 0.8826
977.000000 0.8830 0.8830 0.8818 0.8830 0.8823
982.000000 0.8813 0.8802 0.8792 0.8781 0.8766
987.000000 0.8751 0.8735 0.8720 0.8704 0.8683
992.000000 0.8661 0.8639 0.8618 0.8595 0.8569
997.000000 0.8543 0.8518 0.8492 0.8461 0.8412
1002.000000 0.8363 0.8311 0.8226 0.8142 0.8071
1007.000000 0.8014 0.7957 0.7900 0.7733 0.7527
1012.000000 0.7321 0.7115 0.6909 0.6650 0.6444
1017.000000 0.6225 0.5959 0.5783 0.5630 0.5520
1022.000000 0.5411 0.5190 0.4823 0.4639 0.4635
1027.000000 0.4939 0.5314 0.5369 0.5256 0.5374
1032.000000 0.4752 0.4499 0.4247 0.4194 0.4172
1037.000000 0.4726 0.5111 0.5374 0.5318 0.5308
1042.000000 0.5309 0.5320 0.5340 0.5376 0.5408
1047.000000 0.5445 0.5492 0.5541 0.5590 0.5672
1052.000000 0.6324 0.6723 0.6822 0.6897 0.6955
1057.000000 0.6985 0.7014 0.7049 0.7096 0.7281
1062.000000 0.7446 0.7643 0.7787 0.7933 0.8071
1067.000000 0.8142 0.8208 0.8256 0.8304 0.8339
1072.000000 0.8368 0.8397 0.8425 0.8442 0.8459
1077.000000 0.8476 0.8492 0.8504 0.8517 0.8529
1082.000000 0.8542 0.8555 0.8567 0.8578 0.8590
1087.000000 0.8601 0.8613 0.8624 0.8636 0.8646
1092.000000 0.8656 0.8666 0.8677 0.8687 0.8697
1097.000000 0.8707 0.8717 0.8727 0.8738 0.8746
1102.000000 0.8753 0.8760 0.8767 0.8774 0.8781
1107.000000 0.8788 0.8795 0.8802 0.8809 0.8814
1112.000000 0.8817 0.8820 0.8823 0.8825 0.8828
1117.000000 0.8831 0.8855 0.8836 0.8835 0.8834
1122.000000 0.8834 0.8833 0.8832 0.8831 0.8830
1127.000000 0.8830 0.8827 0.8822 0.8817 0.8811
1132.000000 0.8806 0.8801 0.8795 0.8787 0.8779
1137.000000 0.8770 0.8761 0.8753 0.8744 0.8736
1142.000000 0.8728 0.8722 0.8717 0.8711 0.8706
1147.000000 0.8700 0.8694 0.8689 0.8683 0.8681
1152.000000 0.8678 0.8676 0.8673 0.8670 0.8668
1157.000000 0.8665 0.8663 0.8661 0.8661 0.8660
1162.000000 0.8660 0.8660 0.8660 0.8659 0.8659
1167.000000 0.8659 0.8658 0.8658 0.8658 0.8656
1172.000000 0.8655 0.8654 0.8653 0.8652 0.8651
1177.000000 0.8650 0.8649 0.8648 0.8656 0.8670
1182.000000 0.8687 0.8720 0.8730 0.8732 0.8723
1187.000000 0.8703 0.8683 0.8663 0.8638 0.8601
1192.000000 0.8564 0.8519 0.8474 0.8438 0.8423
1197.000000 0.8432 0.8454 0.8510 0.8594 0.8645
1202.000000 0.8650 0.8645 0.8632 0.8591 0.8549
1207.000000 0.8507 0.8469 0.8432 0.8414 0.8418
1212.000000 0.8436 0.8491 0.8550 0.8609 0.8653
1217.000000 0.8658 0.8658 0.8658 0.8658 0.8630
1222.000000 0.8582 0.8535 0.8490 0.8446 0.8402
1227.000000 0.8354 0.8304 0.8255 0.8226 0.8226
1232.000000 0.8272 0.8360 0.8420 0.8443 0.8442
1237.000000 0.8411 0.8255 0.8112 0.8037 0.7966
1242.000000 0.7912 0.7861 0.7830 0.7801 0.7774
1247.000000 0.7762 0.7751 0.7740 0.7653 0.7473
1252.000000 0.7158 0.6389 0.5619 0.4849 0.4079
1257.000000 0.3693 0.3146 0.2599 0.2051 0.1504
1262.000000 0.1088 0.1093 0.1157 0.1307 0.1603
1267.000000 0.1899 0.2195 0.2424 0.2475 0.3049
1272.000000 0.3620 0.3651 0.2900 0.2152 0.1404
1277.000000 0.0992 0.1011 0.1182 0.1831 0.2479
1282.000000 0.3128 0.3776 0.4266 0.4852 0.5437
1287.000000 0.6023 0.6609 0.7655 0.7883 0.8037
1292.000000 0.8231 0.8425 0.8521 0.8577 0.8591
1297.000000 0.8600 0.8604 0.8608 0.8614 0.8619
1302.000000 0.8622 0.8624 0.8627 0.8629 0.8626
1307.000000 0.8623 0.8620 0.8617 0.8614 0.8611
1312.000000 0.8608 0.8604 0.8602 0.8599 0.8597
1317.000000 0.8594 0.8592 0.8590 0.8588 0.8587
1322.000000 0.8585 0.8584 0.8586 0.8587 0.8588
1327.000000 0.8615 0.8597 0.8603 0.8616 0.8628
1332.000000 0.8535 0.8411 0.8373 0.8529 0.8657
1337.000000 0.8653 0.8649 0.8644 0.8636 0.8636
1342.000000 0.8644 0.8646 0.8645 0.8643 0.8641
1347.000000 0.8639 0.8636 0.8635 0.8634 0.8633
1352.000000 0.8632 0.8636 0.8640 0.8644 0.8649
1357.000000 0.8655 0.8661 0.8666 0.8671 0.8661
1362.000000 0.8649 0.8636 0.8623 0.8609 0.8606
1367.000000 0.8607 0.8617 0.8629 0.8646 0.8654
1372.000000 0.8663 0.8658 0.8646 0.8634 0.8623
1377.000000 0.8614 0.8607 0.8601 0.8595 0.8589
1382.000000 0.8584 0.8578 0.8573 0.8568 0.8563
1387.000000 0.8558 0.8555 0.8552 0.8550 0.8547
1392.000000 0.8546 0.8545 0.8544 0.8544 0.8543
1397.000000 0.8540 0.8536 0.8533 0.8521 0.8500
1402.000000 0.8479 0.8455 0.8431 0.8407 0.8380
1407.000000 0.8351 0.8322 0.8293 0.8262 0.8229
1412.000000 0.8195 0.8161 0.8128 0.8094 0.8062
1417.000000 0.8029 0.7996 0.7964 0.7931 0.7898
1422.000000 0.7854 0.7804 0.7753 0.7708 0.7682
1427.000000 0.7680 0.7685 0.7768 0.7864 0.7948
1432.000000 0.7950 0.7792 0.7578 0.7544 0.7537
1437.000000 0.7531 0.7523 0.7500 0.7473 0.7432
1442.000000 0.7366 0.7271 0.7155 0.7043 0.6945
1447.000000 0.6823 0.6724 0.6710 0.6710 0.6784
1452.000000 0.6857 0.6974 0.7301 0.7434 0.6945
1457.000000 0.6052 0.5872 0.7132 0.7588 0.7387
1462.000000 0.7039 0.6906 0.6912 0.7053 0.7148
1467.000000 0.7243 0.7338 0.7434 0.7724 0.7837
1472.000000 0.7952 0.8174 0.8297 0.8346 0.8377
1477.000000 0.8405 0.8423 0.8440 0.8464 0.8490
1482.000000 0.8507 0.8522 0.8537 0.8552 0.8567
1487.000000 0.8582 0.8597 0.8611 0.8619 0.8626
1492.000000 0.8634 0.8641 0.8649 0.8656 0.8663
1497.000000 0.8671 0.8678 0.8683 0.8688 0.8693
1502.000000 0.8694 0.8696 0.8697 0.8697 0.8696
1507.000000 0.8695 0.8694 0.8695 0.8697 0.8703
1512.000000 0.8711 0.8717 0.8717 0.8716 0.8712
1517.000000 0.8708 0.8704 0.8699 0.8695 0.8690
1522.000000 0.8685 0.8681 0.8676 0.8672 0.8668
1527.000000 0.8664 0.8660 0.8656 0.8652 0.8649
1532.000000 0.8650 0.8651 0.8652 0.8653 0.8647
1537.000000 0.8638 0.8629 0.8626 0.8623 0.8619
1542.000000 0.8619 0.8619 0.8619 0.8621 0.8625
1547.000000 0.8629 0.8634 0.8638 0.8642 0.8646
1552.000000 0.8639 0.8632 0.8624 0.8621 0.8618
1557.000000 0.8616 0.8613 0.8615 0.8619 0.8625
1562.000000 0.8631 0.8635 0.8633 0.8630 0.8628
1567.000000 0.8627 0.8626 0.8625 0.8623 0.8621
1572.000000 0.8618 0.8615 0.8612 0.8609 0.8606
1577.000000 0.8601 0.8597 0.8592 0.8606 0.8579
1582.000000 0.8559 0.8543 0.8536 0.8538 0.8547
1587.000000 0.8556 0.8566 0.8575 0.8581 0.8581
1592.000000 0.8575 0.8569 0.8563 0.8558 0.8562
1597.000000 0.8570 0.8578 0.8587 0.8597 0.8608
1602.000000 0.8611 0.8614 0.8616 0.8619 0.8621
1607.000000 0.8623 0.8625 0.8627 0.8629 0.8630
1612.000000 0.8631 0.8633 0.8635 0.8637 0.8640
1617.000000 0.8642 0.8645 0.8647 0.8649 0.8652
1622.000000 0.8652 0.8652 0.8653 0.8653 0.8654
1627.000000 0.8654 0.8655 0.8655 0.8656 0.8653
1632.000000 0.8648 0.8643 0.8637 0.8633 0.8628
1637.000000 0.8627 0.8630 0.8634 0.8643 0.8651
1642.000000 0.8659 0.8667 0.8674 0.8682 0.8689
1647.000000 0.8694 0.8699 0.8704 0.8708 0.8708
1652.000000 0.8708 0.8708 0.8708 0.8708 0.8708
1657.000000 0.8708 0.8708 0.8708 0.8708 0.8708
1662.000000 0.8709 0.8709 0.8709 0.8709 0.8709
1667.000000 0.8709 0.8709 0.8709 0.8709 0.8709
1672.000000 0.8710 0.8711 0.8711 0.8712 0.8712
1677.000000 0.8713 0.8713 0.8714 0.8712 0.8711
1682.000000 0.8710 0.8709 0.8707 0.8706 0.8705
1687.000000 0.8703 0.8702 0.8701 0.8699 0.8698
1692.000000 0.8697 0.8695 0.8694 0.8692 0.8691
1697.000000 0.8690 0.8688 0.8687 0.8685 0.8684
1702.000000 0.8684 0.8684 0.8683 0.8683 0.8683
1707.000000 0.8682 0.8682 0.8682 0.8681 0.8681
1712.000000 0.8672 0.8664 0.8651 0.8637 0.8622
1717.000000 0.8608 0.8593 0.8587 0.8582 0.8576
1722.000000 0.8571 0.8565 0.8563 0.8560 0.8561
1727.000000 0.8574 0.8575 0.8582 0.8590 0.8597
1732.000000 0.8581 0.8566 0.8552 0.8540 0.8540
1737.000000 0.8540 0.8544 0.8551 0.8559 0.8572
1742.000000 0.8591 0.8609 0.8627 0.8635 0.8644
1747.000000 0.8647 0.8648 0.8652 0.8658 0.8663
1752.000000 0.8668 0.8673 0.8678 0.8683 0.8687
1757.000000 0.8692 0.8696 0.8700 0.8696 0.8706
1762.000000 0.8709 0.8712 0.8712 0.8712 0.8707
1767.000000 0.8697 0.8688 0.8678 0.8672 0.8667
1772.000000 0.8661 0.8656 0.8650 0.8643 0.8637
1777.000000 0.8630 0.8624 0.8617 0.8611 0.8599
1782.000000 0.8585 0.8570 0.8555 0.8531 0.8513
1787.000000 0.8516 0.8518 0.8521 0.8524 0.8526
1792.000000 0.8528 0.8508 0.8487 0.8474 0.8468
1797.000000 0.8461 0.8459 0.8459 0.8461 0.8465
1802.000000 0.8489 0.8515 0.8545 0.8566 0.8577
1807.000000 0.8585 0.8593 0.8604 0.8614 0.8624
1812.000000 0.8632 0.8639 0.8648 0.8656 0.8662
1817.000000 0.8666 0.8670 0.8674 0.8677 0.8679
1822.000000 0.8681 0.8683 0.8685 0.8686 0.8688
1827.000000 0.8689 0.8690 0.8692 0.8713 0.8693
1832.000000 0.8694 0.8694 0.8694 0.8694 0.8692
1837.000000 0.8689 0.8687 0.8684 0.8682 0.8680
1842.000000 0.8677 0.8675 0.8673 0.8671 0.8669
1847.000000 0.8668 0.8666 0.8664 0.8663 0.8661
1852.000000 0.8660 0.8658 0.8657 0.8655 0.8653
1857.000000 0.8651 0.8650 0.8648 0.8646 0.8644
1862.000000 0.8642 0.8641 0.8639 0.8636 0.8632
1867.000000 0.8628 0.8625 0.8621 0.8617 0.8610
1872.000000 0.8600 0.8590 0.8581 0.8571 0.8561
1877.000000 0.8552 0.8542 0.8532 0.8521 0.8510
1882.000000 0.8498 0.8487 0.8476 0.8464 0.8453
1887.000000 0.8445 0.8439 0.8433 0.8430 0.8428
1892.000000 0.8424 0.8419 0.8406 0.8393 0.8384
1897.000000 0.8385 0.8380 0.8387 0.8397 0.8408
1902.000000 0.8420 0.8432 0.8443 0.8454 0.8465
1907.000000 0.8475 0.8486 0.8499 0.8514 0.8529
1912.000000 0.8540 0.8545 0.8551 0.8557 0.8561
1917.000000 0.8562 0.8563 0.8564 0.8567 0.8574
1922.000000 0.8581 0.8588 0.8597 0.8609 0.8620
1927.000000 0.8630 0.8637 0.8645 0.8652 0.8659
1932.000000 0.8664 0.8667 0.8670 0.8673 0.8675
1937.000000 0.8678 0.8681 0.8684 0.8685 0.8683
1942.000000 0.8681 0.8679 0.8677 0.8675 0.8673
1947.000000 0.8671 0.8669 0.8667 0.8665 0.8663
1952.000000 0.8661 0.8659 0.8657 0.8656 0.8657
1957.000000 0.8658 0.8659 0.8660 0.8661 0.8662
1962.000000 0.8663 0.8665 0.8669 0.8674 0.8678
1967.000000 0.8682 0.8687 0.8691 0.8695 0.8701
1972.000000 0.8706 0.8712 0.8718 0.8723 0.8729
1977.000000 0.8734 0.8740 0.8746 0.8753 0.8759
1982.000000 0.8763 0.8765 0.8767 0.8769 0.8771
1987.000000 0.8773 0.8774 0.8794 0.8774 0.8774
1992.000000 0.8774 0.8775 0.8775 0.8776 0.8777
1997.000000 0.8778 0.8791 0.8822 0.8852 0.8856
2002.000000 0.8861 0.8860 0.8859 0.8858 0.8858
2007.000000 0.8857 0.8856 0.8855 0.8855 0.8854
2012.000000 0.8854 0.8853 0.8853 0.8851 0.8849
2017.000000 0.8847 0.8845 0.8842 0.8840 0.8838
2022.000000 0.8836 0.8833 0.8831 0.8829 0.8827
2027.000000 0.8823 0.8820 0.8816 0.8813 0.8810
2032.000000 0.8807 0.8803 0.8800 0.8796 0.8793
2037.000000 0.8789 0.8786 0.8782 0.8779 0.8775
2042.000000 0.8771 0.8766 0.8762 0.8757 0.8753
2047.000000 0.8748 0.8743 0.8738 0.8734 0.8729
2052.000000 0.8725 0.8719 0.8713 0.8705 0.8698
2057.000000 0.8690 0.8682 0.8674 0.8667 0.8659
2062.000000 0.8651 0.8643 0.8636 0.8628 0.8621
2067.000000 0.8611 0.8601 0.8591 0.8581 0.8571
2072.000000 0.8561 0.8551 0.8541 0.8530 0.8520
2077.000000 0.8510 0.8500 0.8496 0.8493 0.8489
2082.000000 0.8486 0.8483 0.8484 0.8483 0.8486
2087.000000 0.8489 0.8492 0.8498 0.8505 0.8511
2092.000000 0.8518 0.8525 0.8532 0.8541 0.8550
2097.000000 0.8559 0.8568 0.8577 0.8586 0.8595
2102.000000 0.8604 0.8613 0.8623 0.8632 0.8641
2107.000000 0.8648 0.8656 0.8660 0.8664 0.8665
2112.000000 0.8667 0.8669 0.8671 0.8672 0.8674
2117.000000 0.8675 0.8677 0.8678 0.8680 0.8681
2122.000000 0.8682 0.8683 0.8684 0.8685 0.8686
2127.000000 0.8687 0.8688 0.8689 0.8690 0.8690
2132.000000 0.8691 0.8692 0.8693 0.8694 0.8695
2137.000000 0.8698 0.8701 0.8705 0.8709 0.8712
2142.000000 0.8716 0.8718 0.8720 0.8723 0.8727
2147.000000 0.8733 0.8739 0.8745 0.8752 0.8757
2152.000000 0.8762 0.8767 0.8772 0.8776 0.8781
2157.000000 0.8783 0.8785 0.8787 0.8790 0.8792
2162.000000 0.8795 0.8795 0.8795 0.8794 0.8793
2167.000000 0.8792 0.8791 0.8790 0.8789 0.8788
2172.000000 0.8787 0.8785 0.8784 0.8782 0.8781
2177.000000 0.8779 0.8777 0.8775 0.8774 0.8772
2182.000000 0.8771 0.8770 0.8769 0.8768 0.8767
2187.000000 0.8766 0.8765 0.8764 0.8763 0.8765
2192.000000 0.8767 0.8769 0.8772 0.8774 0.8777
2197.000000 0.8779 0.8782 0.8783 0.8785 0.8782
2202.000000 0.8780 0.8777 0.8775 0.8772 0.8770
2207.000000 0.8767 0.8765 0.8762 0.8759 0.8756
2212.000000 0.8753 0.8750 0.8747 0.8744 0.8741
2217.000000 0.8738 0.8735 0.8733 0.8731 0.8729
2222.000000 0.8727 0.8725 0.8724 0.8722 0.8721
2227.000000 0.8719 0.8717 0.8715 0.8714 0.8714
2232.000000 0.8715 0.8715 0.8716 0.8716 0.8717
2237.000000 0.8717 0.8718 0.8720 0.8723 0.8727
2242.000000 0.8731 0.8734 0.8738 0.8742 0.8746
2247.000000 0.8749 0.8753 0.8756 0.8760 0.8763
2252.000000 0.8767 0.8770 0.8774 0.8777 0.8781
2257.000000 0.8784 0.8788 0.8791 0.8795 0.8798
2262.000000 0.8802 0.8806 0.8810 0.8814 0.8819
2267.000000 0.8823 0.8828 0.8832 0.8837 0.8838
2272.000000 0.8840 0.8841 0.8842 0.8842 0.8842
2277.000000 0.8839 0.8837 0.8834 0.8832 0.8829
2282.000000 0.8827 0.8825 0.8823 0.8822 0.8821
2287.000000 0.8819 0.8818 0.8817 0.8816 0.8815
2292.000000 0.8814 0.8813 0.8812 0.8811 0.8811
2297.000000 0.8810 0.8809 0.8808 0.8808 0.8807
2302.000000 0.8807 0.8806 0.8836 0.8806 0.8806
2307.000000 0.8806 0.8807 0.8807 0.8807 0.8807
2312.000000 0.8808 0.8808 0.8809 0.8809 0.8810
2317.000000 0.8813 0.8817 0.8821 0.8825 0.8829
2322.000000 0.8833 0.8839 0.8845 0.8851 0.8858
2327.000000 0.8863 0.8869 0.8872 0.8876 0.8879
2332.000000 0.8883 0.8886 0.8890 0.8892 0.8895
2337.000000 0.8895 0.8896 0.8896 0.8896 0.8896
2342.000000 0.8897 0.8897 0.8897 0.8897 0.8898
2347.000000 0.8898 0.8898 0.8898 0.8899 0.8899
2352.000000 0.8900 0.8899 0.8899 0.8899 0.8899
2357.000000 0.8898 0.8898 0.8898 0.8898 0.8897
2362.000000 0.8897 0.8897 0.8897 0.8896 0.8896
2367.000000 0.8896 0.8896 0.8895 0.8895 0.8894
2372.000000 0.8894 0.8894 0.8894 0.8893 0.8893
2377.000000 0.8893 0.8893 0.8892 0.8892 0.8891
2382.000000 0.8891 0.8890 0.8890 0.8889 0.8889
2387.000000 0.8888 0.8888 0.8887 0.8887 0.8886
2392.000000 0.8886 0.8885 0.8885 0.8884 0.8884
2397.000000 0.8883 0.8883 0.8882 0.8882 0.8881
2402.000000 0.8881 0.8880 0.8880 0.8879 0.8879
2407.000000 0.8878 0.8877 0.8876 0.8876 0.8875
2412.000000 0.8874 0.8873 0.8873 0.8872 0.8871
2417.000000 0.8870 0.8870 0.8869 0.8868 0.8867
2422.000000 0.8867 0.8866 0.8865 0.8864 0.8864
2427.000000 0.8863 0.8863 0.8862 0.8861 0.8860
2432.000000 0.8860 0.8859 0.8858 0.8857 0.8856
2437.000000 0.8855 0.8854 0.8853 0.8852 0.8849
2442.000000 0.8846 0.8842 0.8839 0.8836 0.8833
2447.000000 0.8829 0.8826 0.8823 0.8820 0.8816
2452.000000 0.8813 0.8810 0.8807 0.8801 0.8796
2457.000000 0.8791 0.8786 0.8781 0.8776 0.8770
2462.000000 0.8765 0.8761 0.8757 0.8757 0.8758
2467.000000 0.8758 0.8759 0.8760 0.8761 0.8762
2472.000000 0.8763 0.8764 0.8765 0.8766 0.8768
2477.000000 0.8769 0.8770 0.8771 0.8772 0.8776
2482.000000 0.8780 0.8785 0.8790 0.8794 0.8799
2487.000000 0.8804 0.8809 0.8813 0.8818 0.8822
