##TITLE=PROPADIENE
##JCAMP-DX=4.24
##DATA TYPE=INFRARED SPECTRUM
##CLASS=COBLENTZ
##ORIGIN=DOW CHEMICAL COMPANY
##OWNER=COBLENTZ SOCIETY
Collection (C) 2018 copyright by the U.S. Secretary of Commerce
on behalf of the United States of America. All rights reserved.
##DATE=1964/10/08
##NAMES=allene
##CAS REGISTRY NO=463-49-0
##MOLFORM=C3 H4
##SOURCE REFERENCE=COBLENTZ NO. 10487
##$NIST SOURCE=COBLENTZ
##$NIST IMAGE=cob10487
##SPECTROMETER/DATA SYSTEM=DOW KBr FOREPRISM-GRATING
##INSTRUMENT PARAMETERS=BLAZED AT 3.5, 12.0, 20.0 MICRON, CHANGED AT 5.0, 7.5, 14.9 MICRON
##STATE=GAS (75 mmHg DILUTED TO A TOTAL PRESSURE OF 600 mmHg WITH N2)
##PATH LENGTH=5 CM CELL
$$ POSSIBLE SPECTRAL CONTAMINATION DUE TO A TRACE OF CH3CCH AROUND 635 CM^-^1
##SAMPLING PROCEDURE=TRANSMISSION
##RESOLUTION=4
##DATA PROCESSING=DIGITIZED BY NIST FROM HARD COPY (FROM TWO SEGMENTS)
##XUNITS=1/CM
##YUNITS=TRANSMITTANCE
##XFACTOR=1.000000
##YFACTOR=1
##DELTAX=0.876011
##FIRSTX=388.14
##LASTX=3797.57
##FIRSTY=0.931
##MAXX=3797.57
##MINX=388.14
##MAXY=1.008
##MINY=0.10944
##NPOINTS=3893
##XYDATA=(X++(Y..Y))
388.140000 0.9310 0.9320 0.9320 0.9320 0.9320
392.520054 0.9310 0.9310 0.9310 0.9310 0.9310
396.900109 0.9310 0.9310 0.9310 0.9290 0.9290
401.280163 0.9280 0.9270 0.9270 0.9270 0.9270
405.660217 0.9250 0.9250 0.9250 0.9250 0.9250
410.040272 0.9240 0.9240 0.9230 0.9210 0.9210
414.420326 0.9210 0.9210 0.9210 0.9200 0.9200
418.800380 0.9200 0.9180 0.9180 0.9180 0.9180
423.180435 0.9180 0.9180 0.9180 0.9180 0.9170
427.560489 0.9170 0.9170 0.9170 0.9170 0.9160
431.940543 0.9160 0.9160 0.9160 0.9160 0.9140
436.320598 0.9140 0.9140 0.9140 0.9140 0.9140
440.700652 0.9140 0.9140 0.9140 0.9140 0.9140
445.080707 0.9160 0.9160 0.9160 0.9160 0.9170
449.460761 0.9170 0.9170 0.9180 0.9180 0.9180
453.840815 0.9180 0.9180 0.9180 0.9180 0.9180
458.220870 0.9180 0.9200 0.9200 0.9200 0.9200
462.600924 0.9210 0.9230 0.9230 0.9240 0.9240
466.980978 0.9240 0.9250 0.9250 0.9270 0.9280
471.361033 0.9280 0.9290 0.9290 0.9310 0.9310
475.741087 0.9310 0.9310 0.9310 0.9310 0.9320
480.121141 0.9320 0.9320 0.9320 0.9320 0.9320
484.501196 0.9320 0.9320 0.9320 0.9320 0.9340
488.881250 0.9340 0.9340 0.9340 0.9320 0.9320
493.261304 0.9320 0.9320 0.9310 0.9310 0.9310
497.641359 0.9310 0.9310 0.9310 0.9290 0.9290
502.021413 0.9290 0.9290 0.9290 0.9290 0.9280
506.401467 0.9280 0.9280 0.9280 0.9280 0.9270
510.781522 0.9270 0.9250 0.9240 0.9240 0.9230
515.161576 0.9230 0.9210 0.9210 0.9200 0.9200
519.541630 0.9200 0.9180 0.9180 0.9180 0.9180
523.921685 0.9180 0.9180 0.9180 0.9180 0.9180
528.301739 0.9180 0.9170 0.9170 0.9170 0.9160
532.681793 0.9160 0.9160 0.9140 0.9140 0.9130
537.061848 0.9130 0.9130 0.9130 0.9130 0.9130
541.441902 0.9130 0.9130 0.9130 0.9130 0.9130
545.821957 0.9130 0.9130 0.9130 0.9130 0.9130
550.202011 0.9130 0.9130 0.9130 0.9130 0.9130
554.582065 0.9130 0.9130 0.9120 0.9120 0.9120
558.962120 0.9120 0.9120 0.9120 0.9120 0.9120
563.342174 0.9120 0.9120 0.9120 0.9120 0.9120
567.722228 0.9100 0.9100 0.9100 0.9100 0.9100
572.102283 0.9100 0.9100 0.9090 0.9090 0.9090
576.482337 0.9070 0.9070 0.9070 0.9070 0.9070
580.862391 0.9090 0.9120 0.9130 0.9130 0.9130
585.242446 0.9130 0.9130 0.9130 0.9130 0.9130
589.622500 0.9130 0.9130 0.9130 0.9130 0.9130
594.002554 0.9130 0.9130 0.9130 0.9130 0.9130
598.382609 0.9130 0.9130 0.9130 0.9130 0.9130
602.762663 0.9130 0.9140 0.9160 0.9170 0.9170
607.142717 0.9180 0.9180 0.9180 0.9180 0.9180
611.522772 0.9200 0.9200 0.9210 0.9230 0.9230
615.902826 0.9230 0.9230 0.9230 0.9230 0.9230
620.282880 0.9230 0.9230 0.9240 0.9270 0.9270
624.662935 0.9280 0.9280 0.9280 0.9270 0.9270
629.042989 0.9270 0.9270 0.9250 0.9230 0.9170
633.423043 0.9160 0.9130 0.9120 0.9120 0.9130
637.803098 0.9140 0.9180 0.9230 0.9280 0.9310
642.183152 0.9340 0.9350 0.9380 0.9380 0.9390
646.563207 0.9400 0.9420 0.9420 0.9430 0.9450
650.943261 0.9450 0.9460 0.9460 0.9460 0.9470
655.323315 0.9470 0.9460 0.9450 0.9400 0.9400
659.703370 0.9390 0.9390 0.9390 0.9390 0.9400
664.083424 0.9400 0.9400 0.9420 0.9420 0.9420
668.463478 0.9420 0.9420 0.9430 0.9450 0.9460
672.843533 0.9470 0.9470 0.9470 0.9470 0.9470
677.223587 0.9470 0.9470 0.9490 0.9510 0.9540
681.603641 0.9540 0.9540 0.9530 0.9530 0.9530
685.983696 0.9510 0.9500 0.9460 0.9450 0.9430
690.363750 0.9420 0.9460 0.9470 0.9470 0.9490
694.743804 0.9490 0.9490 0.9490 0.9490 0.9470
699.123859 0.9460 0.9390 0.9380 0.9280 0.9360
703.503913 0.9420 0.9430 0.9430 0.9430 0.9430
707.883967 0.9400 0.9400 0.9390 0.9380 0.9350
712.264022 0.9320 0.9100 0.9120 0.9210 0.9210
716.644076 0.9240 0.9270 0.9280 0.9290 0.9290
721.024130 0.9290 0.9280 0.9270 0.9270 0.9210
725.404185 0.8961 0.8432 0.9028 0.8911 0.8880
729.784239 0.8900 0.8960 0.8990 0.9020 0.9020
734.164293 0.9020 0.9010 0.8980 0.8651 0.8202
738.544348 0.8650 0.8660 0.8680 0.8700 0.8750
742.924402 0.8830 0.8910 0.8940 0.8940 0.8920
747.304457 0.8920 0.8910 0.8421 0.6864 0.8416
751.684511 0.8789 0.8760 0.8680 0.8580 0.8530
756.064565 0.8500 0.8460 0.8430 0.7821 0.6623
760.444620 0.6620 0.7806 0.7800 0.7740 0.7690
764.824674 0.7770 0.7810 0.8060 0.8060 0.7821
769.204728 0.7212 0.6572 0.5375 0.6564 0.6600
773.584783 0.7450 0.7110 0.7080 0.7100 0.7120
777.964837 0.7120 0.7140 0.7220 0.7220 0.5200
782.344891 0.6620 0.6550 0.6450 0.6350 0.6250
786.724946 0.6230 0.6260 0.6330 0.6400 0.6808
791.105000 0.3760 0.5079 0.5100 0.6258 0.6140
795.485054 0.6000 0.5870 0.5850 0.5920 0.6049
799.865109 0.6070 0.5600 0.3292 0.5527 0.5530
804.245163 0.5520 0.4972 0.4970 0.5000 0.5100
808.625217 0.5240 0.5610 0.4951 0.2224 0.3877
813.005272 0.3900 0.5116 0.5299 0.5131 0.5100
817.385326 0.4890 0.4760 0.4750 0.2183 0.2180
821.765380 0.4245 0.4280 0.4290 0.4320 0.4360
826.145435 0.4650 0.4650 0.4580 0.2654 0.1094
830.525489 0.2685 0.4244 0.4270 0.4429 0.4430
834.905543 0.4320 0.4280 0.4290 0.3392 0.3350
839.285598 0.2483 0.1813 0.3533 0.4266 0.4280
843.665652 0.4280 0.4010 0.3810 0.2582 0.1892
848.045707 0.1671 0.1889 0.2547 0.3207 0.4155
852.425761 0.4060 0.4020 0.3720 0.1594 0.1590
856.805815 0.3793 0.4029 0.4249 0.4240 0.3583
861.185870 0.3350 0.3130 0.1971 0.1521 0.1969
865.565924 0.2927 0.3797 0.4139 0.4160 0.4140
869.945978 0.3920 0.2391 0.1891 0.3757 0.3989
874.326033 0.4279 0.4290 0.4290 0.3075 0.1707
878.706087 0.2620 0.3590 0.4159 0.4250 0.4350
883.086141 0.4360 0.4360 0.2238 0.2230 0.4340
887.466196 0.4600 0.4610 0.4650 0.4670 0.4670
891.846250 0.2505 0.3956 0.4687 0.5158 0.5160
896.226304 0.4839 0.3370 0.3370 0.4888 0.4930
900.606359 0.5349 0.5370 0.5370 0.3557 0.4884
904.986413 0.5230 0.5530 0.5889 0.6109 0.5831
909.366467 0.4674 0.4670 0.6074 0.6299 0.5853
913.746522 0.4751 0.5829 0.6219 0.6619 0.6819
918.126576 0.6900 0.6920 0.6462 0.6898 0.6999
922.506630 0.7250 0.7250 0.6781 0.7259 0.7499
926.886685 0.7630 0.7740 0.7760 0.7770 0.7840
931.266739 0.7990 0.8020 0.8030 0.8040 0.8100
935.646793 0.8180 0.8310 0.8330 0.8350 0.8370
940.026848 0.8430 0.8510 0.8540 0.8590 0.8590
944.406902 0.8610 0.8680 0.8700 0.8720 0.8730
948.786957 0.8760 0.8770 0.8790 0.8810 0.8830
953.167011 0.8840 0.8840 0.8840 0.8840 0.8840
957.547065 0.8840 0.8840 0.8840 0.8840 0.8840
961.927120 0.8850 0.8910 0.8910 0.8900 0.8850
966.307174 0.8840 0.8800 0.8800 0.8840 0.8850
970.687228 0.8840 0.8800 0.8730 0.8680 0.8590
975.067283 0.8590 0.8700 0.8720 0.8730 0.8730
979.447337 0.8730 0.8720 0.8501 0.8699 0.8700
983.827391 0.8700 0.8690 0.8690 0.8660 0.8291
988.207446 0.7852 0.8288 0.8499 0.8510 0.8500
992.587500 0.8460 0.8440 0.7931 0.7930 0.8389
996.967554 0.8430 0.8440 0.8500 0.8500 0.8460
1001.347609 0.8420 0.7061 0.7060 0.8128 0.8220
1005.727663 0.8330 0.8350 0.8360 0.8360 0.8350
1010.107717 0.8310 0.7890 0.7231 0.8138 0.8170
1014.487772 0.8220 0.8320 0.8320 0.8280 0.8131
1018.867826 0.7950 0.7730 0.6571 0.7947 0.8000
1023.247880 0.8150 0.8200 0.8220 0.8220 0.8111
1027.627935 0.8020 0.7770 0.7041 0.7040 0.8098
1032.007989 0.8110 0.8220 0.8240 0.8240 0.8220
1036.388043 0.8130 0.7910 0.7500 0.7470 0.6702
1040.768098 0.7518 0.8018 0.8130 0.8130 0.8110
1045.148152 0.8060 0.8030 0.8020 0.7930 0.7740
1049.528207 0.7122 0.7539 0.7978 0.8000 0.7950
1053.908261 0.8000 0.8020 0.8070 0.8070 0.7990
1058.288315 0.7960 0.7930 0.7013 0.7986 0.8030
1062.668370 0.8070 0.8110 0.8130 0.8110 0.8090
1067.048424 0.8060 0.8020 0.7950 0.7920 0.7691
1071.428478 0.7690 0.8209 0.8250 0.8260 0.8260
1075.808533 0.8250 0.8240 0.8210 0.8180 0.8150
1080.188587 0.8110 0.7730 0.8139 0.8250 0.8350
1084.568641 0.8360 0.8420 0.8420 0.8390 0.8370
1088.948696 0.8350 0.8330 0.8320 0.8280 0.8210
1093.328750 0.8210 0.8349 0.8420 0.8500 0.8510
1097.708804 0.8530 0.8530 0.8540 0.8530 0.8510
1102.088859 0.8470 0.8321 0.8320 0.8479 0.8510
1106.468913 0.8620 0.8650 0.8690 0.8660 0.8650
1110.848967 0.8620 0.8590 0.8580 0.8570 0.8530
1115.229022 0.8530 0.8580 0.8650 0.8660 0.8690
1119.609076 0.8700 0.8720 0.8720 0.8700 0.8700
1123.989130 0.8690 0.8690 0.8690 0.8680 0.8690
1128.369185 0.8730 0.8800 0.8810 0.8810 0.8790
1132.749239 0.8790 0.8790 0.8770 0.8760 0.8760
1137.129293 0.8750 0.8750 0.8730 0.8730 0.8730
1141.509348 0.8730 0.8750 0.8750 0.8750 0.8770
1145.889402 0.8770 0.8770 0.8760 0.8730 0.8730
1150.269457 0.8730 0.8750 0.8750 0.8770 0.8770
1154.649511 0.8790 0.8790 0.8790 0.8790 0.8770
1159.029565 0.8770 0.8770 0.8760 0.8760 0.8760
1163.409620 0.8750 0.8750 0.8750 0.8730 0.8730
1167.789674 0.8730 0.8730 0.8730 0.8730 0.8750
1172.169728 0.8750 0.8750 0.8760 0.8760 0.8770
1176.549783 0.8770 0.8770 0.8770 0.8770 0.8770
1180.929837 0.8770 0.8770 0.8760 0.8760 0.8760
1185.309891 0.8750 0.8750 0.8750 0.8750 0.8750
1189.689946 0.8750 0.8750 0.8750 0.8750 0.8750
1194.070000 0.8750 0.8750 0.8750 0.8750 0.8750
1198.450054 0.8750 0.8750 0.8760 0.8760 0.8760
1202.830109 0.8760 0.8770 0.8770 0.8770 0.8790
1207.210163 0.8790 0.8800 0.8800 0.8800 0.8800
1211.590217 0.8800 0.8800 0.8800 0.8800 0.8790
1215.970272 0.8790 0.8790 0.8790 0.8790 0.8790
1220.350326 0.8790 0.8770 0.8770 0.8790 0.8790
1224.730380 0.8790 0.8790 0.8790 0.8770 0.8770
1229.110435 0.8770 0.8770 0.8790 0.8790 0.8790
1233.490489 0.8790 0.8770 0.8770 0.8790 0.8790
1237.870543 0.8790 0.8800 0.8800 0.8800 0.8800
1242.250598 0.8800 0.8800 0.8800 0.8790 0.8790
1246.630652 0.8790 0.8790 0.8790 0.8790 0.8770
1251.010707 0.8770 0.8770 0.8770 0.8760 0.8760
1255.390761 0.8750 0.8750 0.8730 0.8730 0.8730
1259.770815 0.8730 0.8730 0.8730 0.8730 0.8730
1264.150870 0.8730 0.8730 0.8730 0.8730 0.8730
1268.530924 0.8730 0.8730 0.8730 0.8720 0.8720
1272.910978 0.8720 0.8720 0.8720 0.8720 0.8720
1277.291033 0.8720 0.8720 0.8720 0.8720 0.8720
1281.671087 0.8700 0.8700 0.8700 0.8700 0.8700
1286.051141 0.8700 0.8700 0.8700 0.8690 0.8690
1290.431196 0.8690 0.8690 0.8680 0.8660 0.8660
1294.811250 0.8660 0.8660 0.8680 0.8680 0.8680
1299.191304 0.8680 0.8660 0.8650 0.8640 0.8640
1303.571359 0.8620 0.8610 0.8610 0.8610 0.8610
1307.951413 0.8610 0.8590 0.8590 0.8590 0.8570
1312.331467 0.8540 0.8540 0.8540 0.8540 0.8540
1316.711522 0.8540 0.8540 0.8530 0.8530 0.8510
1321.091576 0.8510 0.8510 0.8500 0.8500 0.8500
1325.471630 0.8480 0.8470 0.8460 0.8440 0.8440
1329.851685 0.8440 0.8440 0.8430 0.8430 0.8430
1334.231739 0.8420 0.8400 0.8400 0.8390 0.8390
1338.611793 0.8390 0.8370 0.8360 0.8350 0.8350
1342.991848 0.8330 0.8330 0.8330 0.8330 0.8320
1347.371902 0.8320 0.8320 0.8320 0.8320 0.8320
1351.751957 0.8320 0.8310 0.8310 0.8280 0.8250
1356.132011 0.8220 0.8200 0.8180 0.8150 0.8140
1360.512065 0.8140 0.8130 0.8110 0.8100 0.8070
1364.892120 0.8060 0.8000 0.7950 0.7850 0.7770
1369.272174 0.7670 0.7650 0.7440 0.7390 0.7280
1373.652228 0.7250 0.7210 0.7140 0.7070 0.6921
1378.032283 0.6860 0.6850 0.6840 0.6840 0.6850
1382.412337 0.6880 0.6880 0.6920 0.6930 0.6950
1386.792391 0.6990 0.7010 0.7070 0.7070 0.7080
1391.172446 0.7140 0.7290 0.7758 0.7760 0.7700
1395.552500 0.7620 0.7440 0.7330 0.7250 0.7250
1399.932554 0.7260 0.7300 0.7320 0.7330 0.7330
1404.312609 0.7330 0.7320 0.7300 0.7250 0.7210
1408.692663 0.7170 0.7150 0.7140 0.7140 0.7180
1413.072717 0.7370 0.7400 0.7450 0.7540 0.7590
1417.452772 0.7710 0.7760 0.7840 0.7930 0.7950
1421.832826 0.8030 0.8140 0.8260 0.8310 0.8320
1426.212880 0.8330 0.8390 0.8400 0.8430 0.8460
1430.592935 0.8470 0.8500 0.8510 0.8550 0.8570
1434.972989 0.8590 0.8610 0.8610 0.8610 0.8590
1439.353043 0.8590 0.8590 0.8590 0.8590 0.8590
1443.733098 0.8590 0.8590 0.8610 0.8620 0.8640
1448.113152 0.8640 0.8640 0.8640 0.8620 0.8620
1452.493207 0.8620 0.8640 0.8650 0.8650 0.8660
1456.873261 0.8690 0.8680 0.8660 0.8660 0.8660
1461.253315 0.8690 0.8720 0.8750 0.8750 0.8760
1465.633370 0.8760 0.8750 0.8730 0.8750 0.8760
1470.013424 0.8760 0.8750 0.8730 0.8720 0.8720
1474.393478 0.8700 0.8700 0.8700 0.8700 0.8700
1478.773533 0.8700 0.8700 0.8720 0.8750 0.8750
1483.153587 0.8760 0.8770 0.8770 0.8770 0.8770
1487.533641 0.8760 0.8760 0.8760 0.8770 0.8770
1491.913696 0.8770 0.8790 0.8800 0.8800 0.8800
1496.293750 0.8800 0.8790 0.8790 0.8800 0.8800
1500.673804 0.8800 0.8800 0.8800 0.8800 0.8800
1505.053859 0.8800 0.8790 0.8790 0.8770 0.8770
1509.433913 0.8760 0.8770 0.8770 0.8790 0.8800
1513.813967 0.8800 0.8800 0.8810 0.8810 0.8810
1518.194022 0.8810 0.8800 0.8800 0.8800 0.8810
1522.574076 0.8800 0.8800 0.8810 0.8830 0.8830
1526.954130 0.8830 0.8840 0.8840 0.8850 0.8850
1531.334185 0.8850 0.8850 0.8840 0.8840 0.8840
1535.714239 0.8840 0.8840 0.8840 0.8810 0.8800
1540.094293 0.8790 0.8770 0.8770 0.8790 0.8800
1544.474348 0.8810 0.8810 0.8830 0.8830 0.8840
1548.854402 0.8840 0.8840 0.8840 0.8840 0.8830
1553.234457 0.8830 0.8830 0.8830 0.8810 0.8800
1557.614511 0.8800 0.8790 0.8770 0.8760 0.8730
1561.994565 0.8730 0.8800 0.8870 0.8900 0.8900
1566.374620 0.8900 0.8910 0.8910 0.8920 0.8920
1570.754674 0.8940 0.8940 0.8950 0.8960 0.8960
1575.134728 0.8960 0.8960 0.8960 0.8980 0.9010
1579.514783 0.9020 0.9070 0.9070 0.9120 0.9140
1583.894837 0.9140 0.9180 0.9230 0.9270 0.9310
1588.274891 0.9340 0.9350 0.9350 0.9380 0.9400
1592.654946 0.9420 0.9450 0.9460 0.9470 0.9470
1597.035000 0.9460 0.9460 0.9460 0.9460 0.9450
1601.415054 0.9430 0.9420 0.9390 0.9390 0.9350
1605.795109 0.9340 0.9340 0.9320 0.9310 0.9290
1610.175163 0.9280 0.9270 0.9240 0.9230 0.9200
1614.555217 0.9180 0.9140 0.9130 0.9120 0.9060
1618.935272 0.9050 0.9030 0.9030 0.9020 0.9010
1623.315326 0.9010 0.8990 0.8940 0.8910 0.8900
1627.695380 0.8870 0.8830 0.8810 0.8810 0.8800
1632.075435 0.8800 0.8790 0.8770 0.8730 0.8700
1636.455489 0.8680 0.8650 0.8620 0.8610 0.8610
1640.835543 0.8610 0.8590 0.8580 0.8540 0.8510
1645.215598 0.8500 0.8390 0.8320 0.8310 0.8250
1649.595652 0.8240 0.8200 0.8070 0.8030 0.7960
1653.975707 0.7930 0.7920 0.7890 0.7870 0.7780
1658.355761 0.7760 0.7650 0.7600 0.7400 0.7280
1662.735815 0.7250 0.7180 0.7080 0.7000 0.6950
1667.115870 0.6920 0.6900 0.6810 0.6740 0.6670
1671.495924 0.6600 0.6560 0.6550 0.6560 0.6570
1675.875978 0.6590 0.6590 0.6600 0.6670 0.6730
1680.256033 0.6770 0.6840 0.6989 0.7109 0.7140
1684.636087 0.7190 0.7250 0.7360 0.7360 0.7300
1689.016141 0.7280 0.7260 0.7230 0.6951 0.6811
1693.396196 0.6730 0.6620 0.6590 0.6520 0.6520
1697.776250 0.6590 0.6600 0.6620 0.6630 0.6710
1702.156304 0.6810 0.6900 0.6990 0.7030 0.7100
1706.536359 0.7290 0.7450 0.7590 0.7739 0.7800
1710.916413 0.7930 0.7990 0.8130 0.8210 0.8250
1715.296467 0.8320 0.8350 0.8430 0.8440 0.8460
1719.676522 0.8500 0.8510 0.8610 0.8690 0.8720
1724.056576 0.8720 0.8730 0.8730 0.8730 0.8730
1728.436630 0.8770 0.8770 0.8770 0.8770 0.8770
1732.816685 0.8760 0.8770 0.8770 0.8790 0.8840
1737.196739 0.8840 0.8840 0.8840 0.8840 0.8850
1741.576793 0.8840 0.8830 0.8830 0.8830 0.8830
1745.956848 0.8840 0.8840 0.8840 0.8840 0.8840
1750.336902 0.8830 0.8830 0.8840 0.8840 0.8850
1754.716957 0.8850 0.8850 0.8870 0.8870 0.8870
1759.097011 0.8850 0.8850 0.8850 0.8850 0.8870
1763.477065 0.8880 0.8900 0.8900 0.8900 0.8880
1767.857120 0.8880 0.8870 0.8870 0.8840 0.8830
1772.237174 0.8830 0.8870 0.8900 0.8900 0.8900
1776.617228 0.8900 0.8900 0.8880 0.8870 0.8870
1780.997283 0.8870 0.8910 0.8910 0.8880 0.8870
1785.377337 0.8870 0.8870 0.8880 0.8880 0.8880
1789.757391 0.8870 0.8870 0.8900 0.8900 0.8900
1794.137446 0.8880 0.8880 0.8880 0.8880 0.8900
1798.517500 0.8900 0.8900 0.8900 0.8910 0.8910
1802.897554 0.8900 0.8880 0.8880 0.8870 0.8870
1807.277609 0.8870 0.8870 0.8870 0.8870 0.8870
1811.657663 0.8870 0.8870 0.8870 0.8870 0.8870
1816.037717 0.8870 0.8870 0.8880 0.8880 0.8870
1820.417772 0.8870 0.8870 0.8870 0.8870 0.8870
1824.797826 0.8870 0.8870 0.8870 0.8870 0.8870
1829.177880 0.8870 0.8870 0.8870 0.8870 0.8870
1833.557935 0.8870 0.8870 0.8870 0.8870 0.8870
1837.937989 0.8870 0.8870 0.8850 0.8850 0.8840
1842.318043 0.8830 0.8830 0.8830 0.8840 0.8850
1846.698098 0.8870 0.8870 0.8900 0.8900 0.8900
1851.078152 0.8900 0.8900 0.8900 0.8880 0.8870
1855.458207 0.8870 0.8870 0.8870 0.8870 0.8870
1859.838261 0.8870 0.8870 0.8870 0.8850 0.8850
1864.218315 0.8850 0.8850 0.8850 0.8850 0.8840
1868.598370 0.8840 0.8840 0.8840 0.8840 0.8850
1872.978424 0.8850 0.8850 0.8850 0.8850 0.8850
1877.358478 0.8850 0.8850 0.8850 0.8840 0.8840
1881.738533 0.8840 0.8840 0.8840 0.8840 0.8830
1886.118587 0.8810 0.8800 0.8770 0.8770 0.8760
1890.498641 0.8760 0.8760 0.8760 0.8760 0.8760
1894.878696 0.8720 0.8700 0.8700 0.8700 0.8700
1899.258750 0.8690 0.8690 0.8690 0.8680 0.8660
1903.638804 0.8650 0.8640 0.8620 0.8610 0.8590
1908.018859 0.8580 0.8540 0.8510 0.8500 0.8440
1912.398913 0.8400 0.8350 0.8310 0.8200 0.8060
1916.778967 0.7980 0.7870 0.7671 0.7580 0.7560
1921.159022 0.7400 0.7230 0.6840 0.6680 0.6490
1925.539076 0.6350 0.6161 0.6011 0.5681 0.5491
1929.919130 0.5370 0.4890 0.4610 0.4290 0.4070
1934.299185 0.3811 0.3641 0.3291 0.3041 0.2871
1938.679239 0.2690 0.2590 0.2370 0.2170 0.2010
1943.059293 0.1880 0.1860 0.1850 0.1850 0.1850
1947.439348 0.1860 0.1860 0.1880 0.1890 0.1920
1951.819402 0.2010 0.2070 0.2289 0.2579 0.2540
1956.199457 0.2450 0.2410 0.2370 0.2330 0.2330
1960.579511 0.3617 0.3620 0.2504 0.1892 0.1741
1964.959565 0.1640 0.1590 0.1560 0.1550 0.1490
1969.339620 0.1440 0.1370 0.1340 0.1340 0.1350
1973.719674 0.1370 0.1410 0.1420 0.1480 0.1570
1978.099728 0.1680 0.1810 0.2029 0.2319 0.2668
1982.479783 0.3420 0.3610 0.3870 0.4279 0.4789
1986.859837 0.5239 0.5529 0.5928 0.6308 0.6658
1991.239891 0.7230 0.7580 0.7760 0.7990 0.8040
1995.619946 0.8100 0.8110 0.8110 0.8100 0.8040
2000.000000 0.8040 0.8075 0.8110 0.8160 0.8210
2004.380054 0.8250 0.8290 0.8300 0.8310 0.8300
2008.760109 0.8290 0.8290 0.8290 0.8265 0.8240
2013.140163 0.8225 0.8210 0.8195 0.8180 0.8175
2017.520217 0.8170 0.8170 0.8170 0.8175 0.8180
2021.900272 0.8190 0.8200 0.8205 0.8212 0.8272
2026.280326 0.8330 0.8340 0.8351 0.8371 0.8391
2030.660380 0.8411 0.8431 0.8456 0.8481 0.8512
2035.040435 0.8543 0.8593 0.8640 0.8640 0.8642
2039.420489 0.8667 0.8691 0.8706 0.8721 0.8736
2043.800543 0.8751 0.8771 0.8791 0.8811 0.8830
2048.180598 0.8835 0.8840 0.8845 0.8850 0.8850
2052.560652 0.8851 0.8861 0.8870 0.8870 0.8870
2056.940707 0.8870 0.8870 0.8870 0.8870 0.8870
2061.320761 0.8872 0.8887 0.8900 0.8900 0.8900
2065.700815 0.8900 0.8900 0.8900 0.8900 0.8900
2070.080870 0.8900 0.8900 0.8900 0.8900 0.8900
2074.460924 0.8900 0.8900 0.8900 0.8900 0.8900
2078.840978 0.8901 0.8906 0.8910 0.8910 0.8910
2083.221033 0.8910 0.8910 0.8910 0.8910 0.8910
2087.601087 0.8909 0.8904 0.8900 0.8900 0.8898
2091.981141 0.8888 0.8880 0.8880 0.8882 0.8892
2096.361196 0.8900 0.8900 0.8900 0.8900 0.8900
2100.741250 0.8900 0.8898 0.8888 0.8880 0.8880
2105.121304 0.8880 0.8880 0.8880 0.8880 0.8880
2109.501359 0.8880 0.8880 0.8880 0.8882 0.8892
2113.881413 0.8901 0.8906 0.8910 0.8910 0.8910
2118.261467 0.8910 0.8911 0.8916 0.8920 0.8920
2122.641522 0.8920 0.8920 0.8920 0.8920 0.8920
2127.021576 0.8920 0.8920 0.8920 0.8920 0.8920
2131.401630 0.8920 0.8920 0.8920 0.8920 0.8922
2135.781685 0.8932 0.8940 0.8940 0.8940 0.8940
2140.161739 0.8940 0.8940 0.8936 0.8921 0.8910
2144.541793 0.8910 0.8911 0.8916 0.8920 0.8920
2148.921848 0.8920 0.8920 0.8920 0.8920 0.8920
2153.301902 0.8920 0.8919 0.8914 0.8910 0.8910
2157.681957 0.8910 0.8910 0.8910 0.8910 0.8910
