##TITLE=FORMALDEHYDE
##JCAMP-DX=4.24
##DATA TYPE=INFRARED SPECTRUM
##CLASS=COBLENTZ III
##ORIGIN=DOW CHEMICAL COMPANY
##OWNER=COBLENTZ SOCIETY
Collection (C) 2018 copyright by the U.S. Secretary of Commerce
on behalf of the United States of America. All rights reserved.
##DATE=1978/03/16
##CAS REGISTRY NO=50-00-0
##MOLFORM=C H2 O
##BP=-21 C
##SOURCE REFERENCE=COBLENTZ NO. 10619
##$NIST SOURCE=COBLENTZ
##$NIST IMAGE=cob10619
##SPECTROMETER/DATA SYSTEM=PERKIN-ELMER 297
##STATE=SOLUTION (UNKNOWN CONCENTRATION IN CCl4) VS. CCl4
##PATH LENGTH=0.1 CM
$$SPECTRAL DEAD REGIONS AROUND 1550, 1250, 1000, 800 CM^-^1
$$ SEE SPECTRUM NO. 10618 FOR "GAS" STATE (HEATING PARAFORMALDEHYDE)
##SAMPLING PROCEDURE=TRANSMISSION
##RESOLUTION=4
##DATA PROCESSING=DIGITIZED BY NIST FROM HARD COPY (FROM TWO SEGMENTS)
##XUNITS=1/CM
##YUNITS=TRANSMITTANCE
##XFACTOR=1.000000
##YFACTOR=1
##DELTAX=0.924501
##FIRSTX=590.139
##LASTX=4004.32
##FIRSTY=0.721
##MAXX=4004.32
##MINX=590.139
##MAXY=0.899
##MINY=0.019
##NPOINTS=3694
##XYDATA=(X++(Y..Y))
590.139000 0.7210 0.7260 0.7280 0.7280 0.7230
594.761503 0.7130 0.7090 0.7040 0.7010 0.7000
599.384007 0.6990 0.6980 0.6980 0.6980 0.6960
604.006510 0.6960 0.6960 0.6960 0.6960 0.6950
608.629013 0.6950 0.6950 0.6940 0.6930 0.6910
613.251517 0.6900 0.6890 0.6870 0.6830 0.6820
617.874020 0.6790 0.6770 0.6740 0.6720 0.6650
622.496524 0.6600 0.6580 0.6570 0.6570 0.6560
627.119027 0.6560 0.6560 0.6560 0.6570 0.6600
631.741530 0.6680 0.6760 0.6820 0.6870 0.6900
636.364034 0.7050 0.7070 0.7110 0.7260 0.7330
640.986537 0.7390 0.7460 0.7589 0.7600 0.7660
645.609040 0.7730 0.7760 0.7770 0.7790 0.7810
650.231544 0.7830 0.7860 0.7880 0.7900 0.7930
654.854047 0.7940 0.7940 0.7950 0.7970 0.7990
659.476551 0.8000 0.8010 0.8010 0.8030 0.8040
664.099054 0.8040 0.8050 0.8050 0.8050 0.8050
668.721557 0.8060 0.8060 0.8060 0.8060 0.8060
673.344061 0.8050 0.8050 0.8040 0.8040 0.8040
677.966564 0.8030 0.8010 0.8000 0.7990 0.7990
682.589067 0.7980 0.7970 0.7940 0.7930 0.7880
687.211571 0.7860 0.7860 0.7810 0.7770 0.7750
691.834074 0.7720 0.7660 0.7590 0.7510 0.7440
696.456578 0.7380 0.7330 0.7280 0.7220 0.7131
701.079081 0.7070 0.7020 0.6960 0.6900 0.6890
705.701584 0.6880 0.6820 0.6790 0.6770 0.6770
710.324088 0.6760 0.6760 0.6760 0.6770 0.6770
714.946591 0.6770 0.6770 0.6770 0.6780 0.6780
719.569094 0.6790 0.6790 0.6790 0.6800 0.6800
724.191598 0.6820 0.6820 0.6820 0.6820 0.6820
728.814101 0.6820 0.6820 0.6820 0.6820 0.6820
733.436605 0.6820 0.6820 0.6830 0.6830 0.6830
738.059108 0.6830 0.6830 0.6830 0.6830 0.6830
742.681611 0.6830 0.6840 0.6840 0.6840 0.6840
747.304115 0.6840 0.6840 0.6840 0.6840 0.6840
751.926618 0.6850 0.6850 0.6850 0.6850 0.6850
756.549121 0.6850 0.6850 0.6850 0.6850 0.6850
761.171625 0.6850 0.6850 0.6850 0.6850 0.6850
765.794128 0.6850 0.6850 0.6850 0.6850 0.6850
770.416632 0.6850 0.6850 0.6850 0.6850 0.6850
775.039135 0.6850 0.6850 0.6850 0.6850 0.6850
779.661638 0.6850 0.6850 0.6850 0.6850 0.6850
784.284142 0.6850 0.6850 0.6850 0.6850 0.6850
788.906645 0.6850 0.6850 0.6850 0.6850 0.6850
793.529148 0.6870 0.6870 0.6870 0.6870 0.6880
798.151652 0.6880 0.6880 0.6880 0.6890 0.6890
802.774155 0.6890 0.6890 0.6890 0.6890 0.6890
807.396659 0.6890 0.6890 0.6890 0.6890 0.6890
812.019162 0.6890 0.6890 0.6890 0.6890 0.6890
816.641665 0.6890 0.6890 0.6890 0.6890 0.6890
821.264169 0.6890 0.6890 0.6890 0.6890 0.6890
825.886672 0.6890 0.6890 0.6890 0.6890 0.6890
830.509175 0.6890 0.6900 0.6900 0.6910 0.6930
835.131679 0.6930 0.6940 0.6950 0.6960 0.6980
839.754182 0.7010 0.7040 0.7060 0.7070 0.7090
844.376686 0.7100 0.7110 0.7130 0.7150 0.7170
848.999189 0.7200 0.7210 0.7230 0.7240 0.7270
853.621692 0.7270 0.7280 0.7280 0.7290 0.7290
858.244196 0.7310 0.7310 0.7310 0.7310 0.7310
862.866699 0.7310 0.7310 0.7310 0.7310 0.7310
867.489202 0.7310 0.7290 0.7280 0.7280 0.7270
872.111706 0.7270 0.7270 0.7270 0.7260 0.7260
876.734209 0.7260 0.7240 0.7200 0.7170 0.7150
881.356713 0.7130 0.7110 0.7090 0.7050 0.7020
885.979216 0.6990 0.6950 0.6940 0.6720 0.6690
890.601719 0.6670 0.6500 0.6390 0.6320 0.6161
895.224223 0.6010 0.5890 0.5690 0.5480 0.5081
899.846726 0.5060 0.5030 0.4950 0.4870 0.4850
904.469229 0.4800 0.4790 0.4730 0.4710 0.4700
909.091733 0.4690 0.4680 0.4650 0.4630 0.4620
913.714236 0.4590 0.4570 0.4540 0.4510 0.4510
918.336740 0.4430 0.4370 0.4310 0.4200 0.4160
922.959243 0.4140 0.4030 0.3960 0.3880 0.3830
927.581746 0.3770 0.3600 0.3341 0.3091 0.2821
932.204250 0.2490 0.2400 0.2310 0.2310 0.2570
936.826753 0.2710 0.2830 0.3298 0.3519 0.4038
941.449256 0.4140 0.4270 0.4400 0.4540 0.4590
946.071760 0.4680 0.4740 0.4760 0.4810 0.4850
950.694263 0.4860 0.4860 0.4860 0.4860 0.4860
955.316767 0.4860 0.4850 0.4850 0.4840 0.4840
959.939270 0.4840 0.4820 0.4810 0.4810 0.4820
964.561773 0.4820 0.4820 0.4820 0.4820 0.4840
969.184277 0.4840 0.4840 0.4840 0.4840 0.4820
973.806780 0.4820 0.4820 0.4820 0.4820 0.4820
978.429283 0.4820 0.4840 0.4850 0.4850 0.4850
983.051787 0.4850 0.4850 0.4860 0.4860 0.4860
987.674290 0.4860 0.4870 0.4870 0.4860 0.4850
992.296794 0.4850 0.4850 0.4840 0.4840 0.4840
996.919297 0.4840 0.4840 0.4840 0.4850 0.4850
1001.541800 0.4860 0.4860 0.4870 0.4900 0.4910
1006.164304 0.4930 0.4950 0.4960 0.5010 0.5030
1010.786807 0.5030 0.5060 0.5080 0.5120 0.5150
1015.409310 0.5230 0.5250 0.5260 0.5350 0.5360
1020.031814 0.5390 0.5400 0.5400 0.5410 0.5410
1024.654317 0.5420 0.5420 0.5440 0.5440 0.5470
1029.276821 0.5510 0.5530 0.5530 0.5520 0.5510
1033.899324 0.5500 0.5480 0.5390 0.5310 0.5250
1038.521827 0.5250 0.5360 0.5559 0.5680 0.5750
1043.144331 0.5810 0.5880 0.5910 0.5950 0.5960
1047.766834 0.5990 0.5990 0.6000 0.6000 0.6000
1052.389337 0.6010 0.6010 0.6010 0.6010 0.6010
1057.011841 0.6010 0.6010 0.6010 0.6010 0.6010
1061.634344 0.6010 0.6020 0.6020 0.6020 0.6020
1066.256848 0.6020 0.6020 0.6020 0.6020 0.6020
1070.879351 0.6020 0.6020 0.6010 0.6010 0.6000
1075.501854 0.5990 0.5960 0.5950 0.5900 0.5840
1080.124358 0.5780 0.5680 0.5630 0.5520 0.5460
1084.746861 0.5390 0.5260 0.5031 0.4871 0.4621
1089.369364 0.4360 0.4110 0.3990 0.3870 0.3860
1093.991868 0.3870 0.3880 0.3890 0.3920 0.4020
1098.614371 0.4100 0.4180 0.4240 0.4300 0.4350
1103.236875 0.4360 0.4370 0.4380 0.4430 0.4460
1107.859378 0.4480 0.4490 0.4510 0.4580 0.4600
1112.481881 0.4640 0.4650 0.4660 0.4680 0.4690
1117.104385 0.4710 0.4740 0.4770 0.4770 0.4760
1121.726888 0.4760 0.4730 0.4710 0.4700 0.4680
1126.349391 0.4650 0.4640 0.4590 0.4520 0.4440
1130.971895 0.4290 0.4100 0.4020 0.3970 0.3920
1135.594398 0.3870 0.3870 0.3910 0.4070 0.4410
1140.216902 0.4620 0.4760 0.4959 0.5139 0.5190
1144.839405 0.5250 0.5290 0.5360 0.5370 0.5510
1149.461908 0.5570 0.5750 0.5919 0.6099 0.6140
1154.084412 0.6160 0.6170 0.6230 0.6340 0.6430
1158.706915 0.6490 0.6510 0.6550 0.6610 0.6670
1163.329418 0.6680 0.6690 0.6710 0.6730 0.6740
1167.951922 0.6760 0.6770 0.6850 0.6910 0.7059
1172.574425 0.7090 0.7110 0.7170 0.7220 0.7260
1177.196929 0.7270 0.7320 0.7400 0.7430 0.7450
1181.819432 0.7460 0.7510 0.7540 0.7550 0.7560
1186.441935 0.7570 0.7570 0.7570 0.7570 0.7570
1191.064439 0.7570 0.7550 0.7540 0.7530 0.7500
1195.686942 0.7480 0.7440 0.7420 0.7400 0.7370
1200.309445 0.7320 0.7290 0.7260 0.7170 0.7130
1204.931949 0.7110 0.7090 0.7070 0.7040 0.6990
1209.554452 0.6930 0.6900 0.6850 0.6820 0.6800
1214.176956 0.6780 0.6770 0.6740 0.6720 0.6710
1218.799459 0.6690 0.6680 0.6670 0.6620 0.6600
1223.421962 0.6580 0.6500 0.6460 0.6450 0.6430
1228.044466 0.6400 0.6340 0.6300 0.6240 0.6190
1232.666969 0.6160 0.6140 0.6130 0.6130 0.6140
1237.289472 0.6160 0.6170 0.6220 0.6320 0.6380
1241.911976 0.6440 0.6560 0.6600 0.6620 0.6670
1246.534479 0.6720 0.6730 0.6760 0.6770 0.6790
1251.156983 0.6820 0.6870 0.6890 0.6900 0.6910
1255.779486 0.6930 0.6950 0.7020 0.7060 0.7070
1260.401989 0.7100 0.7120 0.7150 0.7170 0.7230
1265.024493 0.7240 0.7260 0.7290 0.7320 0.7370
1269.646996 0.7420 0.7450 0.7490 0.7530 0.7530
1274.269499 0.7550 0.7560 0.7570 0.7570 0.7570
1278.892003 0.7560 0.7560 0.7550 0.7550 0.7530
1283.514506 0.7530 0.7540 0.7570 0.7600 0.7700
1288.137010 0.7780 0.7870 0.7890 0.7950 0.7980
1292.759513 0.8000 0.8050 0.8090 0.8100 0.8110
1297.382016 0.8120 0.8140 0.8150 0.8170 0.8190
1302.004520 0.8200 0.8210 0.8220 0.8230 0.8260
1306.627023 0.8270 0.8280 0.8280 0.8300 0.8300
1311.249526 0.8310 0.8310 0.8310 0.8320 0.8320
1315.872030 0.8330 0.8330 0.8340 0.8340 0.8360
1320.494533 0.8360 0.8360 0.8370 0.8370 0.8380
1325.117037 0.8410 0.8410 0.8430 0.8440 0.8450
1329.739540 0.8470 0.8480 0.8490 0.8500 0.8520
1334.362043 0.8520 0.8530 0.8530 0.8540 0.8540
1338.984547 0.8540 0.8540 0.8540 0.8540 0.8540
1343.607050 0.8540 0.8540 0.8540 0.8530 0.8530
1348.229553 0.8530 0.8530 0.8500 0.8500 0.8500
1352.852057 0.8500 0.8490 0.8490 0.8490 0.8480
1357.474560 0.8480 0.8470 0.8470 0.8470 0.8470
1362.097064 0.8470 0.8480 0.8490 0.8490 0.8500
1366.719567 0.8500 0.8500 0.8500 0.8520 0.8520
1371.342070 0.8520 0.8520 0.8520 0.8520 0.8520
1375.964574 0.8500 0.8500 0.8490 0.8480 0.8410
1380.587077 0.8390 0.8360 0.8300 0.8230 0.8200
1385.209580 0.8150 0.8140 0.8150 0.8170 0.8220
1389.832084 0.8260 0.8300 0.8300 0.8310 0.8310
1394.454587 0.8320 0.8320 0.8320 0.8320 0.8320
1399.077091 0.8320 0.8320 0.8330 0.8330 0.8330
1403.699594 0.8330 0.8330 0.8320 0.8320 0.8320
1408.322097 0.8320 0.8320 0.8330 0.8330 0.8330
1412.944601 0.8330 0.8330 0.8320 0.8320 0.8320
1417.567104 0.8320 0.8320 0.8310 0.8310 0.8260
1422.189607 0.8220 0.8210 0.8200 0.8190 0.8190
1426.812111 0.8170 0.8170 0.8150 0.8150 0.8140
1431.434614 0.8140 0.8120 0.8120 0.8120 0.8120
1436.057118 0.8120 0.8120 0.8140 0.8140 0.8140
1440.679621 0.8150 0.8150 0.8140 0.8140 0.8140
1445.302124 0.8140 0.8120 0.8120 0.8100 0.8080
1449.924628 0.8050 0.8040 0.8010 0.8010 0.8000
1454.547131 0.7990 0.7970 0.7970 0.7950 0.7930
1459.169634 0.7860 0.7810 0.7790 0.7780 0.7760
1463.792138 0.7760 0.7750 0.7670 0.7600 0.7540
1468.414641 0.7400 0.7260 0.7230 0.7200 0.7160
1473.037145 0.7120 0.7090 0.7070 0.7070 0.7060
1477.659648 0.7000 0.6990 0.6960 0.6910 0.6790
1482.282151 0.6660 0.6570 0.6450 0.6320 0.6161
1486.904655 0.6009 0.5630 0.5450 0.5260 0.4810
1491.527158 0.4431 0.4081 0.3990 0.3890 0.3741
1496.149661 0.3640 0.3640 0.3710 0.4290 0.4580
1500.772165 0.5089 0.5120 0.5639 0.5899 0.6169
1505.394668 0.6330 0.6520 0.6740 0.6940 0.7010
1510.017172 0.7060 0.7110 0.7150 0.7230 0.7240
1514.639675 0.7320 0.7390 0.7430 0.7450 0.7510
1519.262178 0.7540 0.7550 0.7560 0.7570 0.7590
1523.884682 0.7590 0.7600 0.7600 0.7620 0.7620
1528.507185 0.7640 0.7650 0.7650 0.7660 0.7660
1533.129688 0.7660 0.7660 0.7660 0.7660 0.7660
1537.752192 0.7660 0.7660 0.7670 0.7670 0.7670
1542.374695 0.7670 0.7670 0.7670 0.7670 0.7670
1546.997199 0.7670 0.7670 0.7670 0.7670 0.7670
1551.619702 0.7670 0.7670 0.7670 0.7670 0.7660
1556.242205 0.7660 0.7660 0.7660 0.7660 0.7660
1560.864709 0.7660 0.7660 0.7660 0.7660 0.7660
1565.487212 0.7660 0.7660 0.7660 0.7660 0.7660
1570.109715 0.7670 0.7670 0.7670 0.7670 0.7670
1574.732219 0.7670 0.7670 0.7670 0.7670 0.7680
1579.354722 0.7700 0.7700 0.7700 0.7710 0.7750
1583.977226 0.7760 0.7770 0.7770 0.7780 0.7780
1588.599729 0.7810 0.7820 0.7840 0.7870 0.7880
1593.222232 0.7900 0.7920 0.7930 0.7930 0.7940
1597.844736 0.7950 0.7980 0.8030 0.8090 0.8120
1602.467239 0.8120 0.8170 0.8210 0.8250 0.8270
1607.089742 0.8300 0.8310 0.8330 0.8370 0.8410
1611.712246 0.8420 0.8440 0.8500 0.8520 0.8530
1616.334749 0.8540 0.8540 0.8550 0.8550 0.8560
1620.957253 0.8580 0.8590 0.8600 0.8600 0.8610
1625.579756 0.8610 0.8610 0.8630 0.8640 0.8640
1630.202259 0.8640 0.8650 0.8650 0.8650 0.8660
1634.824763 0.8670 0.8700 0.8700 0.8690 0.8660
1639.447266 0.8640 0.8610 0.8590 0.8560 0.8540
1644.069769 0.8530 0.8500 0.8480 0.8410 0.8370
1648.692273 0.8340 0.8310 0.8280 0.8250 0.8210
1653.314776 0.8160 0.8150 0.8140 0.8140 0.8110
1657.937280 0.8080 0.8050 0.8010 0.8000 0.7980
1662.559783 0.7940 0.7930 0.7870 0.7860 0.7830
1667.182286 0.7780 0.7760 0.7710 0.7670 0.7650
1671.804790 0.7620 0.7590 0.7590 0.7490 0.7430
1676.427293 0.7380 0.7320 0.7270 0.7230 0.7230
1681.049796 0.7160 0.7100 0.7090 0.7020 0.6950
1685.672300 0.6930 0.6900 0.6850 0.6800 0.6760
1690.294803 0.6630 0.6600 0.6490 0.6460 0.6360
1694.917307 0.6230 0.6120 0.6030 0.6020 0.5970
1699.539810 0.5920 0.5860 0.5830 0.5810 0.5780
1704.162313 0.5750 0.5660 0.5610 0.5500 0.5390
1708.784817 0.5360 0.5140 0.5070 0.4930 0.4870
1713.407320 0.4770 0.4570 0.4351 0.4210 0.4021
1718.029823 0.3809 0.3500 0.3210 0.3140 0.2930
1722.652327 0.2640 0.2420 0.2201 0.1821 0.1491
1727.274830 0.1070 0.0900 0.0730 0.0530 0.0230
1731.897334 0.0190 0.0190 0.0240 0.0250 0.0250
1736.519837 0.0260 0.0290 0.0390 0.0520 0.1170
1741.142340 0.1240 0.1300 0.1579 0.1819 0.2089
1745.764844 0.2241 0.2530 0.2830 0.3100 0.3430
1750.387347 0.3630 0.3740 0.3800 0.3870 0.4089
1755.009850 0.4190 0.4320 0.4370 0.4590 0.4650
1759.632354 0.4840 0.4970 0.5020 0.5130 0.5140
1764.254857 0.5250 0.5300 0.5370 0.5530 0.5590
1768.877361 0.5640 0.5700 0.5790 0.5890 0.5940
1773.499864 0.5990 0.6020 0.6030 0.6070 0.6110
1778.122367 0.6190 0.6300 0.6350 0.6430 0.6450
1782.744871 0.6460 0.6510 0.6550 0.6620 0.6680
1787.367374 0.6720 0.6770 0.6830 0.6900 0.6960
1791.989877 0.7040 0.7070 0.7100 0.7160 0.7180
1796.612381 0.7220 0.7240 0.7280 0.7370 0.7450
1801.234884 0.7530 0.7530 0.7550 0.7570 0.7600
1805.857388 0.7620 0.7660 0.7700 0.7720 0.7810
1810.479891 0.7840 0.7840 0.7860 0.7880 0.7920
1815.102394 0.7930 0.7940 0.7950 0.7980 0.8010
1819.724898 0.8040 0.8050 0.8060 0.8090 0.8120
1824.347401 0.8140 0.8160 0.8170 0.8200 0.8220
1828.969904 0.8230 0.8260 0.8280 0.8300 0.8310
1833.592408 0.8310 0.8320 0.8340 0.8370 0.8380
1838.214911 0.8410 0.8420 0.8430 0.8440 0.8450
1842.837415 0.8480 0.8500 0.8500 0.8520 0.8520
1847.459918 0.8530 0.8530 0.8540 0.8550 0.8550
1852.082421 0.8550 0.8560 0.8580 0.8590 0.8590
1856.704925 0.8600 0.8600 0.8610 0.8610 0.8630
1861.327428 0.8630 0.8630 0.8640 0.8650 0.8660
1865.949931 0.8660 0.8670 0.8670 0.8690 0.8690
1870.572435 0.8700 0.8700 0.8700 0.8710 0.8710
1875.194938 0.8710 0.8710 0.8710 0.8710 0.8710
1879.817442 0.8720 0.8720 0.8720 0.8720 0.8740
1884.439945 0.8750 0.8760 0.8760 0.8760 0.8760
1889.062448 0.8770 0.8800 0.8800 0.8800 0.8800
1893.684952 0.8800 0.8800 0.8810 0.8810 0.8810
1898.307455 0.8810 0.8820 0.8820 0.8820 0.8820
1902.929958 0.8820 0.8820 0.8820 0.8820 0.8830
1907.552462 0.8830 0.8830 0.8850 0.8850 0.8850
1912.174965 0.8850 0.8850 0.8850 0.8850 0.8850
1916.797469 0.8860 0.8860 0.8860 0.8860 0.8860
1921.419972 0.8860 0.8860 0.8860 0.8860 0.8860
1926.042475 0.8860 0.8860 0.8870 0.8870 0.8870
1930.664979 0.8870 0.8870 0.8870 0.8870 0.8870
1935.287482 0.8870 0.8870 0.8870 0.8870 0.8870
1939.909985 0.8870 0.8870 0.8870 0.8870 0.8870
1944.532489 0.8870 0.8870 0.8860 0.8860 0.8860
1949.154992 0.8860 0.8860 0.8860 0.8850 0.8850
1953.777496 0.8850 0.8850 0.8850 0.8850 0.8850
1958.399999 0.8850 0.8850 0.8850 0.8850 0.8850
1963.022502 0.8850 0.8850 0.8850 0.8850 0.8850
1967.645006 0.8850 0.8850 0.8850 0.8850 0.8850
1972.267509 0.8850 0.8850 0.8850 0.8850 0.8850
1976.890012 0.8850 0.8850 0.8860 0.8860 0.8860
1981.512516 0.8860 0.8860 0.8860 0.8860 0.8860
1986.135019 0.8860 0.8860 0.8870 0.8870 0.8870
1990.757523 0.8870 0.8870 0.8870 0.8870 0.8870
1995.380026 0.8870 0.8870 0.8870 0.8870 0.8870
2000.002529 0.8870 0.8870 0.8870 0.8870 0.8870
2004.625033 0.8870 0.8870 0.8870 0.8870 0.8870
2009.247536 0.8870 0.8870 0.8870 0.8870 0.8870
2013.870039 0.8870 0.8870 0.8875 0.8880 0.8880
2018.492543 0.8880 0.8880 0.8880 0.8875 0.8870
2023.115046 0.8870 0.8870 0.8870 0.8870 0.8870
2027.737550 0.8870 0.8870 0.8870 0.8870 0.8870
2032.360053 0.8870 0.8870 0.8874 0.8879 0.8884
2036.982556 0.8889 0.8890 0.8890 0.8890 0.8890
2041.605060 0.8890 0.8890 0.8890 0.8890 0.8899
2046.227563 0.8909 0.8910 0.8910 0.8910 0.8910
2050.850066 0.8910 0.8910 0.8914 0.8919 0.8920
2055.472570 0.8920 0.8924 0.8929 0.8930 0.8930
2060.095073 0.8930 0.8930 0.8934 0.8939 0.8952
2064.717577 0.8967 0.8974 0.8979 0.8980 0.8980
2069.340080 0.8984 0.8989 0.8990 0.8990 0.8990
2073.962583 0.8990 0.8986 0.8981 0.8976 0.8971
2078.585087 0.8966 0.8961 0.8960 0.8960 0.8960
2083.207590 0.8960 0.8953 0.8943 0.8940 0.8940
2087.830093 0.8940 0.8940 0.8940 0.8940 0.8940
2092.452597 0.8940 0.8940 0.8940 0.8940 0.8940
2097.075100 0.8940 0.8940 0.8947 0.8957 0.8960
2101.697604 0.8960 0.8960 0.8960 0.8960 0.8960
2106.320107 0.8960 0.8960 0.8960 0.8960 0.8960
2110.942610 0.8960 0.8960 0.8960 0.8960 0.8960
2115.565114 0.8960 0.8960 0.8960 0.8960 0.8960
2120.187617 0.8960 0.8960 0.8960 0.8960 0.8960
2124.810120 0.8954 0.8944 0.8940 0.8940 0.8946
2129.432624 0.8956 0.8960 0.8960 0.8960 0.8960
2134.055127 0.8960 0.8960 0.8960 0.8960 0.8963
2138.677631 0.8968 0.8970 0.8970 0.8970 0.8970
2143.300134 0.8970 0.8970 0.8970 0.8970 0.8970
2147.922637 0.8970 0.8970 0.8970 0.8970 0.8970
2152.545141 0.8967 0.8962 0.8960 0.8960 0.8960
2157.167644 0.8960 0.8960 0.8960 0.8960 0.8960
2161.790147 0.8960 0.8960 0.8960 0.8960 0.8960
2166.412651 0.8960 0.8960 0.8960 0.8960 0.8960
2171.035154 0.8960 0.8960 0.8960 0.8960 0.8960
2175.657658 0.8960 0.8960 0.8960 0.8955 0.8945
2180.280161 0.8940 0.8940 0.8940 0.8940 0.8940
2184.902664 0.8940 0.8940 0.8940 0.8944 0.8954
2189.525168 0.8960 0.8960 0.8960 0.8960 0.8960
2194.147671 0.8960 0.8960 0.8960 0.8960 0.8960
2198.770174 0.8960 0.8960 0.8960 0.8960 0.8960
2203.392678 0.8960 0.8960 0.8960 0.8960 0.8960
2208.015181 0.8960 0.8960 0.8960 0.8960 0.8956
2212.637685 0.8946 0.8940 0.8940 0.8940 0.8940
2217.260188 0.8940 0.8940 0.8940 0.8940 0.8940
2221.882691 0.8940 0.8938 0.8933 0.8930 0.8930
2226.505195 0.8930 0.8930 0.8930 0.8930 0.8930
2231.127698 0.8930 0.8930 0.8930 0.8929 0.8924
2235.750201 0.8920 0.8920 0.8920 0.8920 0.8919
2240.372705 0.8914 0.8910 0.8910 0.8910 0.8910
2244.995208 0.8907 0.8897 0.8890 0.8890 0.8890
2249.617712 0.8890 0.8890 0.8890 0.8890 0.8890
2254.240215 0.8889 0.8884 0.8880 0.8880 0.8880
2258.862718 0.8880 0.8879 0.8874 0.8870 0.8870
2263.485222 0.8870 0.8870 0.8869 0.8864 0.8859
2268.107725 0.8854 0.8848 0.8838 0.8830 0.8830
2272.730228 0.8829 0.8824 0.8820 0.8820 0.8820
2277.352732 0.8820 0.8820 0.8820 0.8819 0.8814
2281.975235 0.8810 0.8810 0.8810 0.8810 0.8810
2286.597739 0.8810 0.8810 0.8810 0.8809 0.8804
2291.220242 0.8800 0.8800 0.8800 0.8800 0.8800
2295.842745 0.8800 0.8800 0.8800 0.8801 0.8806
2300.465249 0.8810 0.8810 0.8810 0.8810 0.8810
2305.087752 0.8810 0.8810 0.8815 0.8820 0.8820
2309.710255 0.8820 0.8820 0.8820 0.8825 0.8830
2314.332759 0.8830 0.8830 0.8830 0.8830 0.8830
2318.955262 0.8830 0.8840 0.8850 0.8855 0.8860
2323.577766 0.8860 0.8860 0.8860 0.8860 0.8860
2328.200269 0.8860 0.8860 0.8860 0.8860 0.8860
2332.822772 0.8860 0.8860 0.8860 0.8860 0.8860
2337.445276 0.8860 0.8860 0.8860 0.8860 0.8860
2342.067779 0.8860 0.8860 0.8860 0.8860 0.8860
2346.690282 0.8860 0.8860 0.8860 0.8860 0.8860
2351.312786 0.8865 0.8870 0.8870 0.8870 0.8870
2355.935289 0.8870 0.8870 0.8870 0.8870 0.8870
2360.557793 0.8870 0.8870 0.8870 0.8870 0.8870
2365.180296 0.8870 0.8870 0.8870 0.8870 0.8870
2369.802799 0.8870 0.8870 0.8870 0.8870 0.8870
2374.425303 0.8870 0.8870 0.8870 0.8874 0.8879
2379.047806 0.8880 0.8880 0.8880 0.8880 0.8880
2383.670309 0.8880 0.8880 0.8880 0.8880 0.8880
2388.292813 0.8880 0.8880 0.8880 0.8880 0.8880
2392.915316 0.8880 0.8880 0.8880 0.8880 0.8880
2397.537820 0.8880 0.8880 0.8880 0.8880 0.8880
2402.160323 0.8880 0.8880 0.8880 0.8880 0.8880
2406.782826 0.8880 0.8880 0.8880 0.8880 0.8880
2411.405330 0.8880 0.8876 0.8871 0.8870 0.8870
2416.027833 0.8870 0.8870 0.8870 0.8870 0.8866
2420.650336 0.8861 0.8860 0.8860 0.8860 0.8860
2425.272840 0.8860 0.8860 0.8860 0.8860 0.8860
2429.895343 0.8860 0.8860 0.8860 0.8860 0.8860
2434.517847 0.8860 0.8860 0.8860 0.8860 0.8860
2439.140350 0.8860 0.8857 0.8852 0.8850 0.8850
2443.762853 0.8850 0.8850 0.8850 0.8850 0.8850
2448.385357 0.8850 0.8850 0.8850 0.8850 0.8850
2453.007860 0.8850 0.8850 0.8850 0.8850 0.8844
2457.630363 0.8834 0.8830 0.8830 0.8827 0.8822
