##TITLE=1,3-Propanediol
##JCAMP-DX=4.24
$$ By DXEDIT 1.05 (RS McDonald)
##DATA TYPE=INFRARED SPECTRUM
##CLASS=COBLENTZ III
##ORIGIN=DOW CHEMICAL COMPANY
##OWNER=COPYRIGHT (C) 1988 by COBLENTZ SOCIETY INC.
Collection (C) 2018 copyright by the U.S. Secretary of Commerce
on behalf of the United States of America. All rights reserved.
##DATE=1963/11/27
##CAS REGISTRY NO=504-63-2
##MOLFORM=C3 H8 O2
##BP=210-212 C
##SOURCE REFERENCE=COBLENTZ NO. 06323
##$NIST SOURCE=COBLENTZ
##$NIST IMAGE=cob6323
##SPECTROMETER/DATA SYSTEM=BECKMAN IR-9 (GRATING)
##INSTRUMENT PARAMETERS=ORDER CHANGES: 670, 1200, 2000 CM^-^1
##STATE=LIQUID (NEAT)
##PATH LENGTH=CAPILLARY
$$SPECTRAL CONTAMINATION DUE TO H2O AROUND 1660 CM^-^1
##SAMPLING PROCEDURE=TRANSMISSION
##RESOLUTION=2
##DATA PROCESSING=DIGITIZED BY COBLENTZ SOCIETY (BATCH I) FROM HARD COPY
##XUNITS=1/CM
##YUNITS=TRANSMITTANCE
##XFACTOR=1
##YFACTOR=1
##DELTAX=1
##FIRSTX=3812
##LASTX=400
##FIRSTY=0.8481
##MAXX=3812
##MINX=400
##MAXY=0.8778
##MINY=0.03
##NPOINTS=3413
##XYDATA=(X++(Y..Y))
3812.000000 0.8481 0.8480 0.8478 0.8478 0.8477
3807.000000 0.8475 0.8475 0.8473 0.8471 0.8471
3802.000000 0.8470 0.8468 0.8468 0.8466 0.8465
3797.000000 0.8464 0.8463 0.8462 0.8461 0.8460
3792.000000 0.8459 0.8457 0.8456 0.8455 0.8454
3787.000000 0.8453 0.8452 0.8450 0.8449 0.8448
3782.000000 0.8447 0.8445 0.8444 0.8442 0.8441
3777.000000 0.8440 0.8439 0.8438 0.8437 0.8436
3772.000000 0.8435 0.8434 0.8433 0.8432 0.8431
3767.000000 0.8430 0.8428 0.8428 0.8427 0.8425
3762.000000 0.8424 0.8421 0.8421 0.8418 0.8418
3757.000000 0.8416 0.8415 0.8413 0.8412 0.8410
3752.000000 0.8409 0.8407 0.8406 0.8404 0.8403
3747.000000 0.8401 0.8400 0.8398 0.8397 0.8396
3742.000000 0.8395 0.8393 0.8392 0.8390 0.8389
3737.000000 0.8387 0.8386 0.8383 0.8381 0.8378
3732.000000 0.8377 0.8374 0.8371 0.8370 0.8368
3727.000000 0.8365 0.8363 0.8361 0.8359 0.8355
3722.000000 0.8352 0.8347 0.8343 0.8339 0.8335
3717.000000 0.8330 0.8325 0.8316 0.8307 0.8297
3712.000000 0.8288 0.8278 0.8268 0.8256 0.8243
3707.000000 0.8228 0.8214 0.8200 0.8186 0.8171
3702.000000 0.8158 0.8143 0.8128 0.8114 0.8100
3697.000000 0.8085 0.8071 0.8056 0.8042 0.8026
3692.000000 0.8012 0.7998 0.7983 0.7968 0.7953
3687.000000 0.7937 0.7921 0.7905 0.7890 0.7874
3682.000000 0.7858 0.7842 0.7825 0.7810 0.7795
3677.000000 0.7776 0.7760 0.7740 0.7719 0.7699
3672.000000 0.7678 0.7651 0.7624 0.7597 0.7569
3667.000000 0.7543 0.7515 0.7489 0.7461 0.7435
3662.000000 0.7408 0.7389 0.7371 0.7351 0.7334
3657.000000 0.7315 0.7298 0.7280 0.7261 0.7244
3652.000000 0.7225 0.7208 0.7190 0.7171 0.7154
3647.000000 0.7132 0.7110 0.7078 0.7046 0.7012
3642.000000 0.6981 0.6949 0.6917 0.6883 0.6850
3637.000000 0.6815 0.6782 0.6748 0.6714 0.6680
3632.000000 0.6647 0.6612 0.6578 0.6545 0.6511
3627.000000 0.6476 0.6443 0.6411 0.6379 0.6353
3622.000000 0.6327 0.6301 0.6276 0.6250 0.6225
3617.000000 0.6199 0.6174 0.6148 0.6122 0.6096
3612.000000 0.6071 0.6045 0.6020 0.5971 0.5922
3607.000000 0.5864 0.5807 0.5749 0.5692 0.5634
3602.000000 0.5577 0.5531 0.5486 0.5444 0.5402
3597.000000 0.5360 0.5318 0.5276 0.5235 0.5193
3592.000000 0.5151 0.5108 0.5065 0.5021 0.4977
3587.000000 0.4933 0.4889 0.4845 0.4802 0.4758
3582.000000 0.4714 0.4671 0.4628 0.4585 0.4542
3577.000000 0.4499 0.4456 0.4412 0.4369 0.4326
3572.000000 0.4283 0.4225 0.4168 0.4106 0.4045
3567.000000 0.3984 0.3923 0.3871 0.3820 0.3772
3562.000000 0.3724 0.3684 0.3646 0.3608 0.3570
3557.000000 0.3530 0.3493 0.3455 0.3418 0.3382
3552.000000 0.3347 0.3312 0.3277 0.3242 0.3207
3547.000000 0.3171 0.3135 0.3101 0.3066 0.3030
3542.000000 0.2994 0.2946 0.2899 0.2851 0.2804
3537.000000 0.2756 0.2709 0.2660 0.2612 0.2563
3532.000000 0.2515 0.2466 0.2417 0.2366 0.2316
3527.000000 0.2265 0.2215 0.2182 0.2149 0.2124
3522.000000 0.2100 0.2075 0.2051 0.2026 0.2002
3517.000000 0.1978 0.1954 0.1929 0.1906 0.1879
3512.000000 0.1852 0.1824 0.1795 0.1768 0.1741
3507.000000 0.1713 0.1684 0.1645 0.1607 0.1568
3502.000000 0.1529 0.1498 0.1467 0.1444 0.1422
3497.000000 0.1399 0.1376 0.1353 0.1330 0.1308
3492.000000 0.1286 0.1263 0.1241 0.1218 0.1196
3487.000000 0.1174 0.1152 0.1130 0.1109 0.1090
3482.000000 0.1072 0.1053 0.1035 0.1016 0.0997
3477.000000 0.0979 0.0961 0.0942 0.0924 0.0906
3472.000000 0.0888 0.0869 0.0851 0.0832 0.0814
3467.000000 0.0798 0.0782 0.0770 0.0758 0.0746
3462.000000 0.0735 0.0723 0.0711 0.0699 0.0687
3457.000000 0.0675 0.0663 0.0651 0.0640 0.0633
3452.000000 0.0626 0.0619 0.0612 0.0604 0.0597
3447.000000 0.0590 0.0583 0.0575 0.0568 0.0561
3442.000000 0.0554 0.0546 0.0539 0.0532 0.0525
3437.000000 0.0517 0.0510 0.0504 0.0498 0.0492
3432.000000 0.0486 0.0480 0.0473 0.0467 0.0462
3427.000000 0.0456 0.0451 0.0446 0.0442 0.0437
3422.000000 0.0433 0.0427 0.0423 0.0419 0.0414
3417.000000 0.0409 0.0405 0.0401 0.0397 0.0392
3412.000000 0.0388 0.0384 0.0380 0.0376 0.0372
3407.000000 0.0366 0.0363 0.0359 0.0355 0.0351
3402.000000 0.0347 0.0344 0.0341 0.0338 0.0336
3397.000000 0.0333 0.0330 0.0327 0.0325 0.0322
3392.000000 0.0320 0.0316 0.0315 0.0312 0.0310
3387.000000 0.0308 0.0306 0.0305 0.0305 0.0304
3382.000000 0.0304 0.0303 0.0303 0.0303 0.0303
3377.000000 0.0302 0.0301 0.0301 0.0301 0.0300
3372.000000 0.0300 0.0301 0.0303 0.0304 0.0306
3367.000000 0.0307 0.0309 0.0310 0.0312 0.0314
3362.000000 0.0316 0.0316 0.0318 0.0320 0.0322
3357.000000 0.0323 0.0325 0.0326 0.0328 0.0329
3352.000000 0.0331 0.0333 0.0335 0.0337 0.0340
3347.000000 0.0342 0.0345 0.0348 0.0351 0.0353
3342.000000 0.0356 0.0359 0.0362 0.0364 0.0366
3337.000000 0.0368 0.0372 0.0375 0.0378 0.0380
3332.000000 0.0383 0.0385 0.0388 0.0391 0.0395
3327.000000 0.0398 0.0401 0.0404 0.0408 0.0411
3322.000000 0.0414 0.0417 0.0419 0.0423 0.0427
3317.000000 0.0430 0.0433 0.0436 0.0439 0.0442
3312.000000 0.0446 0.0449 0.0452 0.0455 0.0458
3307.000000 0.0461 0.0465 0.0467 0.0471 0.0473
3302.000000 0.0477 0.0481 0.0484 0.0488 0.0493
3297.000000 0.0499 0.0505 0.0511 0.0517 0.0523
3292.000000 0.0529 0.0535 0.0541 0.0547 0.0553
3287.000000 0.0559 0.0566 0.0572 0.0578 0.0584
3282.000000 0.0590 0.0596 0.0602 0.0608 0.0614
3277.000000 0.0620 0.0626 0.0632 0.0639 0.0646
3272.000000 0.0653 0.0660 0.0667 0.0673 0.0680
3267.000000 0.0687 0.0694 0.0701 0.0708 0.0714
3262.000000 0.0721 0.0728 0.0735 0.0741 0.0748
3257.000000 0.0755 0.0762 0.0769 0.0776 0.0785
3252.000000 0.0794 0.0804 0.0814 0.0824 0.0834
3247.000000 0.0843 0.0854 0.0864 0.0874 0.0884
3242.000000 0.0893 0.0903 0.0913 0.0922 0.0933
3237.000000 0.0942 0.0953 0.0967 0.0981 0.0996
3232.000000 0.1013 0.1029 0.1046 0.1062 0.1078
3227.000000 0.1094 0.1110 0.1128 0.1146 0.1170
3222.000000 0.1194 0.1218 0.1242 0.1266 0.1290
3217.000000 0.1314 0.1338 0.1359 0.1380 0.1400
3212.000000 0.1420 0.1440 0.1460 0.1480 0.1500
3207.000000 0.1520 0.1540 0.1560 0.1580 0.1600
3202.000000 0.1620 0.1640 0.1660 0.1679 0.1701
3197.000000 0.1721 0.1741 0.1761 0.1782 0.1802
3192.000000 0.1822 0.1842 0.1862 0.1882 0.1903
3187.000000 0.1921 0.1940 0.1958 0.1977 0.1994
3182.000000 0.2014 0.2032 0.2051 0.2070 0.2089
3177.000000 0.2107 0.2126 0.2144 0.2163 0.2185
3172.000000 0.2209 0.2234 0.2260 0.2284 0.2311
3167.000000 0.2335 0.2362 0.2387 0.2413 0.2438
3162.000000 0.2464 0.2489 0.2514 0.2539 0.2565
3157.000000 0.2590 0.2615 0.2640 0.2666 0.2696
3152.000000 0.2726 0.2759 0.2793 0.2826 0.2860
3147.000000 0.2889 0.2918 0.2945 0.2972 0.2999
3142.000000 0.3026 0.3053 0.3080 0.3107 0.3134
3137.000000 0.3161 0.3189 0.3220 0.3252 0.3282
3132.000000 0.3314 0.3345 0.3377 0.3408 0.3440
3127.000000 0.3471 0.3502 0.3530 0.3559 0.3589
3122.000000 0.3618 0.3647 0.3676 0.3704 0.3732
3117.000000 0.3762 0.3794 0.3826 0.3859 0.3891
3112.000000 0.3924 0.3956 0.3989 0.4023 0.4057
3107.000000 0.4099 0.4142 0.4184 0.4227 0.4267
3102.000000 0.4307 0.4334 0.4360 0.4388 0.4416
3097.000000 0.4443 0.4471 0.4512 0.4555 0.4582
3092.000000 0.4610 0.4634 0.4659 0.4684 0.4709
3087.000000 0.4734 0.4759 0.4778 0.4798 0.4812
3082.000000 0.4827 0.4851 0.4876 0.4901 0.4926
3077.000000 0.4948 0.4971 0.4993 0.5016 0.5038
3072.000000 0.5060 0.5082 0.5104 0.5123 0.5143
3067.000000 0.5162 0.5183 0.5203 0.5223 0.5242
3062.000000 0.5260 0.5276 0.5291 0.5306 0.5321
3057.000000 0.5335 0.5350 0.5365 0.5380 0.5405
3052.000000 0.5430 0.5457 0.5485 0.5509 0.5533
3047.000000 0.5548 0.5562 0.5578 0.5594 0.5609
3042.000000 0.5624 0.5639 0.5655 0.5670 0.5685
3037.000000 0.5697 0.5710 0.5722 0.5735 0.5746
3032.000000 0.5758 0.5767 0.5777 0.5785 0.5794
3027.000000 0.5802 0.5810 0.5822 0.5835 0.5836
3022.000000 0.5838 0.5840 0.5842 0.5843 0.5840
3017.000000 0.5846 0.5848 0.5849 0.5850 0.5845
3012.000000 0.5840 0.5830 0.5820 0.5810 0.5801
3007.000000 0.5788 0.5776 0.5753 0.5730 0.5707
3002.000000 0.5684 0.5644 0.5604 0.5547 0.5490
2997.000000 0.5444 0.5398 0.5343 0.5288 0.5177
2992.000000 0.5066 0.4986 0.4907 0.4819 0.4732
2987.000000 0.4645 0.4559 0.4479 0.4399 0.4319
2982.000000 0.4239 0.4160 0.4080 0.4002 0.3923
2977.000000 0.3800 0.3677 0.3337 0.2997 0.2865
2972.000000 0.2733 0.2620 0.2508 0.2448 0.2389
2967.000000 0.2351 0.2313 0.2270 0.2227 0.2155
2962.000000 0.2083 0.2028 0.1974 0.1961 0.1948
2957.000000 0.1943 0.1934 0.1937 0.1936 0.1941
2952.000000 0.1945 0.1971 0.1996 0.2023 0.2049
2947.000000 0.2075 0.2101 0.2127 0.2153 0.2195
2942.000000 0.2237 0.2317 0.2397 0.2484 0.2571
2937.000000 0.2643 0.2716 0.2764 0.2812 0.2847
2932.000000 0.2882 0.2900 0.2918 0.2930 0.2942
2927.000000 0.2949 0.2956 0.2961 0.2967 0.2972
2922.000000 0.2978 0.2981 0.2984 0.2984 0.2984
2917.000000 0.2984 0.2983 0.2980 0.2978 0.2961
2912.000000 0.2945 0.2899 0.2854 0.2806 0.2758
2907.000000 0.2711 0.2664 0.2614 0.2565 0.2509
2902.000000 0.2453 0.2410 0.2367 0.2349 0.2332
2897.000000 0.2331 0.2331 0.2331 0.2331 0.2342
2892.000000 0.2354 0.2371 0.2389 0.2425 0.2461
2887.000000 0.2515 0.2569 0.2657 0.2746 0.2795
2882.000000 0.2844 0.2893 0.2943 0.2991 0.3040
2877.000000 0.3085 0.3132 0.3178 0.3225 0.3271
2872.000000 0.3316 0.3366 0.3416 0.3464 0.3514
2867.000000 0.3564 0.3614 0.3673 0.3732 0.3792
2862.000000 0.3852 0.3906 0.3960 0.4012 0.4064
2857.000000 0.4116 0.4168 0.4217 0.4266 0.4312
2852.000000 0.4359 0.4406 0.4453 0.4499 0.4546
2847.000000 0.4583 0.4621 0.4658 0.4695 0.4732
2842.000000 0.4770 0.4807 0.4844 0.4902 0.4960
2837.000000 0.5020 0.5081 0.5128 0.5176 0.5217
2832.000000 0.5259 0.5296 0.5333 0.5362 0.5392
2827.000000 0.5421 0.5451 0.5480 0.5510 0.5539
2822.000000 0.5569 0.5601 0.5633 0.5688 0.5744
2817.000000 0.5772 0.5800 0.5827 0.5855 0.5875
2812.000000 0.5896 0.5914 0.5933 0.5951 0.5970
2807.000000 0.5988 0.6006 0.6024 0.6043 0.6060
2802.000000 0.6080 0.6098 0.6117 0.6135 0.6154
2797.000000 0.6172 0.6191 0.6209 0.6227 0.6241
2792.000000 0.6256 0.6271 0.6286 0.6300 0.6315
2787.000000 0.6330 0.6345 0.6359 0.6374 0.6389
2782.000000 0.6404 0.6417 0.6431 0.6442 0.6453
2777.000000 0.6464 0.6475 0.6487 0.6499 0.6510
2772.000000 0.6521 0.6533 0.6544 0.6555 0.6567
2767.000000 0.6575 0.6584 0.6591 0.6599 0.6606
2762.000000 0.6614 0.6621 0.6628 0.6635 0.6643
2757.000000 0.6649 0.6656 0.6661 0.6667 0.6671
2752.000000 0.6678 0.6684 0.6690 0.6703 0.6717
2747.000000 0.6730 0.6744 0.6757 0.6771 0.6784
2742.000000 0.6798 0.6811 0.6825 0.6839 0.6853
2737.000000 0.6865 0.6880 0.6893 0.6907 0.6919
2732.000000 0.6934 0.6946 0.6958 0.6968 0.6978
2727.000000 0.6988 0.6998 0.7007 0.7017 0.7026
2722.000000 0.7037 0.7046 0.7056 0.7065 0.7075
2717.000000 0.7085 0.7095 0.7105 0.7115 0.7124
2712.000000 0.7134 0.7143 0.7153 0.7161 0.7171
2707.000000 0.7181 0.7191 0.7200 0.7210 0.7218
2702.000000 0.7228 0.7238 0.7248 0.7257 0.7267
2697.000000 0.7275 0.7286 0.7297 0.7308 0.7321
2692.000000 0.7336 0.7349 0.7362 0.7376 0.7391
2687.000000 0.7398 0.7405 0.7408 0.7411 0.7415
2682.000000 0.7419 0.7424 0.7428 0.7431 0.7435
2677.000000 0.7439 0.7443 0.7447 0.7451 0.7454
2672.000000 0.7458 0.7461 0.7465 0.7468 0.7472
2667.000000 0.7476 0.7481 0.7485 0.7489 0.7492
2662.000000 0.7496 0.7500 0.7504 0.7507 0.7511
2657.000000 0.7515 0.7518 0.7521 0.7525 0.7530
2652.000000 0.7534 0.7539 0.7544 0.7549 0.7554
2647.000000 0.7558 0.7565 0.7569 0.7575 0.7580
2642.000000 0.7585 0.7590 0.7596 0.7601 0.7606
2637.000000 0.7611 0.7617 0.7622 0.7628 0.7634
2632.000000 0.7640 0.7645 0.7651 0.7657 0.7662
2627.000000 0.7668 0.7674 0.7678 0.7685 0.7691
2622.000000 0.7697 0.7701 0.7708 0.7712 0.7718
2617.000000 0.7725 0.7731 0.7736 0.7742 0.7748
2612.000000 0.7754 0.7761 0.7768 0.7775 0.7783
2607.000000 0.7790 0.7798 0.7805 0.7812 0.7818
2602.000000 0.7825 0.7831 0.7836 0.7841 0.7846
2597.000000 0.7850 0.7855 0.7860 0.7865 0.7869
2592.000000 0.7875 0.7880 0.7885 0.7889 0.7894
2587.000000 0.7899 0.7904 0.7908 0.7914 0.7918
2582.000000 0.7922 0.7926 0.7932 0.7936 0.7941
2577.000000 0.7945 0.7950 0.7955 0.7960 0.7965
2572.000000 0.7969 0.7975 0.7980 0.7985 0.7990
2567.000000 0.7991 0.7992 0.7993 0.7995 0.7996
2562.000000 0.7997 0.7998 0.8000 0.8001 0.8001
2557.000000 0.8003 0.8005 0.8005 0.8006 0.8006
2552.000000 0.8006 0.8005 0.8005 0.8005 0.8005
2547.000000 0.8004 0.8004 0.8003 0.8001 0.8001
2542.000000 0.8000 0.7999 0.7999 0.7998 0.7997
2537.000000 0.7997 0.7997 0.7997 0.7997 0.7997
2532.000000 0.7997 0.7997 0.7997 0.7997 0.7998
2527.000000 0.7998 0.7998 0.8000 0.8003 0.8008
2522.000000 0.8012 0.8017 0.8021 0.8026 0.8032
2517.000000 0.8036 0.8041 0.8046 0.8051 0.8057
2512.000000 0.8064 0.8069 0.8076 0.8083 0.8089
2507.000000 0.8095 0.8101 0.8108 0.8115 0.8121
2502.000000 0.8128 0.8134 0.8141 0.8147 0.8153
2497.000000 0.8158 0.8164 0.8168 0.8175 0.8180
2492.000000 0.8186 0.8192 0.8198 0.8203 0.8209
2487.000000 0.8214 0.8220 0.8225 0.8231 0.8236
2482.000000 0.8241 0.8245 0.8250 0.8254 0.8259
2477.000000 0.8263 0.8267 0.8271 0.8275 0.8280
2472.000000 0.8285 0.8289 0.8294 0.8299 0.8305
2467.000000 0.8310 0.8315 0.8320 0.8325 0.8330
2462.000000 0.8336 0.8341 0.8346 0.8351 0.8356
2457.000000 0.8361 0.8367 0.8371 0.8377 0.8382
2452.000000 0.8387 0.8387 0.8387 0.8385 0.8383
2447.000000 0.8381 0.8378 0.8377 0.8375 0.8374
2442.000000 0.8373 0.8371 0.8371 0.8370 0.8368
2437.000000 0.8368 0.8368 0.8367 0.8366 0.8365
2432.000000 0.8364 0.8363 0.8363 0.8363 0.8364
2427.000000 0.8366 0.8368 0.8370 0.8371 0.8374
2422.000000 0.8375 0.8378 0.8380 0.8382 0.8384
2417.000000 0.8386 0.8388 0.8390 0.8393 0.8395
2412.000000 0.8398 0.8400 0.8403 0.8405 0.8408
2407.000000 0.8410 0.8413 0.8415 0.8418 0.8420
2402.000000 0.8421 0.8424 0.8427 0.8428 0.8432
2397.000000 0.8434 0.8437 0.8439 0.8442 0.8444
2392.000000 0.8447 0.8449 0.8451 0.8452 0.8454
2387.000000 0.8455 0.8457 0.8458 0.8459 0.8460
2382.000000 0.8462 0.8463 0.8465 0.8466 0.8468
2377.000000 0.8468 0.8471 0.8471 0.8473 0.8474
2372.000000 0.8475 0.8477 0.8478 0.8480 0.8482
2367.000000 0.8483 0.8485 0.8486 0.8487 0.8488
2362.000000 0.8490 0.8491 0.8493 0.8493 0.8494
2357.000000 0.8495 0.8496 0.8496 0.8497 0.8498
2352.000000 0.8499 0.8499 0.8500 0.8501 0.8502
2347.000000 0.8502 0.8503 0.8504 0.8505 0.8505
2342.000000 0.8506 0.8507 0.8508 0.8508 0.8509
2337.000000 0.8509 0.8510 0.8511 0.8512 0.8512
2332.000000 0.8513 0.8514 0.8515 0.8515 0.8516
2327.000000 0.8516 0.8516 0.8516 0.8516 0.8516
2322.000000 0.8516 0.8516 0.8516 0.8516 0.8516
2317.000000 0.8516 0.8516 0.8516 0.8516 0.8516
2312.000000 0.8516 0.8516 0.8516 0.8516 0.8516
2307.000000 0.8516 0.8516 0.8516 0.8516 0.8516
2302.000000 0.8516 0.8516 0.8516 0.8516 0.8516
2297.000000 0.8516 0.8516 0.8516 0.8516 0.8516
2292.000000 0.8516 0.8516 0.8516 0.8516 0.8517
2287.000000 0.8517 0.8517 0.8517 0.8518 0.8518
2282.000000 0.8518 0.8518 0.8518 0.8518 0.8518
2277.000000 0.8518 0.8518 0.8518 0.8520 0.8520
2272.000000 0.8520 0.8520 0.8520 0.8520 0.8521
2267.000000 0.8521 0.8521 0.8521 0.8521 0.8521
2262.000000 0.8521 0.8521 0.8521 0.8521 0.8523
2257.000000 0.8523 0.8523 0.8523 0.8523 0.8523
2252.000000 0.8524 0.8524 0.8524 0.8524 0.8524
2247.000000 0.8524 0.8525 0.8525 0.8525 0.8525
2242.000000 0.8525 0.8525 0.8525 0.8525 0.8525
2237.000000 0.8525 0.8525 0.8525 0.8527 0.8527
2232.000000 0.8527 0.8527 0.8527 0.8527 0.8527
2227.000000 0.8525 0.8525 0.8523 0.8521 0.8520
2222.000000 0.8518 0.8518 0.8517 0.8516 0.8515
2217.000000 0.8514 0.8514 0.8514 0.8514 0.8513
2212.000000 0.8513 0.8512 0.8512 0.8512 0.8512
2207.000000 0.8511 0.8511 0.8510 0.8510 0.8510
2202.000000 0.8510 0.8510 0.8510 0.8510 0.8511
2197.000000 0.8511 0.8512 0.8512 0.8512 0.8512
2192.000000 0.8513 0.8513 0.8513 0.8513 0.8514
2187.000000 0.8514 0.8514 0.8514 0.8514 0.8514
2182.000000 0.8514 0.8514 0.8514 0.8514 0.8514
2177.000000 0.8514 0.8514 0.8514 0.8514 0.8514
2172.000000 0.8514 0.8514 0.8514 0.8514 0.8514
2167.000000 0.8514 0.8514 0.8514 0.8514 0.8514
2162.000000 0.8514 0.8514 0.8514 0.8514 0.8514
2157.000000 0.8514 0.8514 0.8514 0.8514 0.8513
2152.000000 0.8513 0.8512 0.8512 0.8512 0.8512
2147.000000 0.8511 0.8511 0.8510 0.8510 0.8509
2142.000000 0.8509 0.8508 0.8508 0.8508 0.8508
2137.000000 0.8509 0.8510 0.8510 0.8511 0.8511
2132.000000 0.8512 0.8513 0.8514 0.8514 0.8515
2127.000000 0.8516 0.8517 0.8517 0.8518 0.8518
2122.000000 0.8520 0.8520 0.8521 0.8521 0.8523
2117.000000 0.8525 0.8527 0.8530 0.8533 0.8536
2112.000000 0.8539 0.8542 0.8545 0.8547 0.8550
2107.000000 0.8553 0.8556 0.8558 0.8561 0.8563
2102.000000 0.8566 0.8568 0.8570 0.8571 0.8571
2097.000000 0.8571 0.8573 0.8574 0.8575 0.8575
2092.000000 0.8575 0.8575 0.8577 0.8577 0.8578
2087.000000 0.8578 0.8580 0.8580 0.8581 0.8581
2082.000000 0.8582 0.8583 0.8585 0.8587 0.8589
2077.000000 0.8590 0.8592 0.8593 0.8595 0.8596
2072.000000 0.8597 0.8596 0.8594 0.8591 0.8588
2067.000000 0.8585 0.8582 0.8578 0.8575 0.8573
2062.000000 0.8570 0.8567 0.8564 0.8564 0.8565
2057.000000 0.8568 0.8571 0.8575 0.8578 0.8581
2052.000000 0.8585 0.8588 0.8592 0.8595 0.8599
2047.000000 0.8602 0.8606 0.8610 0.8614 0.8618
2042.000000 0.8621 0.8625 0.8630 0.8634 0.8639
2037.000000 0.8643 0.8647 0.8650 0.8653 0.8655
2032.000000 0.8658 0.8660 0.8662 0.8664 0.8666
2027.000000 0.8668 0.8671 0.8673 0.8675 0.8677
2022.000000 0.8678 0.8680 0.8681 0.8681 0.8681
2017.000000 0.8681 0.8681 0.8681 0.8681 0.8681
2012.000000 0.8682 0.8682 0.8683 0.8683 0.8684
2007.000000 0.8684 0.8685 0.8685 0.8686 0.8686
2002.000000 0.8687 0.8687 0.8688 0.8689 0.8690
1997.000000 0.8691 0.8692 0.8693 0.8694 0.8694
1992.000000 0.8694 0.8694 0.8694 0.8693 0.8693
1987.000000 0.8693 0.8693 0.8694 0.8694 0.8694
1982.000000 0.8694 0.8695 0.8695 0.8695 0.8695
1977.000000 0.8695 0.8696 0.8696 0.8696 0.8697
1972.000000 0.8698 0.8700 0.8701 0.8702 0.8703
1967.000000 0.8705 0.8706 0.8712 0.8709 0.8710
1962.000000 0.8711 0.8712 0.8714 0.8715 0.8716
1957.000000 0.8716 0.8716 0.8716 0.8715 0.8715
1952.000000 0.8714 0.8714 0.8713 0.8713 0.8712
1947.000000 0.8712 0.8712 0.8711 0.8711 0.8710
1942.000000 0.8710 0.8709 0.8709 0.8708 0.8708
1937.000000 0.8708 0.8707 0.8707 0.8707 0.8706
1932.000000 0.8706 0.8706 0.8706 0.8705 0.8705
1927.000000 0.8705 0.8704 0.8704 0.8704 0.8704
1922.000000 0.8703 0.8703 0.8703 0.8704 0.8709
1917.000000 0.8715 0.8721 0.8725 0.8732 0.8737
1912.000000 0.8743 0.8749 0.8754 0.8760 0.8764
1907.000000 0.8765 0.8766 0.8767 0.8768 0.8768
1902.000000 0.8770 0.8771 0.8771 0.8773 0.8774
1897.000000 0.8775 0.8775 0.8777 0.8778 0.8778
1892.000000 0.8778 0.8778 0.8778 0.8777 0.8775
1887.000000 0.8773 0.8771 0.8768 0.8766 0.8764
1882.000000 0.8762 0.8760 0.8758 0.8756 0.8754
1877.000000 0.8752 0.8750 0.8748 0.8746 0.8744
1872.000000 0.8742 0.8739 0.8737 0.8735 0.8733
1867.000000 0.8731 0.8730 0.8728 0.8727 0.8725
1862.000000 0.8724 0.8723 0.8721 0.8720 0.8718
1857.000000 0.8717 0.8716 0.8714 0.8713 0.8712
1852.000000 0.8710 0.8709 0.8708 0.8707 0.8707
1847.000000 0.8706 0.8706 0.8705 0.8704 0.8704
1842.000000 0.8703 0.8703 0.8702 0.8702 0.8701
1837.000000 0.8701 0.8701 0.8700 0.8700 0.8700
1832.000000 0.8700 0.8699 0.8699 0.8699 0.8698
1827.000000 0.8698 0.8698 0.8698 0.8697 0.8697
1822.000000 0.8697 0.8696 0.8696 0.8696 0.8696
1817.000000 0.8695 0.8695 0.8694 0.8693 0.8692
1812.000000 0.8691 0.8691 0.8690 0.8689 0.8688
1807.000000 0.8687 0.8686 0.8685 0.8681 0.8678
1802.000000 0.8674 0.8671 0.8668 0.8664 0.8661
