##TITLE=Carbamic acid, ethyl ester
##JCAMP-DX=4.24
$$ By DXEDIT 1.05 (RS McDonald)
##DATA TYPE=INFRARED SPECTRUM
##CLASS=COBLENTZ III
##ORIGIN=DOW CHEMICAL COMPANY
##OWNER=COPYRIGHT (C) 1988 by COBLENTZ SOCIETY INC.
Collection (C) 2018 copyright by the U.S. Secretary of Commerce
on behalf of the United States of America. All rights reserved.
##DATE=??/04/30
##NAMES=ethyl carbamate
##CAS REGISTRY NO=51-79-6
##MOLFORM=C3 H7 N O2
##SOURCE REFERENCE=COBLENTZ NO. 06390
##$NIST SOURCE=COBLENTZ
##$NIST IMAGE=cob6390
##SPECTROMETER/DATA SYSTEM=BECKMAN IR-9 (GRATING)
##INSTRUMENT PARAMETERS=ORDER CHANGES: 670, 1200, 2000 CM^-^1
##STATE=SOLID (SPLIT MULL)
##SAMPLING PROCEDURE=TRANSMISSION
##RESOLUTION=2
##DATA PROCESSING=DIGITIZED BY COBLENTZ SOCIETY (BATCH I) FROM HARD COPY
##XUNITS=1/CM
##YUNITS=TRANSMITTANCE
##XFACTOR=1
##YFACTOR=1
##DELTAX=1
##FIRSTX=3814
##LASTX=402
##FIRSTY=0.8668
##MAXX=3814
##MINX=402
##MAXY=0.9078
##MINY=0.0178
##NPOINTS=3413
##XYDATA=(X++(Y..Y))
3814.000000 0.8668 0.8668 0.8668 0.8668 0.8668
3809.000000 0.8668 0.8668 0.8668 0.8668 0.8668
3804.000000 0.8668 0.8668 0.8670 0.8670 0.8670
3799.000000 0.8670 0.8670 0.8671 0.8671 0.8674
3794.000000 0.8677 0.8678 0.8681 0.8683 0.8685
3789.000000 0.8687 0.8690 0.8692 0.8694 0.8696
3784.000000 0.8698 0.8700 0.8702 0.8703 0.8705
3779.000000 0.8706 0.8708 0.8710 0.8712 0.8713
3774.000000 0.8715 0.8717 0.8718 0.8720 0.8721
3769.000000 0.8724 0.8725 0.8727 0.8728 0.8731
3764.000000 0.8733 0.8734 0.8735 0.8736 0.8737
3759.000000 0.8737 0.8738 0.8738 0.8739 0.8740
3754.000000 0.8741 0.8741 0.8742 0.8743 0.8744
3749.000000 0.8744 0.8745 0.8745 0.8746 0.8747
3744.000000 0.8748 0.8748 0.8749 0.8750 0.8751
3739.000000 0.8752 0.8753 0.8754 0.8756 0.8757
3734.000000 0.8759 0.8760 0.8762 0.8763 0.8765
3729.000000 0.8766 0.8768 0.8768 0.8771 0.8771
3724.000000 0.8774 0.8775 0.8777 0.8778 0.8780
3719.000000 0.8781 0.8783 0.8784 0.8786 0.8787
3714.000000 0.8789 0.8790 0.8791 0.8792 0.8794
3709.000000 0.8795 0.8796 0.8797 0.8799 0.8800
3704.000000 0.8801 0.8802 0.8804 0.8805 0.8806
3699.000000 0.8807 0.8809 0.8810 0.8811 0.8811
3694.000000 0.8811 0.8811 0.8812 0.8812 0.8812
3689.000000 0.8812 0.8812 0.8812 0.8813 0.8813
3684.000000 0.8813 0.8813 0.8813 0.8813 0.8813
3679.000000 0.8813 0.8814 0.8814 0.8814 0.8813
3674.000000 0.8813 0.8812 0.8811 0.8810 0.8809
3669.000000 0.8808 0.8808 0.8807 0.8806 0.8805
3664.000000 0.8804 0.8803 0.8803 0.8802 0.8801
3659.000000 0.8800 0.8800 0.8799 0.8798 0.8797
3654.000000 0.8796 0.8795 0.8794 0.8791 0.8789
3649.000000 0.8786 0.8784 0.8781 0.8790 0.8775
3644.000000 0.8773 0.8770 0.8768 0.8765 0.8763
3639.000000 0.8760 0.8758 0.8753 0.8748 0.8741
3634.000000 0.8735 0.8728 0.8721 0.8714 0.8707
3629.000000 0.8700 0.8693 0.8693 0.8693 0.8701
3624.000000 0.8709 0.8713 0.8717 0.8721 0.8725
3619.000000 0.8728 0.8732 0.8730 0.8728 0.8724
3614.000000 0.8720 0.8716 0.8712 0.8708 0.8704
3609.000000 0.8698 0.8692 0.8683 0.8675 0.8671
3604.000000 0.8668 0.8666 0.8665 0.8663 0.8663
3599.000000 0.8663 0.8664 0.8664 0.8665 0.8666
3594.000000 0.8666 0.8666 0.8666 0.8662 0.8659
3589.000000 0.8656 0.8653 0.8649 0.8646 0.8642
3584.000000 0.8639 0.8634 0.8630 0.8625 0.8620
3579.000000 0.8614 0.8609 0.8604 0.8599 0.8593
3574.000000 0.8588 0.8581 0.8575 0.8566 0.8558
3569.000000 0.8549 0.8541 0.8531 0.8521 0.8510
3564.000000 0.8499 0.8488 0.8477 0.8465 0.8454
3559.000000 0.8443 0.8432 0.8420 0.8409 0.8397
3554.000000 0.8385 0.8371 0.8357 0.8343 0.8328
3549.000000 0.8315 0.8301 0.8287 0.8273 0.8253
3544.000000 0.8234 0.8213 0.8193 0.8171 0.8151
3539.000000 0.8131 0.8111 0.8088 0.8065 0.8038
3534.000000 0.8010 0.7982 0.7954 0.7925 0.7897
3529.000000 0.7865 0.7834 0.7801 0.7768 0.7735
3524.000000 0.7701 0.7667 0.7633 0.7589 0.7545
3519.000000 0.7501 0.7457 0.7417 0.7378 0.7346
3514.000000 0.7315 0.7284 0.7253 0.7221 0.7191
3509.000000 0.7149 0.7108 0.7060 0.7012 0.6965
3504.000000 0.6918 0.6851 0.6787 0.6710 0.6633
3499.000000 0.6439 0.6245 0.6152 0.6060 0.5967
3494.000000 0.5874 0.5749 0.5625 0.5478 0.5331
3489.000000 0.5178 0.5025 0.4812 0.4600 0.4448
3484.000000 0.4296 0.4128 0.3960 0.3888 0.3814
3479.000000 0.3737 0.3659 0.3538 0.3416 0.3352
3474.000000 0.3288 0.3185 0.3084 0.2991 0.2897
3469.000000 0.2803 0.2709 0.2614 0.2520 0.2426
3464.000000 0.2332 0.2224 0.2116 0.2043 0.1971
3459.000000 0.1859 0.1746 0.1690 0.1633 0.1596
3454.000000 0.1561 0.1533 0.1506 0.1483 0.1460
3449.000000 0.1441 0.1422 0.1408 0.1395 0.1385
3444.000000 0.1376 0.1368 0.1342 0.1356 0.1352
3439.000000 0.1353 0.1355 0.1361 0.1367 0.1375
3434.000000 0.1384 0.1407 0.1431 0.1457 0.1484
3429.000000 0.1511 0.1539 0.1571 0.1603 0.1634
3424.000000 0.1668 0.1704 0.1740 0.1776 0.1813
3419.000000 0.1850 0.1887 0.1926 0.1964 0.1999
3414.000000 0.2034 0.2061 0.2087 0.2113 0.2140
3409.000000 0.2166 0.2193 0.2222 0.2251 0.2282
3404.000000 0.2314 0.2345 0.2376 0.2401 0.2427
3399.000000 0.2451 0.2476 0.2500 0.2524 0.2550
3394.000000 0.2577 0.2599 0.2622 0.2639 0.2656
3389.000000 0.2671 0.2685 0.2696 0.2707 0.2715
3384.000000 0.2766 0.2728 0.2732 0.2735 0.2735
3379.000000 0.2734 0.2730 0.2725 0.2720 0.2712
3374.000000 0.2705 0.2696 0.2688 0.2679 0.2670
3369.000000 0.2657 0.2644 0.2630 0.2617 0.2604
3364.000000 0.2591 0.2578 0.2565 0.2553 0.2541
3359.000000 0.2527 0.2514 0.2499 0.2484 0.2475
3354.000000 0.2467 0.2462 0.2457 0.2452 0.2448
3349.000000 0.2444 0.2443 0.2443 0.2446 0.2452
3344.000000 0.2459 0.2465 0.2472 0.2490 0.2508
3339.000000 0.2534 0.2561 0.2594 0.2627 0.2663
3334.000000 0.2699 0.2768 0.2837 0.2939 0.3042
3329.000000 0.3087 0.3133 0.3178 0.3223 0.3268
3324.000000 0.3314 0.3359 0.3404 0.3449 0.3495
3319.000000 0.3540 0.3586 0.3630 0.3676 0.3721
3314.000000 0.3766 0.3812 0.3857 0.3902 0.3948
3309.000000 0.3993 0.4039 0.4084 0.4167 0.4131
3304.000000 0.4131 0.4132 0.4131 0.4104 0.4078
3299.000000 0.4006 0.3934 0.3864 0.3793 0.3734
3294.000000 0.3676 0.3664 0.3652 0.3553 0.3455
3289.000000 0.3356 0.3258 0.3159 0.3061 0.2962
3284.000000 0.2864 0.2766 0.2669 0.2646 0.2615
3279.000000 0.2617 0.2611 0.2614 0.2617 0.2622
3274.000000 0.2628 0.2659 0.2691 0.2732 0.2773
3269.000000 0.2824 0.2875 0.2926 0.2978 0.3064
3264.000000 0.3151 0.3237 0.3324 0.3394 0.3464
3259.000000 0.3520 0.3575 0.3610 0.3648 0.3673
3254.000000 0.3699 0.3714 0.3730 0.3741 0.3750
3249.000000 0.3757 0.3762 0.3766 0.3766 0.3770
3244.000000 0.3770 0.3764 0.3760 0.3748 0.3734
3239.000000 0.3709 0.3682 0.3641 0.3599 0.3556
3234.000000 0.3512 0.3466 0.3422 0.3350 0.3278
3229.000000 0.3203 0.3129 0.3066 0.3003 0.2971
3224.000000 0.2891 0.2938 0.2938 0.2938 0.2940
3219.000000 0.2947 0.2955 0.2967 0.2979 0.3028
3214.000000 0.3077 0.3147 0.3216 0.3255 0.3293
3209.000000 0.3330 0.3368 0.3406 0.3444 0.3477
3204.000000 0.3509 0.3543 0.3576 0.3608 0.3641
3199.000000 0.3675 0.3709 0.3746 0.3782 0.3818
3194.000000 0.3856 0.3892 0.3929 0.3979 0.4030
3189.000000 0.4086 0.4143 0.4410 0.4678 0.4757
3184.000000 0.4837 0.4916 0.4996 0.5086 0.5177
3179.000000 0.5262 0.5349 0.5400 0.5452 0.5503
3174.000000 0.5555 0.5607 0.5659 0.5731 0.5804
3169.000000 0.5868 0.5933 0.5976 0.6020 0.6064
3164.000000 0.6108 0.6141 0.6174 0.6204 0.6235
3159.000000 0.6265 0.6296 0.6326 0.6357 0.6388
3154.000000 0.6419 0.6465 0.6510 0.6530 0.6551
3149.000000 0.6565 0.6581 0.6595 0.6610 0.6624
3144.000000 0.6639 0.6654 0.6668 0.6683 0.6698
3139.000000 0.6711 0.6726 0.6742 0.6757 0.6769
3134.000000 0.6784 0.6797 0.6810 0.6822 0.6837
3129.000000 0.6850 0.6864 0.6876 0.6890 0.6903
3124.000000 0.6917 0.6930 0.6943 0.6956 0.6969
3119.000000 0.6983 0.6997 0.7011 0.7025 0.7046
3114.000000 0.7067 0.7087 0.7107 0.7126 0.7147
3109.000000 0.7167 0.7187 0.7201 0.7215 0.7226
3104.000000 0.7239 0.7250 0.7261 0.7272 0.7285
3099.000000 0.7297 0.7308 0.7319 0.7332 0.7343
3094.000000 0.7355 0.7367 0.7378 0.7390 0.7401
3089.000000 0.7412 0.7425 0.7437 0.7449 0.7460
3084.000000 0.7471 0.7484 0.7496 0.7508 0.7519
3079.000000 0.7532 0.7544 0.7555 0.7565 0.7571
3074.000000 0.7576 0.7582 0.7588 0.7593 0.7599
3069.000000 0.7604 0.7610 0.7615 0.7621 0.7625
3064.000000 0.7632 0.7637 0.7643 0.7647 0.7651
3059.000000 0.7656 0.7661 0.7665 0.7669 0.7674
3054.000000 0.7678 0.7683 0.7688 0.7693 0.7698
3049.000000 0.7701 0.7706 0.7710 0.7714 0.7717
3044.000000 0.7721 0.7724 0.7728 0.7732 0.7736
3039.000000 0.7737 0.7739 0.7741 0.7743 0.7745
3034.000000 0.7774 0.7749 0.7751 0.7751 0.7751
3029.000000 0.7751 0.7750 0.7747 0.7745 0.7740
3024.000000 0.7736 0.7731 0.7725 0.7715 0.7706
3019.000000 0.7689 0.7672 0.7657 0.7641 0.7606
3014.000000 0.7571 0.7500 0.7428 0.7353 0.7278
3009.000000 0.7200 0.7122 0.7028 0.6933 0.6850
3004.000000 0.6767 0.6638 0.6508 0.6219 0.5929
2999.000000 0.5639 0.5350 0.5060 0.4771 0.4481
2994.000000 0.4191 0.4012 0.3837 0.3858 0.3880
2989.000000 0.4119 0.4358 0.4597 0.4836 0.5074
2984.000000 0.5312 0.5551 0.5790 0.6029 0.6268
2979.000000 0.6506 0.6745 0.6801 0.6857 0.6858
2974.000000 0.6861 0.6892 0.6922 0.6962 0.7004
2969.000000 0.7062 0.7121 0.7193 0.7264 0.7357
2964.000000 0.7464 0.7450 0.7450 0.7446 0.7442
2959.000000 0.7410 0.7378 0.7337 0.7297 0.7254
2954.000000 0.7211 0.7161 0.7111 0.7068 0.7028
2949.000000 0.7003 0.6978 0.6949 0.6921 0.6903
2944.000000 0.6885 0.6890 0.6895 0.6974 0.7053
2939.000000 0.7132 0.7211 0.7222 0.7236 0.7233
2934.000000 0.7231 0.7133 0.7036 0.6938 0.6840
2929.000000 0.6742 0.6645 0.6547 0.6450 0.6352
2924.000000 0.6255 0.6227 0.6190 0.6200 0.6201
2919.000000 0.6264 0.6328 0.6428 0.6531 0.6632
2914.000000 0.6733 0.6834 0.6936 0.7037 0.7138
2909.000000 0.7239 0.7340 0.7391 0.7443 0.7478
2904.000000 0.7512 0.7538 0.7564 0.7587 0.7611
2899.000000 0.7632 0.7654 0.7669 0.7687 0.7699
2894.000000 0.7711 0.7717 0.7724 0.7728 0.7735
2889.000000 0.7741 0.7748 0.7751 0.7756 0.7741
2884.000000 0.7726 0.7701 0.7675 0.7634 0.7593
2879.000000 0.7578 0.7562 0.7565 0.7568 0.7571
2874.000000 0.7574 0.7596 0.7618 0.7644 0.7668
2869.000000 0.7694 0.7719 0.7755 0.7790 0.7822
2864.000000 0.7857 0.7878 0.7900 0.7921 0.7943
2859.000000 0.7955 0.7968 0.7972 0.7978 0.7981
2854.000000 0.7983 0.7983 0.7983 0.7983 0.7983
2849.000000 0.7983 0.7983 0.7983 0.7983 0.7981
2844.000000 0.7980 0.7978 0.7976 0.7975 0.7974
2839.000000 0.7971 0.7971 0.7968 0.7968 0.7965
2834.000000 0.7964 0.7961 0.7958 0.7956 0.7954
2829.000000 0.7951 0.7949 0.7946 0.7944 0.7942
2824.000000 0.7941 0.7941 0.7942 0.7942 0.7943
2819.000000 0.7944 0.7945 0.7947 0.7949 0.7953
2814.000000 0.7957 0.7960 0.7964 0.7968 0.7971
2809.000000 0.7975 0.7980 0.7983 0.7987 0.7992
2804.000000 0.7998 0.8003 0.8008 0.8015 0.8021
2799.000000 0.8026 0.8033 0.8039 0.8045 0.8051
2794.000000 0.8057 0.8061 0.8068 0.8074 0.8080
2789.000000 0.8085 0.8090 0.8094 0.8098 0.8101
2784.000000 0.8107 0.8111 0.8115 0.8118 0.8121
2779.000000 0.8119 0.8118 0.8117 0.8115 0.8115
2774.000000 0.8114 0.8111 0.8110 0.8108 0.8106
2769.000000 0.8104 0.8101 0.8099 0.8097 0.8095
2764.000000 0.8093 0.8090 0.8088 0.8086 0.8084
2759.000000 0.8082 0.8081 0.8081 0.8081 0.8080
2754.000000 0.8080 0.8082 0.8085 0.8089 0.8093
2749.000000 0.8097 0.8101 0.8106 0.8110 0.8114
2744.000000 0.8118 0.8121 0.8125 0.8130 0.8135
2739.000000 0.8139 0.8143 0.8147 0.8151 0.8155
2734.000000 0.8158 0.8164 0.8169 0.8175 0.8182
2729.000000 0.8188 0.8194 0.8200 0.8207 0.8213
2724.000000 0.8218 0.8225 0.8231 0.8237 0.8244
2719.000000 0.8250 0.8256 0.8262 0.8268 0.8275
2714.000000 0.8285 0.8294 0.8303 0.8312 0.8321
2709.000000 0.8330 0.8339 0.8348 0.8357 0.8366
2704.000000 0.8375 0.8382 0.8389 0.8396 0.8404
2699.000000 0.8411 0.8418 0.8425 0.8433 0.8440
2694.000000 0.8447 0.8454 0.8462 0.8468 0.8475
2689.000000 0.8483 0.8490 0.8495 0.8501 0.8507
2684.000000 0.8513 0.8518 0.8524 0.8528 0.8534
2679.000000 0.8538 0.8542 0.8546 0.8550 0.8554
2674.000000 0.8558 0.8562 0.8566 0.8570 0.8574
2669.000000 0.8578 0.8582 0.8586 0.8591 0.8595
2664.000000 0.8600 0.8605 0.8610 0.8614 0.8618
2659.000000 0.8624 0.8628 0.8633 0.8638 0.8643
2654.000000 0.8648 0.8650 0.8653 0.8654 0.8656
2649.000000 0.8657 0.8659 0.8660 0.8662 0.8662
2644.000000 0.8662 0.8662 0.8659 0.8654 0.8650
2639.000000 0.8646 0.8642 0.8637 0.8633 0.8628
2634.000000 0.8625 0.8624 0.8624 0.8623 0.8623
2629.000000 0.8621 0.8621 0.8621 0.8621 0.8620
2624.000000 0.8620 0.8618 0.8618 0.8618 0.8618
2619.000000 0.8618 0.8618 0.8618 0.8621 0.8623
2614.000000 0.8625 0.8627 0.8628 0.8630 0.8632
2609.000000 0.8634 0.8636 0.8638 0.8640 0.8641
2604.000000 0.8643 0.8645 0.8647 0.8649 0.8651
2599.000000 0.8652 0.8654 0.8656 0.8658 0.8659
2594.000000 0.8661 0.8662 0.8663 0.8664 0.8665
2589.000000 0.8666 0.8668 0.8668 0.8670 0.8671
2584.000000 0.8671 0.8673 0.8674 0.8675 0.8675
2579.000000 0.8677 0.8678 0.8678 0.8678 0.8678
2574.000000 0.8680 0.8680 0.8681 0.8681 0.8681
2569.000000 0.8681 0.8682 0.8682 0.8683 0.8683
2564.000000 0.8684 0.8684 0.8685 0.8685 0.8685
2559.000000 0.8685 0.8686 0.8686 0.8687 0.8687
2554.000000 0.8688 0.8688 0.8689 0.8690 0.8691
2549.000000 0.8691 0.8692 0.8692 0.8693 0.8694
2544.000000 0.8695 0.8695 0.8696 0.8696 0.8697
2539.000000 0.8698 0.8699 0.8699 0.8700 0.8700
2534.000000 0.8701 0.8702 0.8703 0.8703 0.8704
2529.000000 0.8704 0.8705 0.8706 0.8706 0.8706
2524.000000 0.8706 0.8705 0.8704 0.8702 0.8700
2519.000000 0.8697 0.8695 0.8693 0.8691 0.8689
2514.000000 0.8687 0.8684 0.8682 0.8678 0.8677
2509.000000 0.8670 0.8664 0.8657 0.8650 0.8639
2504.000000 0.8628 0.8617 0.8606 0.8594 0.8583
2499.000000 0.8571 0.8561 0.8550 0.8539 0.8534
2494.000000 0.8528 0.8527 0.8525 0.8523 0.8521
2489.000000 0.8518 0.8517 0.8516 0.8515 0.8515
2484.000000 0.8515 0.8515 0.8515 0.8514 0.8514
2479.000000 0.8514 0.8514 0.8513 0.8513 0.8513
2474.000000 0.8513 0.8513 0.8514 0.8515 0.8516
2469.000000 0.8516 0.8517 0.8517 0.8518 0.8518
2464.000000 0.8520 0.8520 0.8521 0.8521 0.8523
2459.000000 0.8523 0.8524 0.8524 0.8524 0.8524
2454.000000 0.8524 0.8524 0.8524 0.8524 0.8524
2449.000000 0.8524 0.8525 0.8525 0.8525 0.8524
2444.000000 0.8524 0.8521 0.8520 0.8518 0.8516
2439.000000 0.8513 0.8511 0.8509 0.8507 0.8505
2434.000000 0.8503 0.8500 0.8498 0.8497 0.8496
2429.000000 0.8495 0.8495 0.8494 0.8493 0.8492
2424.000000 0.8492 0.8491 0.8491 0.8490 0.8489
2419.000000 0.8488 0.8488 0.8488 0.8488 0.8489
2414.000000 0.8490 0.8491 0.8492 0.8493 0.8494
2409.000000 0.8494 0.8495 0.8496 0.8497 0.8498
2404.000000 0.8499 0.8500 0.8501 0.8502 0.8504
2399.000000 0.8505 0.8506 0.8507 0.8509 0.8510
2394.000000 0.8512 0.8513 0.8515 0.8516 0.8518
2389.000000 0.8518 0.8520 0.8520 0.8520 0.8518
2384.000000 0.8518 0.8518 0.8518 0.8517 0.8517
2379.000000 0.8517 0.8517 0.8516 0.8516 0.8515
2374.000000 0.8515 0.8514 0.8514 0.8513 0.8513
2369.000000 0.8510 0.8507 0.8504 0.8501 0.8498
2364.000000 0.8496 0.8493 0.8490 0.8487 0.8485
2359.000000 0.8482 0.8478 0.8475 0.8471 0.8467
2354.000000 0.8463 0.8458 0.8454 0.8448 0.8443
2349.000000 0.8438 0.8433 0.8428 0.8423 0.8423
2344.000000 0.8423 0.8423 0.8423 0.8423 0.8424
2339.000000 0.8424 0.8424 0.8424 0.8425 0.8425
2334.000000 0.8425 0.8425 0.8425 0.8425 0.8425
2329.000000 0.8425 0.8427 0.8427 0.8428 0.8428
2324.000000 0.8428 0.8428 0.8430 0.8430 0.8431
2319.000000 0.8432 0.8433 0.8433 0.8434 0.8434
2314.000000 0.8435 0.8435 0.8436 0.8436 0.8437
2309.000000 0.8437 0.8438 0.8438 0.8439 0.8439
2304.000000 0.8440 0.8440 0.8440 0.8441 0.8442
2299.000000 0.8442 0.8443 0.8443 0.8444 0.8444
2294.000000 0.8445 0.8445 0.8446 0.8446 0.8447
2289.000000 0.8447 0.8448 0.8448 0.8449 0.8449
2284.000000 0.8450 0.8451 0.8452 0.8453 0.8455
2279.000000 0.8456 0.8457 0.8458 0.8459 0.8460
2274.000000 0.8462 0.8463 0.8464 0.8465 0.8466
2269.000000 0.8467 0.8468 0.8471 0.8473 0.8474
2264.000000 0.8475 0.8478 0.8480 0.8481 0.8483
2259.000000 0.8484 0.8486 0.8487 0.8489 0.8490
2254.000000 0.8492 0.8494 0.8496 0.8499 0.8502
2249.000000 0.8505 0.8509 0.8512 0.8516 0.8518
2244.000000 0.8523 0.8525 0.8530 0.8536 0.8542
2239.000000 0.8548 0.8554 0.8560 0.8566 0.8571
2234.000000 0.8578 0.8584 0.8590 0.8594 0.8598
2229.000000 0.8600 0.8602 0.8604 0.8606 0.8607
2224.000000 0.8609 0.8610 0.8611 0.8612 0.8614
2219.000000 0.8615 0.8616 0.8617 0.8618 0.8620
2214.000000 0.8621 0.8621 0.8624 0.8625 0.8627
2209.000000 0.8628 0.8628 0.8630 0.8632 0.8635
2204.000000 0.8638 0.8640 0.8643 0.8646 0.8649
2199.000000 0.8651 0.8654 0.8656 0.8659 0.8662
2194.000000 0.8665 0.8668 0.8673 0.8678 0.8686
2189.000000 0.8692 0.8699 0.8705 0.8711 0.8717
2184.000000 0.8724 0.8730 0.8737 0.8743 0.8749
2179.000000 0.8755 0.8762 0.8768 0.8774 0.8780
2174.000000 0.8787 0.8793 0.8799 0.8805 0.8812
2169.000000 0.8818 0.8824 0.8828 0.8834 0.8836
2164.000000 0.8839 0.8841 0.8844 0.8846 0.8849
2159.000000 0.8851 0.8854 0.8853 0.8852 0.8850
2154.000000 0.8848 0.8846 0.8844 0.8842 0.8840
2149.000000 0.8838 0.8836 0.8834 0.8832 0.8830
2144.000000 0.8828 0.8825 0.8824 0.8821 0.8820
2139.000000 0.8817 0.8815 0.8815 0.8816 0.8816
2134.000000 0.8817 0.8817 0.8817 0.8817 0.8818
2129.000000 0.8818 0.8818 0.8818 0.8818 0.8820
2124.000000 0.8821 0.8828 0.8835 0.8841 0.8847
2119.000000 0.8853 0.8860 0.8866 0.8871 0.8878
2114.000000 0.8884 0.8890 0.8897 0.8903 0.8909
2109.000000 0.8915 0.8921 0.8925 0.8932 0.8934
2104.000000 0.8937 0.8939 0.8941 0.8943 0.8946
2099.000000 0.8949 0.8952 0.8956 0.8961 0.8964
2094.000000 0.8967 0.8968 0.8971 0.8975 0.8978
2089.000000 0.8981 0.8984 0.8987 0.8990 0.8993
2084.000000 0.8996 0.8999 0.9003 0.9006 0.9009
2079.000000 0.9012 0.9016 0.9015 0.9015 0.9011
2074.000000 0.9007 0.9003 0.9000 0.8995 0.8990
2069.000000 0.8985 0.8981 0.8978 0.8978 0.8978
2064.000000 0.8982 0.8985 0.8989 0.8993 0.8997
2059.000000 0.9000 0.9004 0.9007 0.9011 0.9015
2054.000000 0.9018 0.9021 0.9025 0.9028 0.9033
2049.000000 0.9053 0.9074 0.9074 0.9075 0.9075
2044.000000 0.9075 0.9075 0.9077 0.9077 0.9078
2039.000000 0.9078 0.9078 0.9078 0.9078 0.9077
2034.000000 0.9077 0.9075 0.9075 0.9075 0.9075
2029.000000 0.9075 0.9075 0.9074 0.9074 0.9073
2024.000000 0.9073 0.9071 0.9071 0.9071 0.9071
2019.000000 0.9070 0.9070 0.9068 0.9068 0.9068
2014.000000 0.9068 0.9067 0.9067 0.9067 0.9067
2009.000000 0.9064 0.9062 0.9059 0.9056 0.9052
2004.000000 0.9049 0.9045 0.9042 0.9030 0.9018
1999.000000 0.9003 0.8974 0.8946 0.8874 0.8775
1994.000000 0.8784 0.8794 0.8803 0.8812 0.8821
1989.000000 0.8828 0.8804 0.8805 0.8807 0.8808
1984.000000 0.8813 0.8833 0.8842 0.8850 0.8859
1979.000000 0.8867 0.8875 0.8877 0.8878 0.8880
1974.000000 0.8875 0.8870 0.8863 0.8856 0.8849
1969.000000 0.8845 0.8844 0.8842 0.8841 0.8839
1964.000000 0.8837 0.8843 0.8849 0.8856 0.8861
1959.000000 0.8864 0.8867 0.8868 0.8871 0.8873
1954.000000 0.8865 0.8856 0.8846 0.8836 0.8827
1949.000000 0.8817 0.8807 0.8796 0.8784 0.8773
1944.000000 0.8762 0.8751 0.8739 0.8721 0.8702
1939.000000 0.8682 0.8652 0.8616 0.8580 0.8533
1934.000000 0.8484 0.8451 0.8437 0.8421 0.8407
1929.000000 0.8396 0.8391 0.8390 0.8361 0.8395
1924.000000 0.8406 0.8416 0.8425 0.8447 0.8468
1919.000000 0.8491 0.8514 0.8538 0.8562 0.8586
1914.000000 0.8610 0.8633 0.8657 0.8680 0.8700
1909.000000 0.8715 0.8730 0.8744 0.8754 0.8763
1904.000000 0.8773 0.8782 0.8789 0.8793 0.8796
1899.000000 0.8795 0.8794 0.8792 0.8791 0.8789
1894.000000 0.8788 0.8786 0.8784 0.8782 0.8780
1889.000000 0.8777 0.8795 0.8773 0.8771 0.8768
1884.000000 0.8767 0.8765 0.8763 0.8761 0.8760
1879.000000 0.8755 0.8751 0.8747 0.8743 0.8739
1874.000000 0.8735 0.8731 0.8727 0.8721 0.8717
1869.000000 0.8709 0.8699 0.8690 0.8681 0.8671
1864.000000 0.8662 0.8644 0.8621 0.8596 0.8568
1859.000000 0.8546 0.8531 0.8516 0.8508 0.8501
1854.000000 0.8495 0.8488 0.8482 0.8475 0.8468
1849.000000 0.8462 0.8456 0.8449 0.8442 0.8435
1844.000000 0.8428 0.8421 0.8415 0.8408 0.8404
1839.000000 0.8400 0.8397 0.8394 0.8391 0.8384
1834.000000 0.8367 0.8350 0.8333 0.8317 0.8300
1829.000000 0.8283 0.8266 0.8249 0.8233 0.8218
1824.000000 0.8204 0.8189 0.8174 0.8158 0.8144
1819.000000 0.8124 0.8105 0.8085 0.8065 0.8045
1814.000000 0.8025 0.8005 0.7986 0.7965 0.7946
1809.000000 0.7925 0.7903 0.7882 0.7861 0.7839
1804.000000 0.7818 0.7796 0.7772 0.7751 0.7728
1799.000000 0.7705 0.7683 0.7658 0.7633 0.7608
