##TITLE=PROPANE, 1-IODO-2-METHYL-
##JCAMP-DX=4.24
$$ By DXEDIT 1.05 (RS McDonald)
##DATA TYPE=INFRARED SPECTRUM
##CLASS=COBLENTZ III
##ORIGIN=WYANDOTTE CHEMICALS CORP.
##OWNER=COBLENTZ SOC.
Collection (C) 2018 copyright by the U.S. Secretary of Commerce
on behalf of the United States of America. All rights reserved.
##DATE=1956/03/09
##NAMES=1-iodo-2-methylpropane
##CAS REGISTRY NO=513-38-2
##MOLFORM=C4 H9 I
##SOURCE REFERENCE=COBLENTZ NO. 05881
##$NIST SOURCE=COBLENTZ
##$NIST IMAGE=cob5881
##SPECTROMETER/DATA SYSTEM=BAIRD (GRATING)
##INSTRUMENT PARAMETERS=NaCl PRISM
##STATE=LIQUID (NEAT)
##PATH LENGTH=0.003 CM
##SAMPLING PROCEDURE=TRANSMISSION
##RESOLUTION=2
##DATA PROCESSING=DIGITIZED BY COBLENTZ SOCIETY (BATCH I) FROM HARD COPY
##XUNITS=1/CM
##YUNITS=TRANSMITTANCE
##XLABEL=Wavenumbers (cm-1)
##YLABEL=Transmittance
##XFACTOR=1
##YFACTOR=1
##DELTAX=1
##FIRSTX=4000
##LASTX=625
##FIRSTY=0.9286
##MAXX=4000
##MINX=625
##MAXY=0.9458
##MINY=0.0337
##NPOINTS=3376
##XYDATA=(X++(Y..Y))
4000.000000 0.9286 0.9285 0.9285 0.9285 0.9285
3995.000000 0.9285 0.9285 0.9285 0.9285 0.9285
3990.000000 0.9285 0.9285 0.9285 0.9284 0.9284
3985.000000 0.9284 0.9284 0.9284 0.9284 0.9284
3980.000000 0.9284 0.9284 0.9284 0.9284 0.9284
3975.000000 0.9284 0.9283 0.9283 0.9283 0.9282
3970.000000 0.9282 0.9282 0.9281 0.9281 0.9281
3965.000000 0.9281 0.9281 0.9281 0.9281 0.9280
3960.000000 0.9280 0.9280 0.9278 0.9278 0.9278
3955.000000 0.9278 0.9278 0.9278 0.9277 0.9277
3950.000000 0.9277 0.9275 0.9275 0.9275 0.9275
3945.000000 0.9275 0.9275 0.9274 0.9274 0.9274
3940.000000 0.9274 0.9274 0.9274 0.9273 0.9273
3935.000000 0.9273 0.9273 0.9271 0.9271 0.9271
3930.000000 0.9271 0.9271 0.9271 0.9270 0.9270
3925.000000 0.9270 0.9268 0.9268 0.9268 0.9268
3920.000000 0.9268 0.9268 0.9268 0.9268 0.9268
3915.000000 0.9267 0.9267 0.9267 0.9266 0.9266
3910.000000 0.9266 0.9266 0.9266 0.9266 0.9265
3905.000000 0.9265 0.9265 0.9265 0.9265 0.9265
3900.000000 0.9264 0.9264 0.9264 0.9263 0.9263
3895.000000 0.9263 0.9262 0.9262 0.9262 0.9262
3890.000000 0.9262 0.9262 0.9262 0.9262 0.9262
3885.000000 0.9263 0.9263 0.9263 0.9263 0.9265
3880.000000 0.9266 0.9267 0.9268 0.9270 0.9271
3875.000000 0.9273 0.9274 0.9275 0.9275 0.9277
3870.000000 0.9278 0.9280 0.9281 0.9282 0.9283
3865.000000 0.9284 0.9285 0.9287 0.9288 0.9289
3860.000000 0.9290 0.9291 0.9293 0.9294 0.9295
3855.000000 0.9296 0.9297 0.9298 0.9300 0.9301
3850.000000 0.9302 0.9304 0.9305 0.9306 0.9308
3845.000000 0.9309 0.9310 0.9311 0.9312 0.9314
3840.000000 0.9315 0.9316 0.9317 0.9318 0.9320
3835.000000 0.9321 0.9321 0.9323 0.9324 0.9325
3830.000000 0.9327 0.9328 0.9328 0.9331 0.9332
3825.000000 0.9333 0.9335 0.9336 0.9337 0.9339
3820.000000 0.9340 0.9341 0.9343 0.9344 0.9345
3815.000000 0.9347 0.9348 0.9349 0.9350 0.9351
3810.000000 0.9353 0.9354 0.9356 0.9357 0.9358
3805.000000 0.9360 0.9361 0.9363 0.9364 0.9365
3800.000000 0.9367 0.9368 0.9368 0.9371 0.9371
3795.000000 0.9374 0.9375 0.9375 0.9377 0.9378
3790.000000 0.9380 0.9381 0.9382 0.9384 0.9385
3785.000000 0.9386 0.9387 0.9388 0.9390 0.9391
3780.000000 0.9391 0.9392 0.9393 0.9394 0.9395
3775.000000 0.9396 0.9396 0.9397 0.9398 0.9398
3770.000000 0.9399 0.9400 0.9400 0.9401 0.9402
3765.000000 0.9403 0.9403 0.9404 0.9405 0.9406
3760.000000 0.9407 0.9408 0.9408 0.9409 0.9410
3755.000000 0.9411 0.9411 0.9412 0.9413 0.9413
3750.000000 0.9414 0.9415 0.9416 0.9416 0.9417
3745.000000 0.9418 0.9418 0.9418 0.9420 0.9421
3740.000000 0.9421 0.9423 0.9424 0.9424 0.9425
3735.000000 0.9425 0.9427 0.9427 0.9428 0.9428
3730.000000 0.9428 0.9430 0.9431 0.9432 0.9432
3725.000000 0.9433 0.9434 0.9435 0.9435 0.9436
3720.000000 0.9437 0.9437 0.9438 0.9439 0.9440
3715.000000 0.9440 0.9441 0.9442 0.9442 0.9443
3710.000000 0.9444 0.9445 0.9445 0.9446 0.9447
3705.000000 0.9448 0.9448 0.9449 0.9450 0.9450
3700.000000 0.9451 0.9452 0.9453 0.9453 0.9453
3695.000000 0.9454 0.9454 0.9454 0.9455 0.9455
3690.000000 0.9455 0.9455 0.9455 0.9456 0.9456
3685.000000 0.9456 0.9456 0.9456 0.9456 0.9457
3680.000000 0.9457 0.9457 0.9457 0.9457 0.9458
3675.000000 0.9458 0.9458 0.9458 0.9458 0.9458
3670.000000 0.9458 0.9458 0.9458 0.9458 0.9458
3665.000000 0.9458 0.9457 0.9456 0.9455 0.9454
3660.000000 0.9453 0.9451 0.9450 0.9448 0.9446
3655.000000 0.9445 0.9443 0.9442 0.9440 0.9439
3650.000000 0.9437 0.9435 0.9434 0.9432 0.9430
3645.000000 0.9428 0.9427 0.9425 0.9424 0.9421
3640.000000 0.9420 0.9418 0.9417 0.9415 0.9414
3635.000000 0.9412 0.9411 0.9409 0.9408 0.9406
3630.000000 0.9404 0.9402 0.9401 0.9399 0.9397
3625.000000 0.9395 0.9393 0.9391 0.9388 0.9385
3620.000000 0.9382 0.9380 0.9377 0.9374 0.9371
3615.000000 0.9368 0.9366 0.9363 0.9360 0.9358
3610.000000 0.9355 0.9352 0.9349 0.9346 0.9343
3605.000000 0.9341 0.9338 0.9335 0.9333 0.9330
3600.000000 0.9327 0.9324 0.9321 0.9318 0.9315
3595.000000 0.9312 0.9309 0.9307 0.9304 0.9301
3590.000000 0.9299 0.9297 0.9294 0.9292 0.9290
3585.000000 0.9287 0.9285 0.9283 0.9280 0.9278
3580.000000 0.9275 0.9273 0.9271 0.9268 0.9266
3575.000000 0.9264 0.9262 0.9259 0.9257 0.9254
3570.000000 0.9252 0.9250 0.9247 0.9245 0.9243
3565.000000 0.9240 0.9238 0.9236 0.9233 0.9231
3560.000000 0.9231 0.9230 0.9228 0.9228 0.9227
3555.000000 0.9227 0.9227 0.9227 0.9227 0.9225
3550.000000 0.9225 0.9225 0.9225 0.9225 0.9225
3545.000000 0.9225 0.9225 0.9225 0.9225 0.9224
3540.000000 0.9224 0.9224 0.9224 0.9224 0.9223
3535.000000 0.9223 0.9223 0.9223 0.9223 0.9221
3530.000000 0.9221 0.9221 0.9221 0.9221 0.9221
3525.000000 0.9221 0.9221 0.9221 0.9221 0.9220
3520.000000 0.9220 0.9220 0.9218 0.9218 0.9218
3515.000000 0.9218 0.9217 0.9216 0.9215 0.9214
3510.000000 0.9213 0.9213 0.9212 0.9211 0.9210
3505.000000 0.9210 0.9209 0.9208 0.9208 0.9207
3500.000000 0.9206 0.9206 0.9205 0.9204 0.9203
3495.000000 0.9202 0.9201 0.9201 0.9200 0.9199
3490.000000 0.9198 0.9197 0.9197 0.9196 0.9195
3485.000000 0.9194 0.9194 0.9193 0.9193 0.9192
3480.000000 0.9191 0.9190 0.9189 0.9188 0.9188
3475.000000 0.9187 0.9186 0.9185 0.9184 0.9183
3470.000000 0.9183 0.9182 0.9181 0.9180 0.9178
3465.000000 0.9178 0.9178 0.9177 0.9175 0.9175
3460.000000 0.9175 0.9174 0.9174 0.9173 0.9171
3455.000000 0.9171 0.9170 0.9168 0.9168 0.9168
3450.000000 0.9167 0.9166 0.9165 0.9164 0.9164
3445.000000 0.9163 0.9162 0.9161 0.9160 0.9159
3440.000000 0.9159 0.9158 0.9157 0.9156 0.9155
3435.000000 0.9154 0.9153 0.9153 0.9152 0.9152
3430.000000 0.9151 0.9150 0.9149 0.9147 0.9146
3425.000000 0.9145 0.9143 0.9142 0.9140 0.9138
3420.000000 0.9137 0.9135 0.9134 0.9132 0.9131
3415.000000 0.9128 0.9128 0.9125 0.9125 0.9123
3410.000000 0.9121 0.9120 0.9118 0.9117 0.9116
3405.000000 0.9114 0.9112 0.9111 0.9109 0.9108
3400.000000 0.9106 0.9104 0.9103 0.9101 0.9099
3395.000000 0.9098 0.9096 0.9095 0.9093 0.9092
3390.000000 0.9090 0.9089 0.9087 0.9086 0.9084
3385.000000 0.9083 0.9081 0.9080 0.9078 0.9075
3380.000000 0.9074 0.9073 0.9071 0.9068 0.9066
3375.000000 0.9064 0.9062 0.9060 0.9057 0.9055
3370.000000 0.9052 0.9050 0.9047 0.9044 0.9042
3365.000000 0.9039 0.9037 0.9034 0.9031 0.9028
3360.000000 0.9025 0.9024 0.9021 0.9020 0.9018
3355.000000 0.9016 0.9014 0.9011 0.9009 0.9007
3350.000000 0.9005 0.9003 0.9001 0.8999 0.8998
3345.000000 0.8996 0.8995 0.8994 0.8992 0.8991
3340.000000 0.8990 0.8989 0.8988 0.8987 0.8986
3335.000000 0.8985 0.8984 0.8983 0.8982 0.8981
3330.000000 0.8980 0.8980 0.8978 0.8978 0.8977
3325.000000 0.8975 0.8975 0.8975 0.8975 0.8975
3320.000000 0.8975 0.8975 0.8975 0.8975 0.8975
3315.000000 0.8975 0.8975 0.8975 0.8975 0.8975
3310.000000 0.8975 0.8975 0.8975 0.8975 0.8974
3305.000000 0.8974 0.8974 0.8974 0.8974 0.8974
3300.000000 0.8974 0.8974 0.8975 0.8975 0.8975
3295.000000 0.8975 0.8975 0.8975 0.8975 0.8975
3290.000000 0.8975 0.8975 0.8975 0.8975 0.8975
3285.000000 0.8977 0.8977 0.8977 0.8977 0.8977
3280.000000 0.8977 0.8977 0.8977 0.8977 0.8978
3275.000000 0.8978 0.8978 0.8978 0.8978 0.8977
3270.000000 0.8975 0.8975 0.8975 0.8971 0.8968
3265.000000 0.8965 0.8962 0.8959 0.8955 0.8951
3260.000000 0.8947 0.8942 0.8938 0.8933 0.8928
3255.000000 0.8924 0.8918 0.8914 0.8909 0.8905
3250.000000 0.8900 0.8895 0.8890 0.8886 0.8880
3245.000000 0.8875 0.8868 0.8863 0.8857 0.8850
3240.000000 0.8844 0.8837 0.8830 0.8824 0.8817
3235.000000 0.8811 0.8804 0.8798 0.8791 0.8784
3230.000000 0.8778 0.8771 0.8764 0.8758 0.8751
3225.000000 0.8744 0.8738 0.8732 0.8725 0.8718
3220.000000 0.8713 0.8707 0.8701 0.8694 0.8688
3215.000000 0.8682 0.8675 0.8668 0.8663 0.8657
3210.000000 0.8650 0.8644 0.8638 0.8632 0.8625
3205.000000 0.8620 0.8613 0.8607 0.8601 0.8594
3200.000000 0.8588 0.8582 0.8575 0.8570 0.8564
3195.000000 0.8558 0.8552 0.8545 0.8540 0.8534
3190.000000 0.8528 0.8521 0.8516 0.8510 0.8503
3185.000000 0.8497 0.8491 0.8486 0.8480 0.8474
3180.000000 0.8468 0.8463 0.8457 0.8452 0.8446
3175.000000 0.8441 0.8436 0.8431 0.8427 0.8425
3170.000000 0.8423 0.8420 0.8418 0.8416 0.8414
3165.000000 0.8411 0.8411 0.8411 0.8412 0.8412
3160.000000 0.8413 0.8413 0.8414 0.8414 0.8415
3155.000000 0.8415 0.8416 0.8416 0.8417 0.8417
3150.000000 0.8418 0.8418 0.8418 0.8420 0.8420
3145.000000 0.8421 0.8421 0.8424 0.8425 0.8427
3140.000000 0.8428 0.8431 0.8432 0.8434 0.8436
3135.000000 0.8437 0.8439 0.8440 0.8442 0.8444
3130.000000 0.8446 0.8447 0.8448 0.8449 0.8450
3125.000000 0.8451 0.8451 0.8451 0.8451 0.8451
3120.000000 0.8451 0.8451 0.8451 0.8450 0.8450
3115.000000 0.8450 0.8450 0.8450 0.8450 0.8450
3110.000000 0.8450 0.8450 0.8450 0.8450 0.8450
3105.000000 0.8450 0.8450 0.8450 0.8450 0.8448
3100.000000 0.8445 0.8442 0.8440 0.8437 0.8435
3095.000000 0.8432 0.8428 0.8427 0.8424 0.8421
3090.000000 0.8418 0.8416 0.8414 0.8411 0.8408
3085.000000 0.8406 0.8403 0.8401 0.8396 0.8390
3080.000000 0.8384 0.8378 0.8373 0.8366 0.8360
3075.000000 0.8354 0.8348 0.8343 0.8337 0.8331
3070.000000 0.8325 0.8318 0.8314 0.8308 0.8301
3065.000000 0.8295 0.8289 0.8282 0.8275 0.8267
3060.000000 0.8260 0.8251 0.8243 0.8234 0.8225
3055.000000 0.8217 0.8208 0.8199 0.8190 0.8182
3050.000000 0.8172 0.8164 0.8151 0.8136 0.8121
3045.000000 0.8105 0.8090 0.8075 0.8060 0.8043
3040.000000 0.8021 0.8001 0.7981 0.7958 0.7934
3035.000000 0.7910 0.7886 0.7862 0.7840 0.7817
3030.000000 0.7793 0.7768 0.7743 0.7718 0.7692
3025.000000 0.7665 0.7638 0.7611 0.7584 0.7556
3020.000000 0.7528 0.7500 0.7468 0.7435 0.7403
3015.000000 0.7205 0.6928 0.6654 0.6388 0.6309
3010.000000 0.6230 0.6152 0.6073 0.5994 0.5915
3005.000000 0.5837 0.5758 0.5679 0.5600 0.5521
3000.000000 0.5441 0.5362 0.5283 0.5204 0.5124
2995.000000 0.5045 0.4966 0.4886 0.4806 0.4727
2990.000000 0.4647 0.4567 0.4488 0.4408 0.4328
2985.000000 0.4248 0.4168 0.4088 0.4008 0.3928
2980.000000 0.3848 0.3774 0.3704 0.3632 0.3544
2975.000000 0.3377 0.3209 0.3043 0.2867 0.2687
2970.000000 0.2506 0.2326 0.2144 0.1963 0.1782
2965.000000 0.1601 0.1420 0.1238 0.1060 0.0917
2960.000000 0.0774 0.0631 0.0570 0.0570 0.0570
2955.000000 0.0570 0.0584 0.0598 0.0613 0.0639
2950.000000 0.0674 0.0607 0.0743 0.0779 0.0814
2945.000000 0.0849 0.0884 0.0919 0.0954 0.0989
2940.000000 0.1024 0.1059 0.1095 0.1130 0.1165
2935.000000 0.1201 0.1236 0.1271 0.1306 0.1342
2930.000000 0.1377 0.1413 0.1448 0.1484 0.1519
2925.000000 0.1554 0.1590 0.1625 0.1661 0.1696
2920.000000 0.1733 0.1768 0.1804 0.1840 0.1876
2915.000000 0.1911 0.1946 0.1983 0.2019 0.2055
2910.000000 0.2090 0.2126 0.2162 0.2198 0.2234
2905.000000 0.2270 0.2306 0.2342 0.2378 0.2415
2900.000000 0.2451 0.2487 0.2523 0.2559 0.2595
2895.000000 0.2632 0.2668 0.2704 0.2740 0.2777
2890.000000 0.2813 0.2849 0.2885 0.2923 0.2959
2885.000000 0.2996 0.3032 0.3069 0.3105 0.3142
2880.000000 0.3178 0.3209 0.3243 0.3275 0.3279
2875.000000 0.3279 0.3279 0.3278 0.3277 0.3275
2870.000000 0.3266 0.3238 0.3208 0.3179 0.3149
2865.000000 0.3119 0.3089 0.3059 0.3028 0.2998
2860.000000 0.2978 0.2973 0.2968 0.2963 0.2963
2855.000000 0.2963 0.2963 0.3050 0.3149 0.3248
2850.000000 0.3373 0.3512 0.3650 0.3791 0.3930
2845.000000 0.4070 0.4209 0.4349 0.4489 0.4629
2840.000000 0.4769 0.4910 0.5050 0.5191 0.5331
2835.000000 0.5472 0.5612 0.5753 0.5894 0.6035
2830.000000 0.6176 0.6317 0.6454 0.6519 0.6585
2825.000000 0.6651 0.6684 0.6711 0.6740 0.6851
2820.000000 0.7001 0.7151 0.7258 0.7318 0.7376
2815.000000 0.7436 0.7496 0.7555 0.7610 0.7642
2810.000000 0.7672 0.7705 0.7732 0.7758 0.7786
2805.000000 0.7812 0.7840 0.7867 0.7898 0.7930
2800.000000 0.7962 0.7995 0.8028 0.8060 0.8089
2795.000000 0.8114 0.8140 0.8162 0.8182 0.8202
2790.000000 0.8220 0.8235 0.8249 0.8263 0.8275
2785.000000 0.8288 0.8301 0.8311 0.8321 0.8331
2780.000000 0.8339 0.8347 0.8355 0.8360 0.8365
2775.000000 0.8370 0.8375 0.8380 0.8385 0.8388
2770.000000 0.8390 0.8392 0.8395 0.8397 0.8399
2765.000000 0.8401 0.8403 0.8405 0.8407 0.8408
2760.000000 0.8410 0.8411 0.8412 0.8414 0.8415
2755.000000 0.8416 0.8417 0.8418 0.8418 0.8421
2750.000000 0.8421 0.8423 0.8425 0.8425 0.8427
2745.000000 0.8428 0.8430 0.8430 0.8430 0.8430
2740.000000 0.8430 0.8430 0.8431 0.8431 0.8431
2735.000000 0.8432 0.8432 0.8432 0.8432 0.8432
2730.000000 0.8432 0.8431 0.8431 0.8431 0.8431
2725.000000 0.8431 0.8431 0.8432 0.8435 0.8439
2720.000000 0.8446 0.8459 0.8471 0.8487 0.8503
2715.000000 0.8518 0.8533 0.8547 0.8560 0.8573
2710.000000 0.8586 0.8600 0.8613 0.8625 0.8640
2705.000000 0.8652 0.8665 0.8677 0.8689 0.8702
2700.000000 0.8714 0.8725 0.8738 0.8750 0.8760
2695.000000 0.8771 0.8781 0.8790 0.8798 0.8807
2690.000000 0.8810 0.8813 0.8816 0.8818 0.8821
2685.000000 0.8825 0.8828 0.8832 0.8835 0.8837
2680.000000 0.8840 0.8840 0.8840 0.8839 0.8838
2675.000000 0.8836 0.8835 0.8833 0.8831 0.8830
2670.000000 0.8825 0.8820 0.8815 0.8807 0.8799
2665.000000 0.8790 0.8782 0.8774 0.8767 0.8763
2660.000000 0.8759 0.8755 0.8752 0.8748 0.8745
2655.000000 0.8743 0.8740 0.8738 0.8737 0.8735
2650.000000 0.8734 0.8732 0.8730 0.8728 0.8727
2645.000000 0.8725 0.8724 0.8721 0.8720 0.8718
2640.000000 0.8717 0.8715 0.8714 0.8712 0.8710
2635.000000 0.8709 0.8707 0.8706 0.8704 0.8702
2630.000000 0.8701 0.8699 0.8697 0.8696 0.8694
2625.000000 0.8693 0.8691 0.8689 0.8688 0.8686
2620.000000 0.8685 0.8683 0.8681 0.8678 0.8678
2615.000000 0.8675 0.8675 0.8673 0.8671 0.8668
2610.000000 0.8667 0.8665 0.8663 0.8661 0.8659
2605.000000 0.8657 0.8655 0.8653 0.8651 0.8649
2600.000000 0.8647 0.8645 0.8643 0.8641 0.8639
2595.000000 0.8637 0.8635 0.8633 0.8631 0.8628
2590.000000 0.8627 0.8625 0.8623 0.8621 0.8620
2585.000000 0.8618 0.8617 0.8616 0.8615 0.8614
2580.000000 0.8614 0.8613 0.8612 0.8611 0.8610
2575.000000 0.8609 0.8615 0.8624 0.8634 0.8652
2570.000000 0.8670 0.8686 0.8697 0.8708 0.8718
2565.000000 0.8728 0.8740 0.8749 0.8759 0.8767
2560.000000 0.8774 0.8780 0.8786 0.8792 0.8798
2555.000000 0.8804 0.8810 0.8816 0.8821 0.8828
2550.000000 0.8835 0.8841 0.8847 0.8853 0.8859
2545.000000 0.8865 0.8870 0.8875 0.8880 0.8885
2540.000000 0.8890 0.8894 0.8899 0.8904 0.8909
2535.000000 0.8914 0.8918 0.8923 0.8928 0.8933
2530.000000 0.8937 0.8942 0.8948 0.8951 0.8954
2525.000000 0.8957 0.8959 0.8962 0.8964 0.8967
2520.000000 0.8968 0.8971 0.8974 0.8975 0.8978
2515.000000 0.8981 0.8981 0.8981 0.8981 0.8980
2510.000000 0.8978 0.8977 0.8975 0.8974 0.8971
2505.000000 0.8970 0.8968 0.8966 0.8961 0.8955
2500.000000 0.8950 0.8943 0.8937 0.8930 0.8924
2495.000000 0.8917 0.8911 0.8905 0.8898 0.8890
2490.000000 0.8883 0.8875 0.8868 0.8861 0.8854
2485.000000 0.8847 0.8840 0.8833 0.8825 0.8820
2480.000000 0.8814 0.8811 0.8807 0.8804 0.8800
2475.000000 0.8797 0.8793 0.8790 0.8790 0.8791
2470.000000 0.8792 0.8795 0.8797 0.8800 0.8802
2465.000000 0.8805 0.8807 0.8810 0.8812 0.8814
2460.000000 0.8816 0.8818 0.8821 0.8823 0.8825
2455.000000 0.8827 0.8828 0.8830 0.8832 0.8834
2450.000000 0.8836 0.8838 0.8840 0.8842 0.8844
2445.000000 0.8845 0.8847 0.8849 0.8851 0.8853
2440.000000 0.8855 0.8857 0.8859 0.8861 0.8863
2435.000000 0.8864 0.8866 0.8867 0.8867 0.8868
2430.000000 0.8870 0.8871 0.8871 0.8873 0.8874
2425.000000 0.8874 0.8875 0.8875 0.8877 0.8878
2420.000000 0.8878 0.8880 0.8881 0.8882 0.8883
2415.000000 0.8884 0.8885 0.8886 0.8886 0.8887
2410.000000 0.8887 0.8887 0.8886 0.8885 0.8883
2405.000000 0.8882 0.8882 0.8881 0.8880 0.8878
2400.000000 0.8877 0.8875 0.8871 0.8868 0.8861
2395.000000 0.8853 0.8846 0.8838 0.8831 0.8823
2390.000000 0.8815 0.8808 0.8800 0.8792 0.8784
2385.000000 0.8777 0.8770 0.8763 0.8757 0.8751
2380.000000 0.8745 0.8739 0.8733 0.8727 0.8721
2375.000000 0.8715 0.8710 0.8704 0.8698 0.8694
2370.000000 0.8690 0.8686 0.8683 0.8678 0.8675
2365.000000 0.8671 0.8668 0.8665 0.8664 0.8663
2360.000000 0.8662 0.8662 0.8662 0.8665 0.8668
2355.000000 0.8673 0.8677 0.8681 0.8686 0.8690
2350.000000 0.8694 0.8698 0.8703 0.8707 0.8711
2345.000000 0.8715 0.8720 0.8725 0.8730 0.8736
2340.000000 0.8741 0.8747 0.8754 0.8760 0.8766
2335.000000 0.8771 0.8778 0.8784 0.8790 0.8797
2330.000000 0.8803 0.8809 0.8815 0.8821 0.8828
2325.000000 0.8835 0.8842 0.8849 0.8856 0.8863
2320.000000 0.8870 0.8877 0.8884 0.8891 0.8897
2315.000000 0.8903 0.8909 0.8914 0.8918 0.8924
2310.000000 0.8928 0.8934 0.8939 0.8943 0.8946
2305.000000 0.8948 0.8951 0.8953 0.8955 0.8957
2300.000000 0.8959 0.8961 0.8963 0.8963 0.8963
2295.000000 0.8962 0.8961 0.8960 0.8960 0.8958
2290.000000 0.8954 0.8950 0.8946 0.8942 0.8939
2285.000000 0.8935 0.8931 0.8927 0.8921 0.8915
2280.000000 0.8908 0.8901 0.8894 0.8886 0.8880
2275.000000 0.8873 0.8867 0.8861 0.8855 0.8849
2270.000000 0.8844 0.8839 0.8834 0.8831 0.8828
2265.000000 0.8825 0.8823 0.8821 0.8818 0.8816
2260.000000 0.8814 0.8814 0.8813 0.8814 0.8816
2255.000000 0.8818 0.8821 0.8825 0.8828 0.8831
2250.000000 0.8833 0.8836 0.8839 0.8844 0.8848
2245.000000 0.8853 0.8858 0.8864 0.8868 0.8871
2240.000000 0.8875 0.8875 0.8878 0.8880 0.8882
2235.000000 0.8883 0.8885 0.8887 0.8889 0.8890
2230.000000 0.8890 0.8878 0.8867 0.8852 0.8838
2225.000000 0.8824 0.8812 0.8806 0.8799 0.8792
2220.000000 0.8786 0.8778 0.8774 0.8771 0.8768
2215.000000 0.8766 0.8763 0.8760 0.8758 0.8755
2210.000000 0.8753 0.8751 0.8750 0.8748 0.8747
2205.000000 0.8746 0.8745 0.8743 0.8742 0.8741
2200.000000 0.8740 0.8739 0.8737 0.8736 0.8735
2195.000000 0.8734 0.8733 0.8732 0.8730 0.8728
2190.000000 0.8727 0.8725 0.8725 0.8723 0.8721
2185.000000 0.8720 0.8718 0.8718 0.8716 0.8716
2180.000000 0.8717 0.8718 0.8720 0.8721 0.8724
2175.000000 0.8725 0.8727 0.8728 0.8732 0.8741
2170.000000 0.8750 0.8759 0.8768 0.8778 0.8787
2165.000000 0.8795 0.8802 0.8809 0.8816 0.8821
2160.000000 0.8828 0.8836 0.8842 0.8849 0.8852
2155.000000 0.8855 0.8858 0.8861 0.8864 0.8867
2150.000000 0.8868 0.8868 0.8868 0.8868 0.8868
2145.000000 0.8867 0.8865 0.8863 0.8861 0.8859
2140.000000 0.8858 0.8855 0.8853 0.8851 0.8849
2135.000000 0.8848 0.8845 0.8843 0.8841 0.8839
2130.000000 0.8837 0.8834 0.8832 0.8830 0.8828
2125.000000 0.8827 0.8825 0.8825 0.8827 0.8828
2120.000000 0.8828 0.8828 0.8830 0.8830 0.8831
2115.000000 0.8832 0.8832 0.8833 0.8833 0.8834
2110.000000 0.8834 0.8835 0.8836 0.8837 0.8838
2105.000000 0.8838 0.8839 0.8840 0.8841 0.8841
2100.000000 0.8842 0.8844 0.8844 0.8845 0.8846
2095.000000 0.8847 0.8847 0.8848 0.8849 0.8849
2090.000000 0.8850 0.8851 0.8852 0.8852 0.8853
2085.000000 0.8854 0.8855 0.8856 0.8856 0.8857
2080.000000 0.8857 0.8859 0.8860 0.8860 0.8861
2075.000000 0.8861 0.8862 0.8863 0.8864 0.8865
2070.000000 0.8865 0.8866 0.8866 0.8867 0.8868
2065.000000 0.8868 0.8870 0.8870 0.8871 0.8873
2060.000000 0.8873 0.8874 0.8874 0.8875 0.8875
2055.000000 0.8875 0.8877 0.8877 0.8878 0.8878
2050.000000 0.8878 0.8880 0.8880 0.8881 0.8881
2045.000000 0.8881 0.8882 0.8882 0.8883 0.8883
2040.000000 0.8884 0.8884 0.8884 0.8884 0.8884
2035.000000 0.8885 0.8885 0.8885 0.8885 0.8885
2030.000000 0.8885 0.8885 0.8885 0.8885 0.8885
2025.000000 0.8885 0.8885 0.8885 0.8884 0.8884
2020.000000 0.8884 0.8883 0.8882 0.8880 0.8877
2015.000000 0.8875 0.8873 0.8871 0.8868 0.8867
2010.000000 0.8864 0.8862 0.8860 0.8857 0.8853
2005.000000 0.8849 0.8845 0.8841 0.8836 0.8830
2000.000000 0.8823 0.8816 0.8808 0.8801 0.8794
1995.000000 0.8787 0.8781 0.8775 0.8770 0.8765
1990.000000 0.8760 0.8755 0.8751 0.8747 0.8746
1985.000000 0.8745 0.8744 0.8743 0.8742 0.8741
