##TITLE=3-METHOXYPROPYLAMINE
##JCAMP-DX=4.24
##DATA TYPE=INFRARED SPECTRUM
##CLASS=COBLENTZ III
##ORIGIN=UNIVERSITY OF FLORIDA
##OWNER=COBLENTZ SOCIETY
Collection (C) 2018 copyright by the U.S. Secretary of Commerce
on behalf of the United States of America. All rights reserved.
##DATE=1966/12/05
##NAMES=3-methoxy-1-propanamine
##CAS REGISTRY NO=5332-73-0
##MOLFORM=C4 H11 N O
##SOURCE REFERENCE=COBLENTZ NO. 6949
##$NIST SOURCE=COBLENTZ
##$NIST IMAGE=cob6949
##SPECTROMETER/DATA SYSTEM=BECKMAN IR-4 (HYBRID PRISM-GRATING)
##STATE=LIQUID (NEAT)
##PATH LENGTH=CAPILLARY
##SAMPLING PROCEDURE=TRANSMISSION
##RESOLUTION=4
##DATA PROCESSING=DIGITIZED BY NIST FROM HARD COPY
##XUNITS=MICROMETERS
##YUNITS=TRANSMITTANCE
##XFACTOR=1.000000
##YFACTOR=1
##DELTAX=000.005231
##FIRSTX=0.948
##LASTX=15.0056
##FIRSTY=0.909
##MAXX=15.0056
##MINX=0.948
##MAXY=0.911
##MINY=0.11
##NPOINTS=2688
##XYDATA=(X++(Y..Y))
0.948000 0.9090 0.9090 0.9090 0.9090 0.9090
0.974167 0.9090 0.9090 0.9090 0.9090 0.9100
1.001000 0.9100 0.9110 0.9110 0.9110 0.9110
1.027167 0.9110 0.9110 0.9110 0.9100 0.9100
1.053000 0.9100 0.9110 0.9100 0.9100 0.9110
1.079167 0.9100 0.9090 0.9090 0.9090 0.9090
1.105000 0.9090 0.9090 0.9080 0.9080 0.9090
1.131167 0.9090 0.9090 0.9090 0.9090 0.9090
1.158000 0.9090 0.9090 0.9090 0.9090 0.9090
1.184167 0.9090 0.9100 0.9100 0.9100 0.9090
1.210000 0.9090 0.9090 0.9090 0.9080 0.9080
1.236167 0.9080 0.9080 0.9070 0.9070 0.9070
1.262000 0.9070 0.9070 0.9070 0.9070 0.9070
1.288167 0.9070 0.9070 0.9080 0.9080 0.9080
1.315000 0.9090 0.9090 0.9090 0.9090 0.9100
1.341167 0.9100 0.9100 0.9100 0.9100 0.9100
1.367000 0.9100 0.9100 0.9100 0.9100 0.9100
1.393167 0.9100 0.9100 0.9100 0.9100 0.9090
1.419000 0.9090 0.9090 0.9090 0.9090 0.9090
1.445167 0.9090 0.9090 0.9090 0.9090 0.9090
1.472000 0.9090 0.9090 0.9080 0.9080 0.9080
1.498167 0.9080 0.9080 0.9080 0.9070 0.9070
1.524000 0.9070 0.9070 0.9070 0.9070 0.9070
1.550167 0.9070 0.9070 0.9070 0.9070 0.9070
1.576000 0.9070 0.9070 0.9070 0.9070 0.9070
1.602167 0.9070 0.9070 0.9070 0.9070 0.9070
1.629000 0.9070 0.9070 0.9070 0.9070 0.9070
1.655167 0.9070 0.9070 0.9070 0.9070 0.9070
1.681000 0.9070 0.9070 0.9070 0.9070 0.9070
1.707167 0.9070 0.9070 0.9070 0.9060 0.9060
1.733000 0.9060 0.9060 0.9060 0.9060 0.9060
1.759167 0.9050 0.9050 0.9050 0.9050 0.9030
1.786000 0.9030 0.9030 0.9030 0.9030 0.9030
1.812167 0.9030 0.9030 0.9030 0.9030 0.9030
1.838000 0.9030 0.9020 0.9020 0.9020 0.9010
1.864167 0.9010 0.9010 0.9000 0.9000 0.8990
1.890000 0.8980 0.8980 0.8970 0.8960 0.8950
1.916167 0.8950 0.8960 0.8970 0.8970 0.8990
1.942000 0.9020 0.9030 0.9030 0.9050 0.9050
1.968167 0.9050 0.9050 0.9050 0.9030 0.9030
1.995000 0.9020 0.9020 0.9020 0.9020 0.9020
2.021167 0.9030 0.9030 0.9030 0.9030 0.9030
2.047000 0.9030 0.9030 0.9030 0.9020 0.9020
2.073167 0.9020 0.9020 0.9020 0.9020 0.9020
2.099000 0.9020 0.9020 0.9020 0.9020 0.9020
2.125167 0.9020 0.9020 0.9020 0.9020 0.9020
2.152000 0.9010 0.9010 0.9010 0.9000 0.8990
2.178167 0.8990 0.8980 0.8950 0.8930 0.8930
2.204000 0.8920 0.8910 0.8900 0.8890 0.8880
2.230167 0.8860 0.8840 0.8840 0.8830 0.8830
2.256000 0.8840 0.8850 0.8870 0.8870 0.8880
2.282167 0.8880 0.8880 0.8890 0.8890 0.8880
2.309000 0.8880 0.8890 0.8890 0.8900 0.8910
2.335167 0.8910 0.8910 0.8920 0.8920 0.8920
2.361000 0.8920 0.8920 0.8920 0.8920 0.8920
2.387167 0.8920 0.8910 0.8910 0.8900 0.8900
2.413000 0.8900 0.8900 0.8900 0.8890 0.8890
2.439167 0.8900 0.8900 0.8920 0.8920 0.8930
2.466000 0.8930 0.8930 0.8940 0.8940 0.8940
2.492167 0.8950 0.8960 0.8970 0.8990 0.8990
2.518000 0.9000 0.9000 0.9000 0.9000 0.9000
2.544167 0.9000 0.9000 0.9000 0.8990 0.8990
2.570000 0.8990 0.8990 0.8990 0.8970 0.8970
2.596167 0.8960 0.8960 0.8950 0.8950 0.8940
2.623000 0.8930 0.8920 0.8920 0.8910 0.8900
2.649167 0.8890 0.8890 0.8890 0.8880 0.8870
2.675000 0.8850 0.8830 0.8790 0.8780 0.8710
2.701167 0.8690 0.8680 0.8660 0.8620 0.8600
2.727000 0.8580 0.8520 0.8490 0.8400 0.8350
2.753167 0.8290 0.8220 0.8180 0.8120 0.8080
2.779000 0.8010 0.7990 0.7920 0.7890 0.7810
2.805167 0.7790 0.7740 0.7720 0.7710 0.7700
2.832000 0.7700 0.7690 0.7680 0.7660 0.7630
2.858167 0.7600 0.7590 0.7580 0.7560 0.7520
2.884000 0.7480 0.7400 0.7340 0.7300 0.7270
2.910167 0.7220 0.7190 0.7130 0.7080 0.7000
2.936000 0.6880 0.6780 0.6580 0.6400 0.6280
2.962167 0.6080 0.6010 0.5990 0.6110 0.6210
2.989000 0.6290 0.6380 0.6390 0.6430 0.6460
3.015167 0.6450 0.6440 0.6400 0.6350 0.6380
3.041000 0.6400 0.6410 0.6480 0.6500 0.6580
3.067167 0.6680 0.6720 0.6780 0.6830 0.6870
3.093000 0.6910 0.6930 0.6980 0.6990 0.7000
3.119167 0.7010 0.7010 0.7010 0.7020 0.7060
3.146000 0.7100 0.7180 0.7210 0.7280 0.7310
3.172167 0.7400 0.7490 0.7510 0.7520 0.7570
3.198000 0.7600 0.7690 0.7710 0.7780 0.7780
3.224167 0.7800 0.7810 0.7840 0.7870 0.7880
3.250000 0.7880 0.7880 0.7880 0.7880 0.7880
3.276167 0.7880 0.7870 0.7860 0.7830 0.7790
3.303000 0.7740 0.7690 0.7620 0.7530 0.7280
3.329167 0.7020 0.6710 0.6390 0.6090 0.5700
3.355000 0.5510 0.5290 0.5100 0.4700 0.4390
3.381167 0.4090 0.3880 0.3500 0.3250 0.2910
3.407000 0.2780 0.2900 0.3000 0.3100 0.3250
3.433167 0.3300 0.3340 0.3380 0.3380 0.3280
3.460000 0.3190 0.3170 0.3020 0.3000 0.2950
3.486167 0.2900 0.2920 0.3020 0.3150 0.3410
3.512000 0.3670 0.3860 0.4010 0.4110 0.4300
3.538167 0.4590 0.4840 0.5030 0.5200 0.5590
3.564000 0.6290 0.7010 0.7210 0.7450 0.7480
3.590167 0.7510 0.7540 0.7550 0.7550 0.7560
3.616000 0.7560 0.7560 0.7570 0.7590 0.7620
3.642167 0.7680 0.7710 0.7790 0.7890 0.7960
3.669000 0.8010 0.8120 0.8210 0.8270 0.8350
3.695167 0.8390 0.8400 0.8420 0.8480 0.8490
3.721000 0.8500 0.8510 0.8540 0.8590 0.8610
3.747167 0.8620 0.8630 0.8660 0.8670 0.8680
3.773000 0.8680 0.8690 0.8700 0.8700 0.8710
3.799167 0.8720 0.8720 0.8750 0.8750 0.8750
3.826000 0.8770 0.8760 0.8770 0.8770 0.8780
3.852167 0.8780 0.8790 0.8810 0.8810 0.8820
3.878000 0.8840 0.8880 0.8890 0.8900 0.8900
3.904167 0.8910 0.8930 0.8930 0.8940 0.8950
3.930000 0.8950 0.8950 0.8960 0.8970 0.8970
3.956167 0.8980 0.8990 0.8990 0.8990 0.9000
3.983000 0.9000 0.9000 0.9000 0.9010 0.9010
4.009167 0.9010 0.9010 0.9020 0.9020 0.9020
4.035000 0.9020 0.9020 0.9020 0.9020 0.9020
4.061167 0.9020 0.9020 0.9020 0.9020 0.9020
4.087000 0.9020 0.9020 0.9020 0.9020 0.9020
4.113167 0.9020 0.9020 0.9020 0.9020 0.9020
4.140000 0.9020 0.9020 0.9020 0.9020 0.9010
4.166167 0.9000 0.9000 0.9010 0.9010 0.9000
4.192000 0.9000 0.8990 0.8990 0.8990 0.8980
4.218167 0.8980 0.8980 0.8970 0.8970 0.8960
4.244000 0.8960 0.8960 0.8960 0.8970 0.8970
4.270167 0.8970 0.8970 0.8970 0.8970 0.8980
4.297000 0.8980 0.8990 0.8990 0.9000 0.9000
4.323167 0.9000 0.9000 0.9000 0.9000 0.9000
4.349000 0.9000 0.8990 0.8990 0.8990 0.8990
4.375167 0.8980 0.8980 0.8980 0.8980 0.8980
4.401000 0.8970 0.8970 0.8960 0.8960 0.8950
4.427167 0.8950 0.8940 0.8940 0.8930 0.8930
4.454000 0.8930 0.8930 0.8920 0.8910 0.8910
4.480167 0.8910 0.8910 0.8910 0.8910 0.8910
4.506000 0.8920 0.8920 0.8920 0.8920 0.8920
4.532167 0.8920 0.8920 0.8920 0.8920 0.8920
4.558000 0.8920 0.8920 0.8920 0.8920 0.8920
4.584167 0.8920 0.8920 0.8920 0.8920 0.8920
4.610000 0.8920 0.8920 0.8920 0.8920 0.8920
4.636167 0.8920 0.8920 0.8920 0.8920 0.8920
4.663000 0.8920 0.8920 0.8920 0.8920 0.8920
4.689167 0.8920 0.8920 0.8910 0.8900 0.8900
4.715000 0.8900 0.8900 0.8910 0.8910 0.8900
4.741167 0.8900 0.8900 0.8900 0.8900 0.8900
4.767000 0.8900 0.8900 0.8900 0.8900 0.8890
4.793167 0.8870 0.8860 0.8850 0.8840 0.8840
4.820000 0.8820 0.8820 0.8820 0.8820 0.8810
4.846167 0.8810 0.8810 0.8820 0.8820 0.8830
4.872000 0.8830 0.8830 0.8820 0.8820 0.8820
4.898167 0.8820 0.8820 0.8820 0.8820 0.8820
4.924000 0.8820 0.8820 0.8820 0.8820 0.8820
4.950167 0.8830 0.8830 0.8830 0.8820 0.8820
4.977000 0.8820 0.8820 0.8820 0.8820 0.8820
5.003167 0.8820 0.8830 0.8840 0.8840 0.8850
5.029000 0.8860 0.8860 0.8870 0.8870 0.8890
5.055167 0.8900 0.8910 0.8910 0.8910 0.8910
5.081000 0.8920 0.8930 0.8930 0.8940 0.8940
5.107167 0.8940 0.8940 0.8940 0.8930 0.8930
5.134000 0.8930 0.8930 0.8930 0.8930 0.8930
5.160167 0.8930 0.8930 0.8930 0.8930 0.8930
5.186000 0.8930 0.8930 0.8930 0.8930 0.8920
5.212167 0.8920 0.8920 0.8920 0.8920 0.8920
5.238000 0.8920 0.8920 0.8920 0.8920 0.8920
5.264167 0.8920 0.8930 0.8930 0.8930 0.8930
5.291000 0.8930 0.8930 0.8930 0.8930 0.8930
5.317167 0.8930 0.8930 0.8930 0.8930 0.8930
5.343000 0.8930 0.8930 0.8930 0.8930 0.8940
5.369167 0.8950 0.8950 0.8960 0.8960 0.8950
5.395000 0.8950 0.8950 0.8940 0.8930 0.8930
5.421167 0.8940 0.8940 0.8950 0.8950 0.8960
5.447000 0.8960 0.8960 0.8960 0.8970 0.8970
5.473167 0.8980 0.8980 0.8980 0.8980 0.8970
5.500000 0.8970 0.8970 0.8970 0.8970 0.8970
5.526167 0.8970 0.8970 0.8960 0.8960 0.8960
5.552000 0.8960 0.8960 0.8960 0.8970 0.8970
5.578167 0.8970 0.8970 0.8960 0.8950 0.8940
5.604000 0.8930 0.8920 0.8920 0.8920 0.8910
5.630167 0.8910 0.8910 0.8910 0.8900 0.8890
5.657000 0.8890 0.8880 0.8880 0.8870 0.8860
5.683167 0.8850 0.8840 0.8830 0.8830 0.8830
5.709000 0.8830 0.8820 0.8820 0.8810 0.8810
5.735167 0.8810 0.8790 0.8780 0.8770 0.8760
5.761000 0.8750 0.8730 0.8730 0.8730 0.8730
5.787167 0.8730 0.8720 0.8710 0.8710 0.8700
5.814000 0.8700 0.8690 0.8670 0.8630 0.8620
5.840167 0.8610 0.8600 0.8590 0.8560 0.8530
5.866000 0.8500 0.8490 0.8480 0.8470 0.8460
5.892167 0.8460 0.8450 0.8430 0.8400 0.8390
5.918000 0.8370 0.8340 0.8310 0.8290 0.8250
5.944167 0.8210 0.8200 0.8190 0.8180 0.8160
5.971000 0.8150 0.8130 0.8120 0.8110 0.8100
5.997167 0.8070 0.8060 0.8040 0.8010 0.7990
6.023000 0.7950 0.7900 0.7890 0.7890 0.7860
6.049167 0.7810 0.7780 0.7770 0.7760 0.7750
6.075000 0.7750 0.7750 0.7730 0.7730 0.7710
6.101167 0.7690 0.7640 0.7620 0.7590 0.7560
6.128000 0.7520 0.7500 0.7430 0.7410 0.7360
6.154167 0.7310 0.7240 0.7180 0.7120 0.7100
6.180000 0.7070 0.7050 0.7030 0.7000 0.6980
6.206167 0.6960 0.6950 0.6940 0.6930 0.6920
6.232000 0.6910 0.6910 0.6910 0.6920 0.6920
6.258167 0.6920 0.6930 0.6990 0.7000 0.7010
6.285000 0.7020 0.7070 0.7080 0.7120 0.7200
6.311167 0.7270 0.7320 0.7370 0.7420 0.7470
6.337000 0.7500 0.7520 0.7590 0.7650 0.7700
6.363167 0.7740 0.7780 0.7820 0.7870 0.7960
6.389000 0.7970 0.7990 0.8050 0.8100 0.8140
6.415167 0.8180 0.8180 0.8190 0.8200 0.8210
6.441000 0.8220 0.8220 0.8240 0.8260 0.8280
6.467167 0.8280 0.8280 0.8290 0.8290 0.8290
6.494000 0.8300 0.8300 0.8300 0.8300 0.8300
6.520167 0.8300 0.8300 0.8300 0.8300 0.8300
6.546000 0.8300 0.8300 0.8300 0.8290 0.8300
6.572167 0.8300 0.8290 0.8290 0.8280 0.8280
6.598000 0.8260 0.8240 0.8220 0.8180 0.8160
6.624167 0.8160 0.8150 0.8140 0.8140 0.8140
6.651000 0.8120 0.8120 0.8080 0.8060 0.8010
6.677167 0.7970 0.7950 0.7870 0.7830 0.7770
6.703000 0.7580 0.7340 0.7240 0.7150 0.7070
6.729167 0.7020 0.6960 0.6890 0.6860 0.6800
6.755000 0.6740 0.6730 0.6710 0.6700 0.6650
6.781167 0.6620 0.6590 0.6540 0.6520 0.6500
6.808000 0.6360 0.6320 0.6270 0.6230 0.6230
6.834167 0.6230 0.6240 0.6260 0.6280 0.6310
6.860000 0.6350 0.6370 0.6390 0.6390 0.6400
6.886167 0.6400 0.6410 0.6470 0.6530 0.6670
6.912000 0.6810 0.6910 0.6960 0.6970 0.7070
6.938167 0.7120 0.7190 0.7220 0.7240 0.7290
6.965000 0.7310 0.7330 0.7350 0.7360 0.7370
6.991167 0.7400 0.7430 0.7490 0.7500 0.7510
7.017000 0.7550 0.7620 0.7690 0.7770 0.7840
7.043167 0.7920 0.7970 0.8000 0.8010 0.8010
7.069000 0.8010 0.8010 0.8010 0.8000 0.8000
7.095167 0.7930 0.7920 0.7880 0.7800 0.7720
7.122000 0.7620 0.7510 0.7320 0.7250 0.7200
7.148167 0.7070 0.6920 0.6750 0.6590 0.6530
7.174000 0.6500 0.6430 0.6410 0.6400 0.6400
7.200167 0.6410 0.6430 0.6490 0.6530 0.6560
7.226000 0.6600 0.6610 0.6710 0.6850 0.6960
7.252167 0.7020 0.7110 0.7240 0.7310 0.7450
7.278000 0.7490 0.7500 0.7510 0.7550 0.7600
7.304167 0.7690 0.7740 0.7800 0.7810 0.7820
7.331000 0.7830 0.7830 0.7860 0.7860 0.7870
7.357167 0.7870 0.7870 0.7870 0.7870 0.7870
7.383000 0.7870 0.7870 0.7870 0.7880 0.7890
7.409167 0.7910 0.7940 0.7990 0.8060 0.8150
7.435000 0.8180 0.8200 0.8220 0.8230 0.8240
7.461167 0.8250 0.8260 0.8260 0.8260 0.8260
7.488000 0.8250 0.8240 0.8240 0.8230 0.8230
7.514167 0.8230 0.8220 0.8210 0.8200 0.8190
7.540000 0.8190 0.8180 0.8160 0.8160 0.8150
7.566167 0.8150 0.8150 0.8140 0.8140 0.8130
7.592000 0.8130 0.8120 0.8080 0.8070 0.8060
7.618167 0.8060 0.8050 0.8040 0.8030 0.8020
7.645000 0.8020 0.8020 0.8010 0.8010 0.8010
7.671167 0.8010 0.8010 0.8020 0.8020 0.8020
7.697000 0.8030 0.8030 0.8030 0.8030 0.8030
7.723167 0.8030 0.8030 0.8040 0.8040 0.8050
7.749000 0.8050 0.8060 0.8060 0.8070 0.8080
7.775167 0.8100 0.8100 0.8110 0.8120 0.8120
7.802000 0.8140 0.8170 0.8190 0.8190 0.8190
7.828167 0.8190 0.8200 0.8200 0.8200 0.8200
7.854000 0.8200 0.8190 0.8190 0.8190 0.8190
7.880167 0.8190 0.8190 0.8190 0.8190 0.8190
7.906000 0.8190 0.8200 0.8200 0.8200 0.8200
7.932167 0.8190 0.8190 0.8180 0.8170 0.8170
7.959000 0.8150 0.8140 0.8140 0.8130 0.8120
7.985167 0.8120 0.8110 0.8110 0.8100 0.8080
8.011000 0.8080 0.8070 0.8070 0.8060 0.8050
8.037167 0.8050 0.8040 0.8030 0.8000 0.7980
8.063000 0.7960 0.7940 0.7940 0.7890 0.7870
8.089167 0.7830 0.7810 0.7780 0.7760 0.7740
8.115000 0.7720 0.7670 0.7640 0.7630 0.7620
8.141167 0.7620 0.7600 0.7600 0.7590 0.7590
8.168000 0.7570 0.7560 0.7550 0.7550 0.7530
8.194167 0.7530 0.7520 0.7510 0.7500 0.7390
8.220000 0.7280 0.7190 0.7130 0.7060 0.6970
8.246167 0.6870 0.6760 0.6640 0.6540 0.6450
8.272000 0.6350 0.6260 0.6210 0.6160 0.6140
8.298167 0.6130 0.6080 0.6070 0.6060 0.6060
8.325000 0.6060 0.6070 0.6080 0.6100 0.6110
8.351167 0.6120 0.6140 0.6160 0.6170 0.6200
8.377000 0.6220 0.6230 0.6280 0.6300 0.6340
8.403167 0.6360 0.6400 0.6450 0.6490 0.6510
8.429000 0.6510 0.6520 0.6520 0.6530 0.6530
8.455167 0.6510 0.6500 0.6500 0.6490 0.6470
8.482000 0.6460 0.6450 0.6450 0.6440 0.6400
8.508167 0.6380 0.6380 0.6370 0.6360 0.6360
8.534000 0.6370 0.6380 0.6380 0.6390 0.6400
8.560167 0.6410 0.6410 0.6410 0.6410 0.6410
8.586000 0.6390 0.6390 0.6390 0.6380 0.6380
8.612167 0.6370 0.6350 0.6340 0.6330 0.6300
8.639000 0.6300 0.6290 0.6250 0.6240 0.6230
8.665167 0.6230 0.6230 0.6220 0.6210 0.6200
8.691000 0.6200 0.6180 0.6150 0.6130 0.6100
8.717167 0.6040 0.6030 0.6020 0.6020 0.6010
8.743000 0.6010 0.5940 0.5920 0.5900 0.5890
8.769167 0.5820 0.5800 0.5740 0.5690 0.5590
8.796000 0.5560 0.5450 0.5350 0.5240 0.5140
8.822167 0.5040 0.4740 0.4600 0.4410 0.4220
8.848000 0.4110 0.3910 0.3820 0.3560 0.3400
8.874167 0.3200 0.3000 0.2810 0.2700 0.2600
8.900000 0.2040 0.1890 0.1710 0.1540 0.1480
8.926167 0.1320 0.1240 0.1200 0.1120 0.1100
8.953000 0.1100 0.1100 0.1100 0.1110 0.1120
8.979167 0.1130 0.1200 0.1240 0.1290 0.1350
9.005000 0.1390 0.1520 0.1640 0.1830 0.1960
9.031167 0.2010 0.2030 0.2110 0.2210 0.2310
9.057000 0.2420 0.2470 0.2520 0.2630 0.2770
9.083167 0.2820 0.2920 0.3020 0.3120 0.3220
9.109000 0.3310 0.3430 0.3640 0.3690 0.3710
9.135167 0.3810 0.3900 0.4000 0.4010 0.4100
9.162000 0.4140 0.4210 0.4300 0.4340 0.4410
9.188167 0.4440 0.4490 0.4540 0.4610 0.4690
9.214000 0.4730 0.4850 0.4870 0.4910 0.4960
9.240167 0.5010 0.5020 0.5110 0.5140 0.5210
9.266000 0.5310 0.5410 0.5510 0.5530 0.5620
9.292167 0.5670 0.5750 0.5780 0.5860 0.5970
9.319000 0.6020 0.6050 0.6060 0.6100 0.6110
9.345167 0.6120 0.6150 0.6160 0.6160 0.6170
9.371000 0.6180 0.6210 0.6210 0.6230 0.6260
9.397167 0.6300 0.6350 0.6410 0.6480 0.6530
9.423000 0.6580 0.6620 0.6620 0.6640 0.6700
9.449167 0.6720 0.6730 0.6760 0.6800 0.6820
9.476000 0.6830 0.6860 0.6870 0.6890 0.6920
9.502167 0.6950 0.6960 0.6980 0.6990 0.6990
9.528000 0.7000 0.7000 0.7010 0.7010 0.7010
9.554167 0.7000 0.7000 0.7000 0.6980 0.6970
9.580000 0.6970 0.6960 0.6940 0.6940 0.6920
9.606167 0.6910 0.6890 0.6870 0.6810 0.6800
9.633000 0.6770 0.6760 0.6730 0.6720 0.6700
9.659167 0.6680 0.6670 0.6670 0.6650 0.6640
9.685000 0.6630 0.6630 0.6630 0.6630 0.6630
9.711167 0.6640 0.6670 0.6680 0.6680 0.6700
9.737000 0.6730 0.6770 0.6800 0.6830 0.6890
9.763167 0.6910 0.6930 0.6930 0.6940 0.6950
9.790000 0.6970 0.6980 0.6990 0.6990 0.7000
9.816167 0.7000 0.7000 0.7010 0.7010 0.7020
9.842000 0.7020 0.7020 0.7020 0.7020 0.7020
9.868167 0.7020 0.7020 0.7020 0.7020 0.7020
9.894000 0.7020 0.7020 0.7020 0.7020 0.7010
9.920167 0.7010 0.7010 0.7010 0.7010 0.7010
9.946000 0.7000 0.6990 0.6990 0.6990 0.6990
9.972167 0.6990 0.6990 0.7000 0.7000 0.7010
9.999000 0.7020 0.7020 0.7020 0.7030 0.7030
10.025167 0.7040 0.7040 0.7050 0.7060 0.7070
10.051000 0.7080 0.7080 0.7090 0.7090 0.7100
10.077167 0.7100 0.7100 0.7090 0.7080 0.7080
10.103000 0.7060 0.7060 0.7050 0.7050 0.7040
10.129167 0.7040 0.7040 0.7030 0.7030 0.7020
10.156000 0.7010 0.7000 0.7000 0.6990 0.6980
10.182167 0.6970 0.6970 0.6960 0.6960 0.6950
10.208000 0.6950 0.6950 0.6940 0.6930 0.6910
10.234167 0.6910 0.6890 0.6890 0.6890 0.6890
10.260000 0.6880 0.6880 0.6870 0.6860 0.6860
10.286167 0.6840 0.6820 0.6800 0.6780 0.6760
10.313000 0.6730 0.6710 0.6700 0.6700 0.6690
10.339167 0.6680 0.6670 0.6650 0.6640 0.6630
10.365000 0.6610 0.6600 0.6600 0.6600 0.6600
10.391167 0.6600 0.6600 0.6600 0.6600 0.6590
10.417000 0.6590 0.6600 0.6600 0.6600 0.6600
10.443167 0.6600 0.6590 0.6590 0.6580 0.6580
10.470000 0.6580 0.6580 0.6580 0.6570 0.6560
10.496167 0.6550 0.6540 0.6530 0.6510 0.6500
10.522000 0.6500 0.6480 0.6470 0.6430 0.6410
10.548167 0.6410 0.6400 0.6390 0.6390 0.6380
10.574000 0.6370 0.6320 0.6300 0.6290 0.6280
10.600167 0.6270 0.6250 0.6240 0.6220 0.6210
10.627000 0.6170 0.6160 0.6130 0.6130 0.6120
10.653167 0.6110 0.6100 0.6090 0.6080 0.6030
10.679000 0.6020 0.6020 0.6010 0.6010 0.6000
10.705167 0.5990 0.5990 0.5990 0.5980 0.5980
10.731000 0.5980 0.5940 0.5940 0.5930 0.5930
10.757167 0.5920 0.5910 0.5900 0.5900 0.5880
10.784000 0.5880 0.5840 0.5830 0.5830 0.5820
10.810167 0.5810 0.5810 0.5800 0.5790 0.5790
10.836000 0.5790 0.5790 0.5770 0.5770 0.5760
10.862167 0.5760 0.5750 0.5730 0.5740 0.5730
10.888000 0.5730 0.5730 0.5730 0.5730 0.5720
10.914167 0.5720 0.5720 0.5720 0.5720 0.5720
10.940000 0.5720 0.5720 0.5720 0.5720 0.5730
10.966167 0.5740 0.5750 0.5750 0.5750 0.5760
10.993000 0.5760 0.5760 0.5760 0.5760 0.5760
11.019167 0.5760 0.5760 0.5750 0.5750 0.5750
11.045000 0.5750 0.5750 0.5750 0.5740 0.5730
11.071167 0.5730 0.5730 0.5730 0.5730 0.5730
11.097000 0.5730 0.5730 0.5720 0.5720 0.5700
11.123167 0.5690 0.5700 0.5690 0.5690 0.5690
11.150000 0.5680 0.5680 0.5670 0.5660 0.5650
11.176167 0.5650 0.5640 0.5640 0.5630 0.5630
11.202000 0.5630 0.5620 0.5600 0.5590 0.5550
11.228167 0.5540 0.5530 0.5530 0.5520 0.5520
11.254000 0.5520 0.5510 0.5510 0.5500 0.5490
11.280167 0.5490 0.5490 0.5480 0.5460 0.5440
11.307000 0.5440 0.5430 0.5430 0.5430 0.5430
11.333167 0.5420 0.5410 0.5410 0.5410 0.5400
11.359000 0.5400 0.5390 0.5390 0.5370 0.5370
11.385167 0.5380 0.5380 0.5370 0.5370 0.5370
11.411000 0.5360 0.5360 0.5360 0.5350 0.5350
11.437167 0.5350 0.5350 0.5340 0.5340 0.5340
11.464000 0.5340 0.5340 0.5330 0.5330 0.5330
11.490167 0.5330 0.5330 0.5330 0.5330 0.5330
11.516000 0.5330 0.5330 0.5330 0.5330 0.5330
11.542167 0.5330 0.5330 0.5330 0.5320 0.5320
11.568000 0.5320 0.5320 0.5320 0.5320 0.5310
11.594167 0.5310 0.5310 0.5310 0.5300 0.5300
11.621000 0.5310 0.5310 0.5310 0.5310 0.5310
11.647167 0.5310 0.5300 0.5300 0.5300 0.5300
11.673000 0.5300 0.5290 0.5280 0.5280 0.5290
11.699167 0.5290 0.5290 0.5290 0.5280 0.5290
11.725000 0.5280 0.5280 0.5280 0.5270 0.5260
11.751167 0.5250 0.5250 0.5260 0.5250 0.5250
11.777000 0.5250 0.5250 0.5250 0.5250 0.5250
11.803167 0.5250 0.5250 0.5250 0.5250 0.5250
11.830000 0.5250 0.5250 0.5250 0.5250 0.5250
11.856167 0.5250 0.5250 0.5250 0.5250 0.5250
11.882000 0.5250 0.5250 0.5250 0.5250 0.5250
11.908167 0.5250 0.5250 0.5250 0.5250 0.5260
11.934000 0.5260 0.5260 0.5260 0.5270 0.5270
11.960167 0.5270 0.5270 0.5280 0.5290 0.5290
11.987000 0.5290 0.5290 0.5290 0.5290 0.5300
12.013167 0.5300 0.5300 0.5300 0.5310 0.5310
12.039000 0.5310 0.5310 0.5320 0.5320 0.5330
12.065167 0.5330 0.5340 0.5340 0.5350 0.5360
12.091000 0.5370 0.5370 0.5400 0.5400 0.5410
12.117167 0.5420 0.5440 0.5440 0.5440 0.5450
12.144000 0.5450 0.5460 0.5480 0.5490 0.5500
12.170167 0.5510 0.5520 0.5520 0.5530 0.5530
12.196000 0.5540 0.5540 0.5560 0.5570 0.5570
12.222167 0.5580 0.5590 0.5610 0.5630 0.5630
