##TITLE=2-Propanone, 1,3-dichloro-
##JCAMP-DX=4.24
$$ By DXEDIT 1.05 (RS McDonald)
##DATA TYPE=INFRARED SPECTRUM
##CLASS=COBLENTZ III
##ORIGIN=DOW CHEMICAL COMPANY
##OWNER=COPYRIGHT (C) 1988 by COBLENTZ SOCIETY INC.
Collection (C) 2018 copyright by the U.S. Secretary of Commerce
on behalf of the United States of America. All rights reserved.
##DATE=1962/03/08
##NAMES=1,3-dichloroacetone
##CAS REGISTRY NO=534-07-6
##MOLFORM=C3 H4 Cl2 O
##SOURCE REFERENCE=COBLENTZ NO. 5753
##$NIST SOURCE=COBLENTZ
##$NIST IMAGE=cob5753
##SPECTROMETER/DATA SYSTEM=DOW KBr FOREPRISM-GRATING
##INSTRUMENT PARAMETERS=BLAZED AT 3.5, 12.0, 20.0 MICRON AND CHANGED AT 5.0, 7.5, 14.9 MICRON
##STATE=SOLUTION (10% CCl4 FOR 2.6-7.5, 10% CS2 FOR 7.5-22 MICRON)
##PATH LENGTH=0.011 CM, 0.01 CM
$$SPECTRAL CONTAMINATION DUE TO CCl4 AROUND 1550 AND CS2 AROUND 850 CM^-^1 HAVE BEEN SUBTRACTED
##SAMPLING PROCEDURE=TRANSMISSION
##RESOLUTION=2
##DATA PROCESSING=DIGITIZED BY COBLENTZ SOCIETY (BATCH I) FROM HARD COPY
##XUNITS=1/CM
##YUNITS=TRANSMITTANCE
##XFACTOR=1
##YFACTOR=1
##DELTAX=1
##FIRSTX=3806
##LASTX=447
##FIRSTY=0.9342
##MAXX=3806
##MINX=447
##MAXY=0.9466
##MINY=0.0183
##NPOINTS=3360
##XYDATA=(X++(Y..Y))
3806.000000 0.9342 0.9341 0.9341 0.9341 0.9328
3801.000000 0.9327 0.9327 0.9326 0.9326 0.9327
3796.000000 0.9335 0.9327 0.9337 0.9337 0.9337
3791.000000 0.9336 0.9336 0.9335 0.9335 0.9334
3786.000000 0.9334 0.9334 0.9325 0.9319 0.9319
3781.000000 0.9328 0.9332 0.9320 0.9329 0.9329
3776.000000 0.9329 0.9317 0.9329 0.9328 0.9328
3771.000000 0.9327 0.9327 0.9326 0.9326 0.9326
3766.000000 0.9326 0.9325 0.9325 0.9324 0.9323
3761.000000 0.9322 0.9329 0.9327 0.9321 0.9320
3756.000000 0.9319 0.9318 0.9318 0.9317 0.9317
3751.000000 0.9316 0.9314 0.9313 0.9313 0.9312
3746.000000 0.9312 0.9311 0.9310 0.9309 0.9309
3741.000000 0.9309 0.9310 0.9314 0.9324 0.9324
3736.000000 0.9325 0.9325 0.9319 0.9312 0.9319
3731.000000 0.9326 0.9327 0.9327 0.9327 0.9327
3726.000000 0.9328 0.9328 0.9329 0.9329 0.9329
3721.000000 0.9329 0.9330 0.9317 0.9320 0.9335
3716.000000 0.9337 0.9338 0.9340 0.9341 0.9347
3711.000000 0.9354 0.9352 0.9362 0.9364 0.9365
3706.000000 0.9367 0.9369 0.9371 0.9372 0.9372
3701.000000 0.9372 0.9374 0.9374 0.9375 0.9375
3696.000000 0.9363 0.9362 0.9364 0.9364 0.9365
3691.000000 0.9365 0.9366 0.9366 0.9368 0.9365
3686.000000 0.9355 0.9355 0.9355 0.9355 0.9357
3681.000000 0.9357 0.9358 0.9358 0.9359 0.9359
3676.000000 0.9360 0.9360 0.9361 0.9361 0.9362
3671.000000 0.9362 0.9375 0.9365 0.9363 0.9363
3666.000000 0.9365 0.9364 0.9366 0.9366 0.9367
3661.000000 0.9367 0.9368 0.9368 0.9369 0.9369
3656.000000 0.9370 0.9370 0.9370 0.9370 0.9371
3651.000000 0.9371 0.9372 0.9372 0.9373 0.9373
3646.000000 0.9374 0.9374 0.9375 0.9375 0.9376
3641.000000 0.9376 0.9376 0.9376 0.9377 0.9377
3636.000000 0.9378 0.9378 0.9379 0.9381 0.9393
3631.000000 0.9393 0.9390 0.9381 0.9386 0.9394
3626.000000 0.9394 0.9393 0.9393 0.9393 0.9393
3621.000000 0.9393 0.9393 0.9393 0.9393 0.9393
3616.000000 0.9393 0.9392 0.9392 0.9392 0.9392
3611.000000 0.9392 0.9392 0.9391 0.9380 0.9392
3606.000000 0.9392 0.9391 0.9391 0.9387 0.9382
3601.000000 0.9391 0.9385 0.9377 0.9384 0.9391
3596.000000 0.9391 0.9390 0.9390 0.9390 0.9390
3591.000000 0.9389 0.9389 0.9389 0.9389 0.9389
3586.000000 0.9389 0.9388 0.9388 0.9388 0.9388
3581.000000 0.9387 0.9387 0.9386 0.9385 0.9384
3576.000000 0.9380 0.9374 0.9383 0.9382 0.9376
3571.000000 0.9367 0.9367 0.9366 0.9366 0.9365
3566.000000 0.9365 0.9364 0.9364 0.9363 0.9363
3561.000000 0.9362 0.9362 0.9361 0.9361 0.9360
3556.000000 0.9360 0.9371 0.9359 0.9361 0.9373
3551.000000 0.9373 0.9371 0.9365 0.9375 0.9375
3546.000000 0.9376 0.9372 0.9371 0.9378 0.9379
3541.000000 0.9379 0.9372 0.9376 0.9372 0.9378
3536.000000 0.9383 0.9383 0.9384 0.9384 0.9385
3531.000000 0.9385 0.9386 0.9372 0.9372 0.9373
3526.000000 0.9374 0.9375 0.9376 0.9376 0.9376
3521.000000 0.9375 0.9375 0.9374 0.9374 0.9373
3516.000000 0.9373 0.9372 0.9372 0.9371 0.9371
3511.000000 0.9370 0.9370 0.9367 0.9364 0.9358
3506.000000 0.9353 0.9346 0.9342 0.9335 0.9330
3501.000000 0.9325 0.9320 0.9313 0.9308 0.9294
3496.000000 0.9279 0.9263 0.9249 0.9233 0.9217
3491.000000 0.9202 0.9186 0.9172 0.9156 0.9134
3486.000000 0.9112 0.9089 0.9068 0.9052 0.9036
3481.000000 0.9029 0.9023 0.9015 0.9008 0.9001
3476.000000 0.8993 0.8985 0.8978 0.8975 0.8940
3471.000000 0.8971 0.8973 0.8976 0.8978 0.8985
3466.000000 0.8992 0.9012 0.9033 0.9049 0.9066
3461.000000 0.9081 0.9095 0.9110 0.9124 0.9139
3456.000000 0.9155 0.9160 0.9165 0.9166 0.9168
3451.000000 0.9169 0.9171 0.9173 0.9175 0.9176
3446.000000 0.9178 0.9179 0.9181 0.9184 0.9186
3441.000000 0.9188 0.9189 0.9192 0.9193 0.9200
3436.000000 0.9206 0.9216 0.9225 0.9234 0.9245
3431.000000 0.9254 0.9265 0.9274 0.9283 0.9295
3426.000000 0.9307 0.9307 0.9330 0.9342 0.9355
3421.000000 0.9367 0.9379 0.9388 0.9397 0.9401
3416.000000 0.9407 0.9411 0.9415 0.9420 0.9424
3411.000000 0.9428 0.9432 0.9436 0.9441 0.9453
3406.000000 0.9455 0.9453 0.9458 0.9460 0.9461
3401.000000 0.9462 0.9462 0.9462 0.9462 0.9462
3396.000000 0.9462 0.9461 0.9461 0.9461 0.9461
3391.000000 0.9461 0.9461 0.9460 0.9460 0.9460
3386.000000 0.9460 0.9459 0.9459 0.9459 0.9459
3381.000000 0.9459 0.9459 0.9458 0.9458 0.9456
3376.000000 0.9456 0.9456 0.9456 0.9456 0.9456
3371.000000 0.9455 0.9466 0.9454 0.9452 0.9452
3366.000000 0.9452 0.9451 0.9451 0.9450 0.9450
3361.000000 0.9448 0.9448 0.9448 0.9448 0.9448
3356.000000 0.9448 0.9447 0.9447 0.9445 0.9445
3351.000000 0.9445 0.9445 0.9444 0.9444 0.9443
3346.000000 0.9443 0.9453 0.9455 0.9443 0.9454
3341.000000 0.9441 0.9441 0.9440 0.9453 0.9453
3336.000000 0.9451 0.9438 0.9438 0.9437 0.9437
3331.000000 0.9436 0.9436 0.9436 0.9436 0.9435
3326.000000 0.9435 0.9434 0.9434 0.9434 0.9434
3321.000000 0.9433 0.9433 0.9432 0.9432 0.9432
3316.000000 0.9432 0.9431 0.9431 0.9430 0.9443
3311.000000 0.9442 0.9442 0.9442 0.9440 0.9430
3306.000000 0.9441 0.9440 0.9436 0.9427 0.9427
3301.000000 0.9426 0.9425 0.9424 0.9424 0.9423
3296.000000 0.9423 0.9422 0.9422 0.9421 0.9421
3291.000000 0.9420 0.9420 0.9419 0.9419 0.9419
3286.000000 0.9419 0.9418 0.9419 0.9430 0.9429
3281.000000 0.9416 0.9418 0.9428 0.9425 0.9414
3276.000000 0.9418 0.9426 0.9426 0.9425 0.9425
3271.000000 0.9424 0.9424 0.9423 0.9423 0.9422
3266.000000 0.9422 0.9421 0.9421 0.9421 0.9421
3261.000000 0.9420 0.9420 0.9419 0.9419 0.9417
3256.000000 0.9405 0.9415 0.9415 0.9415 0.9415
3251.000000 0.9414 0.9414 0.9412 0.9412 0.9410
3246.000000 0.9408 0.9402 0.9401 0.9405 0.9404
3241.000000 0.9402 0.9401 0.9400 0.9399 0.9396
3236.000000 0.9395 0.9393 0.9392 0.9391 0.9390
3231.000000 0.9388 0.9387 0.9385 0.9384 0.9381
3226.000000 0.9368 0.9369 0.9379 0.9378 0.9376
3221.000000 0.9374 0.9373 0.9371 0.9370 0.9369
3216.000000 0.9368 0.9366 0.9365 0.9363 0.9363
3211.000000 0.9362 0.9360 0.9360 0.9347 0.9344
3206.000000 0.9342 0.9342 0.9341 0.9339 0.9339
3201.000000 0.9338 0.9339 0.9347 0.9338 0.9344
3196.000000 0.9336 0.9345 0.9344 0.9343 0.9342
3191.000000 0.9341 0.9333 0.9332 0.9337 0.9336
3186.000000 0.9327 0.9321 0.9320 0.9319 0.9318
3181.000000 0.9317 0.9316 0.9315 0.9314 0.9313
3176.000000 0.9311 0.9310 0.9309 0.9308 0.9307
3171.000000 0.9306 0.9305 0.9304 0.9304 0.9302
3166.000000 0.9300 0.9297 0.9303 0.9307 0.9300
3161.000000 0.9299 0.9303 0.9300 0.9290 0.9294
3156.000000 0.9285 0.9280 0.9290 0.9290 0.9288
3151.000000 0.9286 0.9285 0.9282 0.9267 0.9265
3146.000000 0.9264 0.9262 0.9260 0.9258 0.9257
3141.000000 0.9259 0.9266 0.9264 0.9263 0.9261
3136.000000 0.9260 0.9258 0.9254 0.9253 0.9252
3131.000000 0.9250 0.9247 0.9246 0.9244 0.9241
3126.000000 0.9239 0.9237 0.9234 0.9231 0.9229
3121.000000 0.9226 0.9224 0.9222 0.9220 0.9217
3116.000000 0.9215 0.9211 0.9209 0.9207 0.9205
3111.000000 0.9202 0.9200 0.9197 0.9195 0.9200
3106.000000 0.9204 0.9200 0.9198 0.9194 0.9190
3101.000000 0.9186 0.9192 0.9190 0.9185 0.9193
3096.000000 0.9202 0.9211 0.9208 0.9204 0.9198
3091.000000 0.9182 0.9175 0.9158 0.9143 0.9143
3086.000000 0.9144 0.9126 0.9114 0.9110 0.9106
3081.000000 0.9103 0.9101 0.9097 0.9102 0.9112
3076.000000 0.9113 0.9109 0.9116 0.9116 0.9102
3071.000000 0.9096 0.9092 0.9077 0.9086 0.9070
3066.000000 0.9067 0.9059 0.9051 0.9033 0.9026
3061.000000 0.9018 0.9016 0.9018 0.9010 0.8998
3056.000000 0.8983 0.8982 0.8975 0.8962 0.8953
3051.000000 0.8954 0.8954 0.8946 0.8939 0.8931
3046.000000 0.8934 0.8925 0.8925 0.8927 0.8929
3041.000000 0.8930 0.8933 0.8921 0.8911 0.8897
3036.000000 0.8873 0.8851 0.8838 0.8810 0.8787
3031.000000 0.8771 0.8752 0.8730 0.8715 0.8693
3026.000000 0.8672 0.8652 0.8635 0.8609 0.8583
3021.000000 0.8557 0.8532 0.8517 0.8493 0.8470
3016.000000 0.8434 0.8410 0.8384 0.8366 0.8346
3011.000000 0.8332 0.8321 0.8309 0.8295 0.8273
3006.000000 0.8264 0.8265 0.8258 0.8247 0.8234
3001.000000 0.8228 0.8228 0.8220 0.8208 0.8203
2996.000000 0.8197 0.8193 0.8188 0.8196 0.8198
2991.000000 0.8181 0.8167 0.8142 0.8115 0.8069
2986.000000 0.8024 0.8010 0.7998 0.7996 0.7995
2981.000000 0.7993 0.7995 0.7998 0.7989 0.7979
2976.000000 0.7982 0.7976 0.7970 0.7966 0.7960
2971.000000 0.7952 0.7944 0.7942 0.7935 0.7916
2966.000000 0.7897 0.7843 0.7788 0.7705 0.7621
2961.000000 0.7556 0.7490 0.7453 0.7403 0.7343
2956.000000 0.7291 0.7236 0.7183 0.7145 0.7099
2951.000000 0.7073 0.7046 0.7020 0.6994 0.6933
2946.000000 0.6872 0.6757 0.6650 0.6534 0.6423
2941.000000 0.6304 0.6195 0.6083 0.5969 0.5869
2936.000000 0.5794 0.5757 0.5752 0.5751 0.5751
2931.000000 0.5755 0.5760 0.5837 0.5914 0.6048
2926.000000 0.6183 0.6317 0.6451 0.6585 0.6715
2921.000000 0.6844 0.6978 0.7113 0.7246 0.7381
2916.000000 0.7515 0.7649 0.7783 0.7916 0.8052
2911.000000 0.8185 0.8320 0.8454 0.8599 0.8657
2906.000000 0.8702 0.8730 0.8758 0.8775 0.8793
2901.000000 0.8810 0.8827 0.8842 0.8857 0.8864
2896.000000 0.8871 0.8879 0.8887 0.8894 0.8902
2891.000000 0.8909 0.8917 0.8924 0.8930 0.8934
2886.000000 0.8938 0.8942 0.8948 0.8952 0.8956
2881.000000 0.8960 0.8964 0.8969 0.8973 0.8960
2876.000000 0.8975 0.8976 0.8977 0.8977 0.8979
2871.000000 0.8980 0.8982 0.8983 0.8984 0.8985
2866.000000 0.8986 0.8987 0.8988 0.8989 0.8991
2861.000000 0.8991 0.8992 0.8993 0.8994 0.8996
2856.000000 0.8997 0.8998 0.8987 0.8987 0.8988
2851.000000 0.8989 0.8990 0.8991 0.8992 0.8995
2846.000000 0.9007 0.9008 0.9007 0.9002 0.9012
2841.000000 0.9013 0.9010 0.9009 0.9017 0.9018
2836.000000 0.9013 0.9009 0.9008 0.9011 0.9012
2831.000000 0.9012 0.9015 0.9026 0.9018 0.9029
2826.000000 0.9032 0.9022 0.9022 0.9036 0.9025
2821.000000 0.9038 0.9040 0.9039 0.9029 0.9030
2816.000000 0.9031 0.9032 0.9033 0.9034 0.9035
2811.000000 0.9036 0.9037 0.9039 0.9047 0.9054
2806.000000 0.9055 0.9055 0.9056 0.9057 0.9057
2801.000000 0.9057 0.9056 0.9054 0.9054 0.9053
2796.000000 0.9053 0.9052 0.9052 0.9051 0.9049
2791.000000 0.9040 0.9046 0.9034 0.9033 0.9031
2786.000000 0.9030 0.9033 0.9040 0.9031 0.9022
2781.000000 0.9030 0.9036 0.9039 0.9041 0.9043
2776.000000 0.9046 0.9048 0.9051 0.9054 0.9058
2771.000000 0.9062 0.9068 0.9073 0.9078 0.9082
2766.000000 0.9088 0.9092 0.9097 0.9102 0.9107
2761.000000 0.9108 0.9111 0.9112 0.9113 0.9113
2756.000000 0.9114 0.9115 0.9116 0.9117 0.9118
2751.000000 0.9118 0.9119 0.9120 0.9121 0.9122
2746.000000 0.9123 0.9124 0.9125 0.9125 0.9125
2741.000000 0.9127 0.9128 0.9128 0.9130 0.9130
2736.000000 0.9130 0.9130 0.9130 0.9128 0.9128
2731.000000 0.9128 0.9128 0.9127 0.9125 0.9125
2726.000000 0.9125 0.9124 0.9124 0.9123 0.9123
2721.000000 0.9122 0.9122 0.9120 0.9120 0.9119
2716.000000 0.9119 0.9118 0.9118 0.9117 0.9117
2711.000000 0.9116 0.9116 0.9115 0.9115 0.9115
2706.000000 0.9115 0.9115 0.9115 0.9115 0.9115
2701.000000 0.9115 0.9115 0.9115 0.9116 0.9116
2696.000000 0.9116 0.9116 0.9116 0.9116 0.9116
2691.000000 0.9116 0.9116 0.9116 0.9116 0.9116
2686.000000 0.9116 0.9116 0.9117 0.9117 0.9117
2681.000000 0.9117 0.9117 0.9117 0.9117 0.9117
2676.000000 0.9117 0.9117 0.9117 0.9117 0.9117
2671.000000 0.9117 0.9117 0.9117 0.9117 0.9117
2666.000000 0.9117 0.9117 0.9117 0.9117 0.9117
2661.000000 0.9117 0.9117 0.9117 0.9118 0.9130
2656.000000 0.9130 0.9130 0.9130 0.9130 0.9130
2651.000000 0.9125 0.9116 0.9116 0.9123 0.9129
2646.000000 0.9129 0.9122 0.9116 0.9116 0.9125
2641.000000 0.9120 0.9116 0.9116 0.9116 0.9116
2636.000000 0.9116 0.9116 0.9130 0.9130 0.9131
2631.000000 0.9118 0.9121 0.9132 0.9132 0.9132
2626.000000 0.9133 0.9133 0.9134 0.9134 0.9135
2621.000000 0.9135 0.9136 0.9136 0.9136 0.9136
2616.000000 0.9139 0.9139 0.9140 0.9140 0.9140
2611.000000 0.9140 0.9142 0.9142 0.9143 0.9143
2606.000000 0.9144 0.9144 0.9144 0.9144 0.9146
2601.000000 0.9146 0.9146 0.9146 0.9147 0.9147
2596.000000 0.9147 0.9147 0.9147 0.9147 0.9149
2591.000000 0.9149 0.9150 0.9150 0.9150 0.9150
2586.000000 0.9151 0.9151 0.9151 0.9151 0.9152
2581.000000 0.9152 0.9152 0.9152 0.9153 0.9153
2576.000000 0.9154 0.9154 0.9154 0.9154 0.9154
2571.000000 0.9154 0.9154 0.9154 0.9154 0.9153
2566.000000 0.9153 0.9153 0.9153 0.9153 0.9153
2561.000000 0.9153 0.9153 0.9152 0.9152 0.9152
2556.000000 0.9152 0.9151 0.9151 0.9150 0.9150
2551.000000 0.9149 0.9149 0.9148 0.9148 0.9146
2546.000000 0.9146 0.9146 0.9146 0.9145 0.9145
2541.000000 0.9143 0.9143 0.9143 0.9143 0.9142
2536.000000 0.9142 0.9141 0.9139 0.9139 0.9139
2531.000000 0.9137 0.9135 0.9133 0.9130 0.9126
2526.000000 0.9122 0.9117 0.9113 0.9109 0.9106
2521.000000 0.9102 0.9098 0.9093 0.9090 0.9089
2516.000000 0.9088 0.9086 0.9086 0.9086 0.9085
2511.000000 0.9083 0.9083 0.9082 0.9082 0.9082
2506.000000 0.9082 0.9082 0.9082 0.9081 0.9081
2501.000000 0.9081 0.9081 0.9079 0.9079 0.9079
2496.000000 0.9079 0.9079 0.9079 0.9078 0.9078
2491.000000 0.9078 0.9078 0.9078 0.9078 0.9079
2486.000000 0.9080 0.9080 0.9081 0.9082 0.9082
2481.000000 0.9090 0.9097 0.9098 0.9098 0.9098
2476.000000 0.9101 0.9102 0.9103 0.9103 0.9103
2471.000000 0.9105 0.9106 0.9106 0.9106 0.9108
2466.000000 0.9109 0.9110 0.9111 0.9111 0.9112
2461.000000 0.9112 0.9113 0.9113 0.9107 0.9106
2456.000000 0.9106 0.9100 0.9100 0.9108 0.9113
2451.000000 0.9113 0.9103 0.9110 0.9114 0.9114
2446.000000 0.9114 0.9114 0.9114 0.9114 0.9114
2441.000000 0.9114 0.9114 0.9114 0.9114 0.9114
2436.000000 0.9114 0.9114 0.9115 0.9115 0.9115
2431.000000 0.9115 0.9115 0.9115 0.9115 0.9115
2426.000000 0.9115 0.9115 0.9115 0.9115 0.9115
2421.000000 0.9115 0.9115 0.9115 0.9116 0.9116
2416.000000 0.9116 0.9116 0.9116 0.9116 0.9116
2411.000000 0.9115 0.9115 0.9119 0.9125 0.9121
2406.000000 0.9130 0.9130 0.9130 0.9130 0.9129
2401.000000 0.9129 0.9131 0.9131 0.9130 0.9130
2396.000000 0.9130 0.9130 0.9130 0.9130 0.9130
2391.000000 0.9129 0.9129 0.9141 0.9140 0.9139
2386.000000 0.9139 0.9140 0.9151 0.9150 0.9153
2381.000000 0.9161 0.9161 0.9165 0.9173 0.9178
2376.000000 0.9183 0.9183 0.9191 0.9195 0.9193
2371.000000 0.9193 0.9193 0.9182 0.9179 0.9178
2366.000000 0.9176 0.9176 0.9176 0.9176 0.9176
2361.000000 0.9175 0.9188 0.9189 0.9201 0.9201
2356.000000 0.9215 0.9225 0.9225 0.9225 0.9225
2351.000000 0.9218 0.9209 0.9206 0.9209 0.9220
2346.000000 0.9223 0.9220 0.9208 0.9201 0.9197
2341.000000 0.9194 0.9191 0.9177 0.9184 0.9182
2336.000000 0.9167 0.9162 0.9172 0.9170 0.9167
2331.000000 0.9166 0.9174 0.9171 0.9168 0.9168
2326.000000 0.9175 0.9176 0.9182 0.9179 0.9176
2321.000000 0.9173 0.9168 0.9165 0.9163 0.9160
2316.000000 0.9158 0.9155 0.9152 0.9149 0.9147
2311.000000 0.9144 0.9142 0.9138 0.9136 0.9133
2306.000000 0.9131 0.9128 0.9126 0.9122 0.9120
2301.000000 0.9117 0.9115 0.9118 0.9125 0.9125
2296.000000 0.9124 0.9123 0.9120 0.9120 0.9119
2291.000000 0.9117 0.9117 0.9116 0.9105 0.9101
2286.000000 0.9101 0.9100 0.9099 0.9085 0.9083
2281.000000 0.9083 0.9084 0.9086 0.9076 0.9078
2276.000000 0.9078 0.9068 0.9071 0.9075 0.9076
2271.000000 0.9072 0.9077 0.9076 0.9073 0.9078
2266.000000 0.9083 0.9080 0.9078 0.9084 0.9089
2261.000000 0.9084 0.9085 0.9089 0.9082 0.9081
2256.000000 0.9083 0.9084 0.9073 0.9074 0.9076
2251.000000 0.9076 0.9066 0.9067 0.9068 0.9069
2246.000000 0.9072 0.9068 0.9062 0.9063 0.9065
2241.000000 0.9066 0.9068 0.9069 0.9071 0.9072
2236.000000 0.9073 0.9066 0.9063 0.9065 0.9067
2231.000000 0.9069 0.9071 0.9072 0.9074 0.9075
2226.000000 0.9077 0.9078 0.9080 0.9081 0.9081
2221.000000 0.9071 0.9073 0.9074 0.9076 0.9077
2216.000000 0.9079 0.9081 0.9083 0.9084 0.9086
2211.000000 0.9087 0.9089 0.9090 0.9092 0.9092
2206.000000 0.9095 0.9095 0.9098 0.9099 0.9101
2201.000000 0.9102 0.9104 0.9106 0.9108 0.9109
2196.000000 0.9109 0.9101 0.9114 0.9112 0.9104
2191.000000 0.9105 0.9107 0.9108 0.9109 0.9110
2186.000000 0.9111 0.9111 0.9120 0.9117 0.9113
2181.000000 0.9114 0.9115 0.9115 0.9127 0.9130
2176.000000 0.9131 0.9131 0.9132 0.9133 0.9135
2171.000000 0.9135 0.9136 0.9134 0.9124 0.9125
2166.000000 0.9126 0.9126 0.9127 0.9128 0.9129
2161.000000 0.9129 0.9130 0.9130 0.9130 0.9130
2156.000000 0.9130 0.9130 0.9130 0.9130 0.9130
2151.000000 0.9130 0.9130 0.9130 0.9130 0.9130
2146.000000 0.9130 0.9130 0.9130 0.9129 0.9129
2141.000000 0.9129 0.9129 0.9129 0.9129 0.9129
2136.000000 0.9129 0.9129 0.9129 0.9129 0.9129
2131.000000 0.9129 0.9129 0.9129 0.9129 0.9129
2126.000000 0.9129 0.9129 0.9129 0.9129 0.9119
2121.000000 0.9129 0.9133 0.9133 0.9137 0.9138
2116.000000 0.9140 0.9141 0.9143 0.9144 0.9145
2111.000000 0.9146 0.9148 0.9149 0.9151 0.9152
2106.000000 0.9154 0.9155 0.9156 0.9157 0.9159
2101.000000 0.9160 0.9162 0.9164 0.9156 0.9152
2096.000000 0.9164 0.9167 0.9156 0.9166 0.9169
2091.000000 0.9169 0.9170 0.9170 0.9170 0.9170
2086.000000 0.9171 0.9171 0.9172 0.9172 0.9173
2081.000000 0.9173 0.9174 0.9174 0.9175 0.9175
2076.000000 0.9175 0.9175 0.9176 0.9176 0.9177
2071.000000 0.9177 0.9177 0.9177 0.9177 0.9177
2066.000000 0.9177 0.9176 0.9176 0.9176 0.9176
2061.000000 0.9176 0.9176 0.9176 0.9176 0.9179
2056.000000 0.9189 0.9189 0.9189 0.9189 0.9183
2051.000000 0.9182 0.9189 0.9182 0.9176 0.9176
2046.000000 0.9176 0.9176 0.9176 0.9176 0.9177
2041.000000 0.9177 0.9177 0.9177 0.9178 0.9178
2036.000000 0.9178 0.9178 0.9178 0.9178 0.9178
2031.000000 0.9177 0.9177 0.9177 0.9181 0.9185
2026.000000 0.9176 0.9182 0.9189 0.9188 0.9188
2021.000000 0.9188 0.9188 0.9187 0.9186 0.9185
2016.000000 0.9184 0.9182 0.9181 0.9179 0.9178
2011.000000 0.9177 0.9176 0.9173 0.9172 0.9168
2006.000000 0.9165 0.9161 0.9157 0.9152 0.9148
2001.000000 0.9140 0.9132 0.9126 0.9112 0.9097
1996.000000 0.9089 0.9079 0.9072 0.9065 0.9056
1991.000000 0.9047 0.9042 0.9036 0.9030 0.9024
1986.000000 0.9008 0.9001 0.8995 0.8989 0.8987
1981.000000 0.8985 0.8982 0.8977 0.8963 0.8959
1976.000000 0.8956 0.8953 0.8952 0.8952 0.8952
1971.000000 0.8952 0.8952 0.8952 0.8952 0.8952
1966.000000 0.8960 0.8963 0.8965 0.8987 0.9072
1961.000000 0.9174 0.9227 0.9196 0.9165 0.9135
1956.000000 0.9105 0.9082 0.9057 0.9046 0.9034
1951.000000 0.9023 0.9010 0.8988 0.8980 0.8980
1946.000000 0.8980 0.8980 0.8980 0.8981 0.8982
1941.000000 0.8982 0.8983 0.8983 0.8984 0.8985
1936.000000 0.8985 0.8985 0.8985 0.8985 0.8980
1931.000000 0.8977 0.8974 0.8970 0.8967 0.8966
1926.000000 0.8964 0.8963 0.8962 0.8960 0.8958
1921.000000 0.8957 0.8955 0.8954 0.8952 0.8951
1916.000000 0.8950 0.8948 0.8947 0.8946 0.8946
1911.000000 0.8945 0.8943 0.8943 0.8942 0.8951
1906.000000 0.8952 0.8952 0.8952 0.8952 0.8954
1901.000000 0.8955 0.8955 0.8955 0.8957 0.8958
1896.000000 0.8958 0.8954 0.8950 0.8945 0.8942
1891.000000 0.8933 0.8921 0.8916 0.8912 0.8908
1886.000000 0.8905 0.8901 0.8904 0.8905 0.8900
1881.000000 0.8898 0.8895 0.8891 0.8889 0.8886
1876.000000 0.8883 0.8892 0.8889 0.8887 0.8884
1871.000000 0.8881 0.8878 0.8873 0.8868 0.8863
1866.000000 0.8860 0.8856 0.8852 0.8847 0.8843
1861.000000 0.8839 0.8836 0.8832 0.8828 0.8832
1856.000000 0.8825 0.8816 0.8813 0.8808 0.8803
1851.000000 0.8800 0.8797 0.8793 0.8789 0.8786
1846.000000 0.8782 0.8779 0.8768 0.8768 0.8769
1841.000000 0.8766 0.8762 0.8758 0.8755 0.8751
1836.000000 0.8742 0.8729 0.8724 0.8719 0.8712
1831.000000 0.8707 0.8702 0.8697 0.8690 0.8683
1826.000000 0.8674 0.8664 0.8655 0.8645 0.8637
1821.000000 0.8628 0.8618 0.8621 0.8612 0.8603
1816.000000 0.8594 0.8577 0.8558 0.8538 0.8521
1811.000000 0.8502 0.8483 0.8460 0.8432 0.8394
