##TITLE=Acetonitrile, trichloro-
##JCAMP-DX=4.24
##DATA TYPE=INFRARED SPECTRUM
##CLASS=COBLENTZ
##ORIGIN=DOW CHEMICAL COMPANY
##OWNER=Copyright (C) 1987 by the Coblentz Society
Collection (C) 2018 copyright by the U.S. Secretary of Commerce
on behalf of the United States of America. All rights reserved.
##DATE=1964
##NAMES=trichloroacetonitrile
##CAS REGISTRY NO=545-06-2
##MOLFORM=C2 Cl3 N
##SOURCE REFERENCE=COBLENTZ NO. 8816
##$NIST SOURCE=COBLENTZ
##$NIST IMAGE=cob8816
##SPECTROMETER/DATA SYSTEM=DOW KBr FOREPRISM-GRATING
##INSTRUMENT PARAMETERS=GRATING CHANGED AT 5.0, 7.5, 15.0 MICRON
##STATE=GAS (60 mmHg, N2 ADDED, TOTAL PRESSURE 600 mmHg)
##PATH LENGTH=5 CM
##SAMPLING PROCEDURE=TRANSMISSION
##RESOLUTION=2
##DATA PROCESSING=DIGITIZED BY COBLENTZ SOCIETY (BATCH II) FROM HARD COPY
##XUNITS=1/CM
##YUNITS=TRANSMITTANCE
##XFACTOR=1.0
##YFACTOR=1
##FIRSTX=456
##LASTX=3800
##FIRSTY=0.815
##MAXX=3800
##MINX=456
##MAXY=0.8813
##MINY=0.0019
##NPOINTS=3345
##XYDATA=(X++(Y..Y))
456.000000 0.8150 0.8139 0.8123 0.8108 0.8089
461.000000 0.8070 0.8050 0.8030 0.8001 0.7970
466.000000 0.7936 0.7896 0.7856 0.7815 0.7775
471.000000 0.7734 0.7692 0.7651 0.7610 0.7544
476.000000 0.7474 0.7403 0.7324 0.7244 0.7160
481.000000 0.7016 0.6851 0.6629 0.6317 0.5928
486.000000 0.5425 0.4922 0.4419 0.3917 0.3414
491.000000 0.2957 0.2960 0.2973 0.3118 0.3228
496.000000 0.3331 0.3380 0.3781 0.4534 0.5287
501.000000 0.6039 0.6792 0.7853 0.8062 0.8166
506.000000 0.8221 0.8265 0.8300 0.8328 0.8352
511.000000 0.8368 0.8382 0.8392 0.8402 0.8409
516.000000 0.8411 0.8413 0.8413 0.8413 0.8411
521.000000 0.8407 0.8403 0.8399 0.8395 0.8391
526.000000 0.8387 0.8379 0.8370 0.8361 0.8352
531.000000 0.8343 0.8332 0.8321 0.8310 0.8299
536.000000 0.8288 0.8279 0.8275 0.8271 0.8275
541.000000 0.8285 0.8294 0.8305 0.8316 0.8327
546.000000 0.8337 0.8348 0.8359 0.8370 0.8381
551.000000 0.8392 0.8401 0.8411 0.8420 0.8429
556.000000 0.8438 0.8447 0.8456 0.8464 0.8473
561.000000 0.8481 0.8488 0.8491 0.8495 0.8498
566.000000 0.8502 0.8505 0.8509 0.8513 0.8516
571.000000 0.8520 0.8523 0.8526 0.8529 0.8533
576.000000 0.8536 0.8539 0.8542 0.8538 0.8549
581.000000 0.8552 0.8554 0.8557 0.8559 0.8562
586.000000 0.8565 0.8567 0.8570 0.8572 0.8575
591.000000 0.8578 0.8581 0.8584 0.8586 0.8585
596.000000 0.8584 0.8583 0.8582 0.8581 0.8580
601.000000 0.8579 0.8577 0.8574 0.8572 0.8569
606.000000 0.8567 0.8564 0.8561 0.8556 0.8551
611.000000 0.8546 0.8541 0.8537 0.8531 0.8524
616.000000 0.8516 0.8509 0.8501 0.8493 0.8482
621.000000 0.8469 0.8455 0.8441 0.8427 0.8411
626.000000 0.8382 0.8353 0.8323 0.8273 0.8211
631.000000 0.8124 0.8050 0.7981 0.7932 0.7885
636.000000 0.7844 0.7793 0.7702 0.7612 0.7607
641.000000 0.7598 0.7654 0.7739 0.7805 0.7867
646.000000 0.7931 0.7995 0.8049 0.8100 0.8151
651.000000 0.8201 0.8252 0.8299 0.8344 0.8389
656.000000 0.8439 0.8494 0.8537 0.8580 0.8601
661.000000 0.8611 0.8619 0.8625 0.8631 0.8640
666.000000 0.8650 0.8690 0.8736 0.8762 0.8782
671.000000 0.8791 0.8799 0.8800 0.8802 0.8803
676.000000 0.8802 0.8801 0.8791 0.8799 0.8796
681.000000 0.8793 0.8790 0.8786 0.8780 0.8774
686.000000 0.8768 0.8762 0.8756 0.8748 0.8740
691.000000 0.8732 0.8723 0.8715 0.8707 0.8698
696.000000 0.8689 0.8680 0.8671 0.8662 0.8652
701.000000 0.8642 0.8632 0.8623 0.8613 0.8603
706.000000 0.8593 0.8580 0.8567 0.8554 0.8541
711.000000 0.8528 0.8512 0.8493 0.8474 0.8454
716.000000 0.8435 0.8416 0.8393 0.8368 0.8343
721.000000 0.8318 0.8288 0.8251 0.8214 0.8177
726.000000 0.8136 0.8094 0.8052 0.8009 0.7931
731.000000 0.7843 0.7754 0.7666 0.7577 0.7488
736.000000 0.7400 0.7311 0.7222 0.7134 0.6996
741.000000 0.6861 0.6772 0.6690 0.6627 0.6567
746.000000 0.6502 0.6483 0.6465 0.6453 0.6463
751.000000 0.6477 0.6497 0.6522 0.6540 0.6540
756.000000 0.6539 0.6532 0.6519 0.6516 0.6475
761.000000 0.6444 0.6401 0.6357 0.6299 0.6230
766.000000 0.6154 0.6046 0.5827 0.5567 0.5306
771.000000 0.5046 0.4785 0.4525 0.4265 0.3758
776.000000 0.3558 0.3410 0.3281 0.3145 0.3005
781.000000 0.2847 0.2650 0.1885 0.1075 0.0369
786.000000 0.0232 0.0128 0.0054 0.0035 0.0019
791.000000 0.0019 0.0019 0.0020 0.0020 0.0022
796.000000 0.0023 0.0027 0.0025 0.0026 0.0028
801.000000 0.0033 0.0038 0.0048 0.0059 0.0071
806.000000 0.0085 0.0172 0.0263 0.0383 0.1283
811.000000 0.2131 0.3017 0.3903 0.4790 0.5617
816.000000 0.5804 0.6309 0.6608 0.6961 0.7160
821.000000 0.7416 0.7886 0.8011 0.8066 0.8120
826.000000 0.8175 0.8232 0.8289 0.8343 0.8381
831.000000 0.8419 0.8456 0.8494 0.8516 0.8538
836.000000 0.8559 0.8581 0.8600 0.8611 0.8622
841.000000 0.8634 0.8642 0.8646 0.8649 0.8652
846.000000 0.8655 0.8658 0.8659 0.8661 0.8663
851.000000 0.8664 0.8665 0.8664 0.8662 0.8682
856.000000 0.8659 0.8657 0.8655 0.8654 0.8652
861.000000 0.8650 0.8648 0.8645 0.8642 0.8640
866.000000 0.8631 0.8618 0.8606 0.8585 0.8560
871.000000 0.8529 0.8499 0.8467 0.8433 0.8400
876.000000 0.8366 0.8333 0.8313 0.8292 0.8256
881.000000 0.8276 0.8282 0.8287 0.8308 0.8332
886.000000 0.8357 0.8396 0.8435 0.8477 0.8519
891.000000 0.8549 0.8572 0.8594 0.8606 0.8616
896.000000 0.8626 0.8636 0.8646 0.8652 0.8659
901.000000 0.8666 0.8672 0.8679 0.8683 0.8686
906.000000 0.8690 0.8693 0.8696 0.8699 0.8702
911.000000 0.8706 0.8709 0.8711 0.8712 0.8714
916.000000 0.8716 0.8718 0.8709 0.8721 0.8718
921.000000 0.8715 0.8712 0.8709 0.8707 0.8703
926.000000 0.8700 0.8697 0.8690 0.8675 0.8661
931.000000 0.8646 0.8631 0.8609 0.8579 0.8548
936.000000 0.8518 0.8488 0.8458 0.8415 0.8369
941.000000 0.8323 0.8270 0.8205 0.8140 0.8076
946.000000 0.8001 0.7926 0.7851 0.7777 0.7699
951.000000 0.7561 0.7423 0.7313 0.7215 0.7103
956.000000 0.6863 0.6690 0.6517 0.6343 0.6170
961.000000 0.5997 0.5823 0.5650 0.5477 0.5304
966.000000 0.5123 0.5096 0.5087 0.5082 0.5074
971.000000 0.4961 0.4675 0.4286 0.3917 0.3901
976.000000 0.4307 0.4765 0.5223 0.5681 0.6289
981.000000 0.6484 0.6613 0.6744 0.6880 0.7111
986.000000 0.7325 0.7727 0.8285 0.8386 0.8434
991.000000 0.8474 0.8500 0.8523 0.8539 0.8554
996.000000 0.8560 0.8565 0.8564 0.8577 0.8557
1001.000000 0.8551 0.8545 0.8537 0.8528 0.8510
1006.000000 0.8486 0.8461 0.8398 0.8330 0.8258
1011.000000 0.8130 0.7965 0.7732 0.7523 0.7401
1016.000000 0.7047 0.6602 0.6158 0.5713 0.4838
1021.000000 0.4255 0.3673 0.3090 0.2508 0.1926
1026.000000 0.1738 0.1739 0.1738 0.1821 0.1821
1031.000000 0.1876 0.1663 0.0871 0.0352 0.0781
1036.000000 0.2546 0.2871 0.2772 0.2178 0.1579
1041.000000 0.1677 0.1803 0.2213 0.3205 0.4197
1046.000000 0.5188 0.6180 0.7366 0.7570 0.7688
1051.000000 0.7775 0.7825 0.7870 0.7897 0.7924
1056.000000 0.7954 0.8001 0.8047 0.8093 0.8135
1061.000000 0.8178 0.8217 0.8248 0.8280 0.8311
1066.000000 0.8341 0.8370 0.8400 0.8432 0.8466
1071.000000 0.8499 0.8533 0.8568 0.8603 0.8637
1076.000000 0.8666 0.8694 0.8711 0.8724 0.8732
1081.000000 0.8740 0.8747 0.8750 0.8753 0.8755
1086.000000 0.8757 0.8759 0.8761 0.8762 0.8763
1091.000000 0.8764 0.8764 0.8764 0.8764 0.8764
1096.000000 0.8764 0.8764 0.8763 0.8762 0.8761
1101.000000 0.8760 0.8755 0.8748 0.8742 0.8736
1106.000000 0.8729 0.8723 0.8717 0.8710 0.8704
1111.000000 0.8698 0.8696 0.8694 0.8692 0.8692
1116.000000 0.8700 0.8709 0.8715 0.8719 0.8723
1121.000000 0.8726 0.8730 0.8730 0.8730 0.8730
1126.000000 0.8731 0.8731 0.8731 0.8731 0.8729
1131.000000 0.8726 0.8724 0.8723 0.8722 0.8722
1136.000000 0.8721 0.8721 0.8721 0.8720 0.8720
1141.000000 0.8724 0.8728 0.8732 0.8737 0.8743
1146.000000 0.8750 0.8757 0.8763 0.8769 0.8773
1151.000000 0.8777 0.8781 0.8784 0.8788 0.8791
1156.000000 0.8791 0.8791 0.8791 0.8791 0.8789
1161.000000 0.8786 0.8783 0.8779 0.8772 0.8766
1166.000000 0.8759 0.8752 0.8745 0.8736 0.8727
1171.000000 0.8719 0.8710 0.8701 0.8687 0.8671
1176.000000 0.8655 0.8638 0.8622 0.8607 0.8592
1181.000000 0.8579 0.8572 0.8597 0.8558 0.8566
1186.000000 0.8574 0.8584 0.8601 0.8617 0.8634
1191.000000 0.8651 0.8665 0.8679 0.8692 0.8705
1196.000000 0.8719 0.8729 0.8732 0.8736 0.8739
1201.000000 0.8743 0.8746 0.8748 0.8749 0.8750
1206.000000 0.8750 0.8751 0.8747 0.8741 0.8735
1211.000000 0.8729 0.8723 0.8715 0.8705 0.8695
1216.000000 0.8685 0.8676 0.8662 0.8649 0.8644
1221.000000 0.8648 0.8655 0.8665 0.8679 0.8695
1226.000000 0.8717 0.8737 0.8751 0.8765 0.8774
1231.000000 0.8777 0.8781 0.8784 0.8784 0.8783
1236.000000 0.8782 0.8780 0.8773 0.8766 0.8759
1241.000000 0.8752 0.8745 0.8736 0.8727 0.8717
1246.000000 0.8708 0.8696 0.8684 0.8672 0.8660
1251.000000 0.8647 0.8635 0.8623 0.8611 0.8598
1256.000000 0.8586 0.8574 0.8561 0.8549 0.8536
1261.000000 0.8523 0.8511 0.8495 0.8477 0.8456
1266.000000 0.8431 0.8407 0.8374 0.8339 0.8311
1271.000000 0.8287 0.8262 0.8238 0.8213 0.8189
1276.000000 0.8165 0.8147 0.8143 0.8139 0.8140
1281.000000 0.8125 0.8159 0.8176 0.8199 0.8232
1286.000000 0.8274 0.8322 0.8364 0.8407 0.8443
1291.000000 0.8475 0.8506 0.8529 0.8553 0.8576
1296.000000 0.8597 0.8606 0.8614 0.8623 0.8631
1301.000000 0.8638 0.8644 0.8651 0.8656 0.8662
1306.000000 0.8667 0.8672 0.8678 0.8683 0.8685
1311.000000 0.8687 0.8689 0.8691 0.8693 0.8695
1316.000000 0.8697 0.8699 0.8700 0.8701 0.8701
1321.000000 0.8702 0.8702 0.8703 0.8703 0.8704
1326.000000 0.8704 0.8704 0.8705 0.8705 0.8705
1331.000000 0.8705 0.8705 0.8705 0.8705 0.8705
1336.000000 0.8705 0.8705 0.8705 0.8703 0.8700
1341.000000 0.8698 0.8696 0.8694 0.8692 0.8690
1346.000000 0.8683 0.8677 0.8670 0.8663 0.8656
1351.000000 0.8649 0.8642 0.8632 0.8623 0.8613
1356.000000 0.8604 0.8599 0.8597 0.8595 0.8592
1361.000000 0.8590 0.8590 0.8591 0.8592 0.8593
1366.000000 0.8594 0.8597 0.8599 0.8601 0.8603
1371.000000 0.8606 0.8607 0.8607 0.8608 0.8609
1376.000000 0.8612 0.8615 0.8619 0.8622 0.8625
1381.000000 0.8625 0.8624 0.8623 0.8622 0.8623
1386.000000 0.8623 0.8665 0.8625 0.8626 0.8630
1391.000000 0.8633 0.8636 0.8641 0.8646 0.8652
1396.000000 0.8657 0.8661 0.8665 0.8669 0.8673
1401.000000 0.8677 0.8680 0.8684 0.8688 0.8692
1406.000000 0.8697 0.8702 0.8705 0.8701 0.8698
1411.000000 0.8694 0.8691 0.8687 0.8683 0.8675
1416.000000 0.8666 0.8656 0.8647 0.8638 0.8628
1421.000000 0.8628 0.8641 0.8653 0.8658 0.8662
1426.000000 0.8665 0.8667 0.8665 0.8662 0.8659
1431.000000 0.8657 0.8651 0.8646 0.8640 0.8635
1436.000000 0.8629 0.8624 0.8618 0.8614 0.8610
1441.000000 0.8607 0.8603 0.8599 0.8594 0.8590
1446.000000 0.8585 0.8580 0.8576 0.8571 0.8566
1451.000000 0.8561 0.8557 0.8553 0.8549 0.8545
1456.000000 0.8541 0.8542 0.8543 0.8544 0.8546
1461.000000 0.8547 0.8549 0.8553 0.8557 0.8561
1466.000000 0.8565 0.8569 0.8572 0.8572 0.8571
1471.000000 0.8570 0.8569 0.8572 0.8584 0.8596
1476.000000 0.8609 0.8621 0.8633 0.8644 0.8652
1481.000000 0.8652 0.8652 0.8654 0.8656 0.8653
1486.000000 0.8650 0.8647 0.8644 0.8641 0.8638
1491.000000 0.8635 0.8632 0.8629 0.8626 0.8624
1496.000000 0.8623 0.8622 0.8620 0.8619 0.8618
1501.000000 0.8616 0.8613 0.8599 0.8585 0.8562
1506.000000 0.8544 0.8536 0.8564 0.8592 0.8621
1511.000000 0.8649 0.8654 0.8653 0.8644 0.8635
1516.000000 0.8627 0.8619 0.8610 0.8602 0.8598
1521.000000 0.8597 0.8596 0.8597 0.8598 0.8599
1526.000000 0.8600 0.8596 0.8592 0.8588 0.8582
1531.000000 0.8577 0.8572 0.8565 0.8557 0.8549
1536.000000 0.8541 0.8530 0.8519 0.8509 0.8499
1541.000000 0.8509 0.8521 0.8533 0.8545 0.8558
1546.000000 0.8570 0.8582 0.8587 0.8592 0.8596
1551.000000 0.8587 0.8574 0.8561 0.8549 0.8536
1556.000000 0.8521 0.8506 0.8491 0.8481 0.8499
1561.000000 0.8516 0.8528 0.8539 0.8530 0.8522
1566.000000 0.8506 0.8489 0.8467 0.8442 0.8417
1571.000000 0.8395 0.8373 0.8351 0.8331 0.8313
1576.000000 0.8296 0.8278 0.8261 0.8249 0.8236
1581.000000 0.8225 0.8218 0.8210 0.8203 0.8192
1586.000000 0.8199 0.8198 0.8197 0.8198 0.8203
1591.000000 0.8207 0.8212 0.8216 0.8221 0.8227
1596.000000 0.8240 0.8252 0.8265 0.8277 0.8290
1601.000000 0.8308 0.8327 0.8346 0.8364 0.8388
1606.000000 0.8414 0.8431 0.8447 0.8463 0.8472
1611.000000 0.8472 0.8472 0.8474 0.8475 0.8483
1616.000000 0.8502 0.8523 0.8543 0.8559 0.8576
1621.000000 0.8592 0.8606 0.8618 0.8629 0.8641
1626.000000 0.8652 0.8668 0.8677 0.8675 0.8672
1631.000000 0.8669 0.8662 0.8656 0.8650 0.8647
1636.000000 0.8650 0.8659 0.8685 0.8685 0.8697
1641.000000 0.8694 0.8691 0.8686 0.8680 0.8673
1646.000000 0.8667 0.8654 0.8640 0.8623 0.8603
1651.000000 0.8582 0.8583 0.8608 0.8630 0.8650
1656.000000 0.8657 0.8663 0.8657 0.8651 0.8645
1661.000000 0.8639 0.8633 0.8629 0.8625 0.8621
1666.000000 0.8618 0.8614 0.8610 0.8608 0.8607
1671.000000 0.8606 0.8605 0.8606 0.8606 0.8601
1676.000000 0.8593 0.8585 0.8571 0.8555 0.8545
1681.000000 0.8542 0.8551 0.8561 0.8579 0.8594
1686.000000 0.8601 0.8609 0.8616 0.8616 0.8613
1691.000000 0.8611 0.8602 0.8594 0.8585 0.8569
1696.000000 0.8552 0.8538 0.8530 0.8523 0.8523
1701.000000 0.8525 0.8527 0.8529 0.8532 0.8535
1706.000000 0.8538 0.8541 0.8540 0.8538 0.8536
1711.000000 0.8535 0.8533 0.8531 0.8529 0.8527
1716.000000 0.8531 0.8537 0.8544 0.8555 0.8569
1721.000000 0.8577 0.8579 0.8573 0.8567 0.8560
1726.000000 0.8551 0.8539 0.8528 0.8515 0.8500
1731.000000 0.8485 0.8470 0.8474 0.8482 0.8489
1736.000000 0.8497 0.8505 0.8512 0.8519 0.8526
1741.000000 0.8530 0.8532 0.8535 0.8538 0.8540
1746.000000 0.8542 0.8544 0.8545 0.8547 0.8549
1751.000000 0.8551 0.8552 0.8554 0.8556 0.8557
1756.000000 0.8559 0.8561 0.8562 0.8564 0.8562
1761.000000 0.8560 0.8558 0.8557 0.8555 0.8553
1766.000000 0.8551 0.8550 0.8550 0.8555 0.8560
1771.000000 0.8566 0.8572 0.8578 0.8585 0.8586
1776.000000 0.8588 0.8589 0.8591 0.8592 0.8593
1781.000000 0.8593 0.8593 0.8593 0.8593 0.8593
1786.000000 0.8594 0.8595 0.8596 0.8598 0.8599
1791.000000 0.8601 0.8602 0.8602 0.8603 0.8604
1796.000000 0.8604 0.8605 0.8606 0.8606 0.8606
1801.000000 0.8606 0.8606 0.8606 0.8606 0.8606
1806.000000 0.8605 0.8603 0.8602 0.8600 0.8598
1811.000000 0.8592 0.8587 0.8581 0.8575 0.8569
1816.000000 0.8562 0.8551 0.8531 0.8503 0.8475
1821.000000 0.8446 0.8418 0.8389 0.8359 0.8347
1826.000000 0.8336 0.8330 0.8333 0.8330 0.8358
1831.000000 0.8384 0.8410 0.8438 0.8474 0.8512
1836.000000 0.8545 0.8578 0.8596 0.8603 0.8610
1841.000000 0.8617 0.8625 0.8629 0.8632 0.8635
1846.000000 0.8637 0.8640 0.8642 0.8643 0.8645
1851.000000 0.8647 0.8649 0.8650 0.8652 0.8653
1856.000000 0.8654 0.8655 0.8656 0.8657 0.8658
1861.000000 0.8659 0.8660 0.8661 0.8661 0.8662
1866.000000 0.8662 0.8663 0.8663 0.8663 0.8664
1871.000000 0.8664 0.8665 0.8665 0.8666 0.8666
1876.000000 0.8666 0.8666 0.8666 0.8666 0.8666
1881.000000 0.8666 0.8666 0.8666 0.8666 0.8666
1886.000000 0.8666 0.8666 0.8666 0.8667 0.8667
1891.000000 0.8667 0.8667 0.8667 0.8667 0.8668
1896.000000 0.8669 0.8669 0.8670 0.8670 0.8671
1901.000000 0.8671 0.8672 0.8673 0.8673 0.8674
1906.000000 0.8674 0.8675 0.8675 0.8676 0.8676
1911.000000 0.8677 0.8678 0.8678 0.8679 0.8679
1916.000000 0.8680 0.8680 0.8681 0.8681 0.8682
1921.000000 0.8682 0.8683 0.8683 0.8684 0.8684
1926.000000 0.8685 0.8685 0.8686 0.8686 0.8687
1931.000000 0.8687 0.8688 0.8688 0.8689 0.8689
1936.000000 0.8690 0.8690 0.8691 0.8691 0.8692
1941.000000 0.8690 0.8693 0.8694 0.8694 0.8695
1946.000000 0.8696 0.8696 0.8697 0.8698 0.8698
1951.000000 0.8699 0.8699 0.8700 0.8701 0.8701
1956.000000 0.8702 0.8702 0.8703 0.8703 0.8703
1961.000000 0.8703 0.8704 0.8704 0.8704 0.8705
1966.000000 0.8705 0.8705 0.8705 0.8706 0.8706
1971.000000 0.8706 0.8706 0.8707 0.8707 0.8707
1976.000000 0.8707 0.8708 0.8709 0.8709 0.8710
1981.000000 0.8710 0.8711 0.8711 0.8712 0.8712
1986.000000 0.8713 0.8713 0.8714 0.8714 0.8715
1991.000000 0.8715 0.8716 0.8716 0.8716 0.8715
1996.000000 0.8714 0.8713 0.8712 0.8711 0.8710
2001.000000 0.8709 0.8708 0.8707 0.8707 0.8706
2006.000000 0.8706 0.8705 0.8705 0.8704 0.8704
2011.000000 0.8703 0.8703 0.8702 0.8702 0.8701
2016.000000 0.8701 0.8700 0.8700 0.8699 0.8699
2021.000000 0.8698 0.8698 0.8697 0.8697 0.8696
2026.000000 0.8696 0.8695 0.8695 0.8694 0.8694
2031.000000 0.8693 0.8693 0.8692 0.8692 0.8691
2036.000000 0.8691 0.8690 0.8690 0.8689 0.8689
2041.000000 0.8688 0.8688 0.8687 0.8687 0.8686
2046.000000 0.8686 0.8685 0.8685 0.8684 0.8684
2051.000000 0.8684 0.8684 0.8683 0.8683 0.8682
2056.000000 0.8682 0.8681 0.8681 0.8680 0.8680
2061.000000 0.8678 0.8677 0.8676 0.8675 0.8673
2066.000000 0.8672 0.8671 0.8670 0.8668 0.8667
2071.000000 0.8665 0.8664 0.8663 0.8662 0.8660
2076.000000 0.8659 0.8658 0.8657 0.8655 0.8654
2081.000000 0.8653 0.8652 0.8650 0.8648 0.8644
2086.000000 0.8641 0.8637 0.8634 0.8630 0.8627
2091.000000 0.8623 0.8620 0.8616 0.8613 0.8609
2096.000000 0.8606 0.8602 0.8598 0.8594 0.8591
2101.000000 0.8588 0.8585 0.8583 0.8581 0.8584
2106.000000 0.8588 0.8594 0.8600 0.8608 0.8617
2111.000000 0.8625 0.8633 0.8641 0.8650 0.8659
2116.000000 0.8668 0.8677 0.8686 0.8695 0.8705
2121.000000 0.8710 0.8715 0.8717 0.8720 0.8722
2126.000000 0.8724 0.8726 0.8729 0.8729 0.8729
2131.000000 0.8729 0.8729 0.8729 0.8729 0.8729
2136.000000 0.8729 0.8729 0.8729 0.8729 0.8729
2141.000000 0.8728 0.8728 0.8728 0.8728 0.8727
2146.000000 0.8727 0.8726 0.8726 0.8725 0.8725
2151.000000 0.8724 0.8724 0.8723 0.8723 0.8722
2156.000000 0.8722 0.8721 0.8721 0.8720 0.8719
2161.000000 0.8718 0.8718 0.8717 0.8716 0.8715
2166.000000 0.8715 0.8714 0.8713 0.8712 0.8712
2171.000000 0.8711 0.8710 0.8708 0.8707 0.8706
2176.000000 0.8705 0.8703 0.8702 0.8701 0.8700
2181.000000 0.8698 0.8697 0.8695 0.8694 0.8693
2186.000000 0.8692 0.8690 0.8689 0.8687 0.8686
2191.000000 0.8685 0.8684 0.8682 0.8680 0.8678
2196.000000 0.8677 0.8675 0.8674 0.8672 0.8671
2201.000000 0.8670 0.8670 0.8672 0.8674 0.8676
2206.000000 0.8678 0.8680 0.8682 0.8685 0.8689
2211.000000 0.8694 0.8700 0.8705 0.8711 0.8716
2216.000000 0.8722 0.8725 0.8728 0.8730 0.8733
2221.000000 0.8735 0.8738 0.8737 0.8736 0.8733
2226.000000 0.8731 0.8726 0.8721 0.8713 0.8706
2231.000000 0.8695 0.8685 0.8663 0.8641 0.8610
2236.000000 0.8580 0.8542 0.8504 0.8451 0.8399
2241.000000 0.8339 0.8279 0.8209 0.8140 0.7888
2246.000000 0.7637 0.7386 0.7135 0.6883 0.6632
2251.000000 0.6381 0.6130 0.5878 0.5627 0.5375
2256.000000 0.5124 0.4873 0.4622 0.4370 0.4119
2261.000000 0.3868 0.3617 0.3532 0.3447 0.3450
2266.000000 0.3453 0.3455 0.3464 0.3813 0.4168
2271.000000 0.4777 0.5387 0.5996 0.6605 0.7214
2276.000000 0.7824 0.8264 0.8704 0.8729 0.8754
2281.000000 0.8760 0.8766 0.8771 0.8777 0.8778
2286.000000 0.8780 0.8781 0.8783 0.8784 0.8786
2291.000000 0.8787 0.8789 0.8790 0.8792 0.8793
2296.000000 0.8795 0.8797 0.8799 0.8800 0.8802
2301.000000 0.8802 0.8803 0.8804 0.8805 0.8806
2306.000000 0.8807 0.8808 0.8809 0.8810 0.8811
2311.000000 0.8812 0.8813 0.8813 0.8813 0.8812
2316.000000 0.8812 0.8812 0.8812 0.8811 0.8811
2321.000000 0.8811 0.8811 0.8810 0.8810 0.8810
2326.000000 0.8810 0.8810 0.8810 0.8810 0.8786
2331.000000 0.8810 0.8810 0.8810 0.8810 0.8810
2336.000000 0.8810 0.8809 0.8808 0.8807 0.8806
2341.000000 0.8804 0.8803 0.8802 0.8801 0.8799
2346.000000 0.8798 0.8797 0.8796 0.8795 0.8794
2351.000000 0.8792 0.8791 0.8790 0.8789 0.8787
2356.000000 0.8786 0.8785 0.8784 0.8783 0.8782
2361.000000 0.8781 0.8780 0.8779 0.8778 0.8777
2366.000000 0.8776 0.8775 0.8774 0.8773 0.8772
2371.000000 0.8771 0.8770 0.8767 0.8764 0.8759
2376.000000 0.8755 0.8750 0.8745 0.8740 0.8735
2381.000000 0.8724 0.8714 0.8696 0.8678 0.8659
2386.000000 0.8641 0.8623 0.8606 0.8588 0.8570
2391.000000 0.8552 0.8534 0.8515 0.8497 0.8482
2396.000000 0.8467 0.8454 0.8441 0.8428 0.8415
2401.000000 0.8408 0.8401 0.8399 0.8397 0.8397
2406.000000 0.8389 0.8403 0.8409 0.8439 0.8469
2411.000000 0.8495 0.8521 0.8544 0.8567 0.8588
2416.000000 0.8610 0.8629 0.8648 0.8667 0.8686
2421.000000 0.8700 0.8714 0.8726 0.8739 0.8749
2426.000000 0.8760 0.8766 0.8772 0.8775 0.8778
2431.000000 0.8780 0.8782 0.8782 0.8782 0.8782
2436.000000 0.8782 0.8782 0.8782 0.8781 0.8781
2441.000000 0.8781 0.8781 0.8780 0.8780 0.8780
2446.000000 0.8780 0.8780 0.8780 0.8779 0.8779
2451.000000 0.8779 0.8779 0.8778 0.8778 0.8777
2456.000000 0.8776 0.8775 0.8775 0.8774 0.8774
2461.000000 0.8773 0.8773 0.8772 0.8771 0.8770
2466.000000 0.8770 0.8769 0.8769 0.8768 0.8767
2471.000000 0.8766 0.8765 0.8764 0.8763 0.8762
2476.000000 0.8761 0.8760 0.8759 0.8758 0.8757
2481.000000 0.8756 0.8755 0.8754 0.8753 0.8752
