##TITLE=PROPENE, 3-IODO-
##JCAMP-DX=4.24
##DATA TYPE=INFRARED SPECTRUM
##CLASS=COBLENTZ III
##ORIGIN=DOW CHEMICAL COMPANY
##OWNER=COBLENTZ SOCIETY
Collection (C) 2018 copyright by the U.S. Secretary of Commerce
on behalf of the United States of America. All rights reserved.
##DATE=1963/07/25
##NAMES=3-iodo-1-propene
##CAS REGISTRY NO=556-56-9
##MOLFORM=C3 H5 I
##SOURCE REFERENCE=COBLENTZ NO. 10040
##$NIST SOURCE=COBLENTZ
##$NIST IMAGE=cob10040
##SPECTROMETER/DATA SYSTEM=DOW KBr FOREPRISM-GRATING
##INSTRUMENT PARAMETERS=BLAZED AT 3.5, 12.0, 20.0 MICRON, CHANGED AT 5.0, 7.5, 14.9 MICRON
##STATE=SOLUTION (10% IN CCl4 FOR 3800-1333 AND 10% IN CS2 FOR 1333-400 CM^-^1)
##PATH LENGTH=0.011, 0.011 CM
$$SPECTRAL CONTAMINATION DUE TO CCl4 AROUND 1550, AND CS2 AROUND 855 CM^-^1
##SAMPLING PROCEDURE=TRANSMISSION
##RESOLUTION=4
##DATA PROCESSING=DIGITIZED BY NIST FROM HARD COPY (FROM TWO SEGMENTS)
##XUNITS=1/CM
##YUNITS=TRANSMITTANCE
##XFACTOR=1.000000
##YFACTOR=1
##DELTAX=0.870039
##FIRSTX=379.989
##LASTX=3797.5
##FIRSTY=0.247
##MAXX=3797.5
##MINX=379.989
##MAXY=1.009
##MINY=0.138
##NPOINTS=3929
##XYDATA=(X++(Y..Y))
379.989000 0.2470 0.2460 0.2440 0.2430 0.2430
384.339193 0.2430 0.2440 0.2440 0.2460 0.2500
388.689387 0.2540 0.2570 0.2620 0.2660 0.2720
393.039580 0.2770 0.2820 0.2890 0.2890 0.2950
397.389773 0.3070 0.3220 0.3400 0.3590 0.3790
401.739967 0.3979 0.4159 0.4459 0.4908 0.5149
406.090160 0.5310 0.5570 0.5830 0.6189 0.6270
410.440354 0.6460 0.6649 0.6740 0.6919 0.7169
414.790547 0.7260 0.7300 0.7360 0.7450 0.7520
419.140740 0.7520 0.7630 0.7720 0.7750 0.7820
423.490934 0.7910 0.7940 0.7970 0.8000 0.8040
427.841127 0.8060 0.8120 0.8140 0.8170 0.8210
432.191320 0.8230 0.8230 0.8240 0.8270 0.8310
436.541514 0.8310 0.8320 0.8320 0.8350 0.8360
440.891707 0.8360 0.8380 0.8380 0.8390 0.8390
445.241901 0.8420 0.8430 0.8430 0.8440 0.8470
449.592094 0.8500 0.8500 0.8510 0.8510 0.8510
453.942287 0.8530 0.8540 0.8540 0.8540 0.8510
458.292481 0.8510 0.8550 0.8580 0.8590 0.8590
462.642674 0.8590 0.8590 0.8580 0.8580 0.8580
466.992867 0.8570 0.8570 0.8570 0.8550 0.8540
471.343061 0.8530 0.8510 0.8500 0.8500 0.8480
475.693254 0.8470 0.8460 0.8430 0.8430 0.8360
480.043448 0.8320 0.8290 0.8240 0.8210 0.8160
484.393641 0.8100 0.8040 0.7980 0.7930 0.7900
488.743834 0.7890 0.7860 0.7850 0.7850 0.7890
493.094028 0.7950 0.8040 0.8100 0.8190 0.8280
497.444221 0.8310 0.8350 0.8420 0.8470 0.8530
501.794414 0.8550 0.8570 0.8610 0.8630 0.8690
506.144608 0.8720 0.8730 0.8740 0.8780 0.8810
510.494801 0.8840 0.8850 0.8870 0.8880 0.8890
514.844994 0.8910 0.8910 0.8920 0.8920 0.8920
519.195188 0.8920 0.8920 0.8920 0.8920 0.8910
523.545381 0.8910 0.8910 0.8890 0.8890 0.8890
527.895575 0.8890 0.8890 0.8890 0.8880 0.8880
532.245768 0.8880 0.8880 0.8880 0.8880 0.8890
536.595961 0.8890 0.8910 0.8920 0.8930 0.8950
540.946155 0.8970 0.9000 0.9020 0.9030 0.9040
545.296348 0.9040 0.9060 0.9060 0.9060 0.9070
549.646541 0.9080 0.9080 0.9080 0.9100 0.9110
553.996735 0.9110 0.9110 0.9120 0.9140 0.9140
558.346928 0.9150 0.9170 0.9170 0.9180 0.9180
562.697122 0.9190 0.9210 0.9220 0.9230 0.9250
567.047315 0.9260 0.9270 0.9290 0.9300 0.9310
571.397508 0.9310 0.9330 0.9330 0.9340 0.9340
575.747702 0.9360 0.9370 0.9370 0.9370 0.9370
580.097895 0.9370 0.9370 0.9380 0.9380 0.9380
584.448088 0.9380 0.9380 0.9370 0.9370 0.9370
588.798282 0.9370 0.9370 0.9360 0.9360 0.9360
593.148475 0.9360 0.9360 0.9360 0.9360 0.9360
597.498669 0.9360 0.9360 0.9340 0.9360 0.9360
601.848862 0.9370 0.9370 0.9370 0.9380 0.9380
606.199055 0.9410 0.9420 0.9420 0.9400 0.9360
610.549249 0.9330 0.9330 0.9330 0.9330 0.9330
614.899442 0.9330 0.9330 0.9310 0.9310 0.9310
619.249635 0.9310 0.9310 0.9300 0.9290 0.9270
623.599829 0.9260 0.9250 0.9230 0.9220 0.9210
627.950022 0.9210 0.9190 0.9170 0.9140 0.9120
632.300215 0.9110 0.9080 0.9060 0.9030 0.8990
636.650409 0.8950 0.8920 0.8910 0.8840 0.8770
641.000602 0.8700 0.8650 0.8620 0.8550 0.8530
645.350796 0.8460 0.8360 0.8340 0.8240 0.8121
649.700989 0.7980 0.7870 0.7780 0.7640 0.7570
654.051182 0.7460 0.7400 0.7231 0.7081 0.6891
658.401376 0.6690 0.6130 0.5450 0.5250 0.4631
662.751569 0.4470 0.4310 0.4141 0.3931 0.3900
667.101762 0.3900 0.3930 0.4120 0.4310 0.5357
671.451956 0.5759 0.5939 0.6309 0.6808 0.7108
675.802149 0.7490 0.7720 0.8020 0.8060 0.8270
680.152343 0.8430 0.8550 0.8690 0.8740 0.8810
684.502536 0.8890 0.8950 0.9000 0.9030 0.9070
688.852729 0.9110 0.9120 0.9150 0.9190 0.9190
693.202923 0.9210 0.9220 0.9230 0.9260 0.9260
697.553116 0.9270 0.9270 0.9300 0.9310 0.9310
701.903309 0.9310 0.9310 0.9340 0.9340 0.9360
706.253503 0.9370 0.9370 0.9380 0.9400 0.9410
710.603696 0.9420 0.9420 0.9420 0.9420 0.9440
714.953890 0.9450 0.9460 0.9480 0.9490 0.9530
719.304083 0.9550 0.9550 0.9560 0.9560 0.9560
723.654276 0.9560 0.9560 0.9560 0.9570 0.9570
728.004470 0.9590 0.9600 0.9600 0.9600 0.9600
732.354663 0.9590 0.9590 0.9590 0.9590 0.9590
736.704856 0.9590 0.9590 0.9600 0.9600 0.9610
741.055050 0.9630 0.9610 0.9610 0.9610 0.9610
745.405243 0.9610 0.9630 0.9640 0.9640 0.9640
749.755436 0.9650 0.9650 0.9650 0.9640 0.9650
754.105630 0.9670 0.9670 0.9680 0.9680 0.9680
758.455823 0.9680 0.9680 0.9680 0.9680 0.9680
762.806017 0.9680 0.9680 0.9680 0.9680 0.9680
767.156210 0.9670 0.9670 0.9670 0.9650 0.9650
771.506403 0.9640 0.9640 0.9640 0.9640 0.9640
775.856597 0.9640 0.9630 0.9630 0.9630 0.9610
780.206790 0.9610 0.9600 0.9600 0.9600 0.9590
784.556983 0.9570 0.9570 0.9570 0.9570 0.9560
788.907177 0.9560 0.9560 0.9560 0.9560 0.9560
793.257370 0.9550 0.9550 0.9550 0.9550 0.9530
797.607564 0.9550 0.9550 0.9550 0.9530 0.9530
801.957757 0.9520 0.9510 0.9490 0.9480 0.9460
806.307950 0.9460 0.9450 0.9440 0.9440 0.9410
810.658144 0.9380 0.9370 0.9360 0.9340 0.9330
815.008337 0.9270 0.9230 0.9180 0.9140 0.9110
819.358530 0.8970 0.8920 0.8800 0.8680 0.8551
823.708724 0.8340 0.8270 0.8270 0.8320 0.8549
828.058917 0.8729 0.8870 0.8960 0.9079 0.9150
832.409111 0.9180 0.9190 0.9180 0.9170 0.9170
836.759304 0.9150 0.9120 0.9120 0.9070 0.9000
841.109497 0.8950 0.8910 0.8850 0.8780 0.8730
845.459691 0.8650 0.8580 0.8500 0.8400 0.8310
849.809884 0.8190 0.8090 0.8040 0.7980 0.7970
854.160077 0.7970 0.7970 0.7980 0.8000 0.8000
858.510271 0.8020 0.8050 0.8060 0.8090 0.8100
862.860464 0.8140 0.8170 0.8210 0.8240 0.8280
867.210657 0.8320 0.8340 0.8380 0.8400 0.8470
871.560851 0.8500 0.8510 0.8530 0.8550 0.8590
875.911044 0.8620 0.8650 0.8660 0.8690 0.8720
880.261238 0.8730 0.8760 0.8800 0.8810 0.8840
884.611431 0.8870 0.8910 0.8920 0.8930 0.8950
888.961624 0.8960 0.8960 0.8960 0.8960 0.8950
893.311818 0.8930 0.8920 0.8890 0.8890 0.8840
897.662011 0.8810 0.8770 0.8730 0.8591 0.8530
902.012204 0.8430 0.8360 0.8250 0.8060 0.7940
906.362398 0.7681 0.7441 0.7221 0.6812 0.6292
910.712591 0.5740 0.5230 0.4820 0.4380 0.3631
915.062785 0.2472 0.1712 0.1381 0.1380 0.1559
919.412978 0.1900 0.2320 0.2909 0.3030 0.3669
923.763171 0.4278 0.4908 0.5328 0.5908 0.6388
928.113365 0.6550 0.6810 0.7080 0.7250 0.7410
932.463558 0.7450 0.7590 0.7749 0.7909 0.8089
936.813751 0.8230 0.8350 0.8420 0.8540 0.8660
941.163945 0.8740 0.8810 0.8850 0.8920 0.8930
945.514138 0.8950 0.8990 0.9000 0.9030 0.9040
949.864332 0.9060 0.9070 0.9070 0.9070 0.9070
954.214525 0.9060 0.9040 0.9030 0.9020 0.9000
958.564718 0.8990 0.8950 0.8920 0.8870 0.8840
962.914912 0.8800 0.8740 0.8720 0.8650 0.8590
967.265105 0.8540 0.8500 0.8361 0.8231 0.8041
971.615298 0.7870 0.7860 0.7610 0.7270 0.6931
975.965492 0.6471 0.6101 0.5492 0.5121 0.4911
980.315685 0.4910 0.5100 0.5740 0.6200 0.6609
984.665878 0.6929 0.7359 0.7719 0.7999 0.8169
989.016072 0.8350 0.8510 0.8650 0.8730 0.8810
993.366265 0.8880 0.8930 0.9000 0.9060 0.9110
997.716459 0.9150 0.9210 0.9250 0.9290 0.9310
1002.066652 0.9340 0.9360 0.9370 0.9400 0.9420
1006.416845 0.9450 0.9460 0.9480 0.9480 0.9490
1010.767039 0.9510 0.9510 0.9510 0.9510 0.9520
1015.117232 0.9520 0.9520 0.9520 0.9530 0.9550
1019.467425 0.9550 0.9550 0.9560 0.9560 0.9560
1023.817619 0.9560 0.9560 0.9550 0.9550 0.9530
1028.167812 0.9520 0.9520 0.9520 0.9480 0.9460
1032.518006 0.9460 0.9440 0.9410 0.9400 0.9370
1036.868199 0.9340 0.9340 0.9330 0.9260 0.9180
1041.218392 0.9140 0.9100 0.9040 0.8990 0.8960
1045.568586 0.8930 0.8920 0.8930 0.8960 0.9000
1049.918779 0.9040 0.9100 0.9150 0.9210 0.9220
1054.268972 0.9250 0.9260 0.9300 0.9340 0.9360
1058.619166 0.9380 0.9410 0.9440 0.9460 0.9490
1062.969359 0.9490 0.9510 0.9510 0.9520 0.9560
1067.319553 0.9560 0.9570 0.9590 0.9590 0.9600
1071.669746 0.9600 0.9600 0.9600 0.9590 0.9600
1076.019939 0.9610 0.9630 0.9630 0.9610 0.9610
1080.370133 0.9610 0.9600 0.9600 0.9600 0.9590
1084.720326 0.9590 0.9590 0.9590 0.9590 0.9590
1089.070519 0.9590 0.9590 0.9590 0.9590 0.9590
1093.420713 0.9590 0.9600 0.9610 0.9610 0.9630
1097.770906 0.9630 0.9630 0.9630 0.9640 0.9640
1102.121099 0.9640 0.9640 0.9640 0.9630 0.9630
1106.471293 0.9630 0.9610 0.9600 0.9600 0.9590
1110.821486 0.9570 0.9560 0.9560 0.9560 0.9520
1115.171680 0.9520 0.9510 0.9480 0.9460 0.9450
1119.521873 0.9440 0.9420 0.9410 0.9370 0.9360
1123.872066 0.9340 0.9300 0.9260 0.9230 0.9190
1128.222260 0.9150 0.9140 0.9060 0.8990 0.8890
1132.572453 0.8850 0.8760 0.8720 0.8571 0.8431
1136.922646 0.8310 0.8040 0.7910 0.7610 0.7260
1141.272840 0.6821 0.6281 0.5971 0.5312 0.4483
1145.623033 0.3640 0.3170 0.2661 0.2161 0.1651
1149.973227 0.1650 0.2158 0.2648 0.3148 0.3608
1154.323420 0.4140 0.4650 0.5150 0.6039 0.6499
1158.673613 0.6680 0.6929 0.7149 0.7369 0.7569
1163.023807 0.7650 0.7780 0.7930 0.8010 0.8130
1167.374000 0.8160 0.8240 0.8310 0.8400 0.8430
1171.724193 0.8550 0.8550 0.8590 0.8630 0.8680
1176.074387 0.8720 0.8740 0.8740 0.8740 0.8730
1180.424580 0.8720 0.8650 0.8550 0.8510 0.8360
1184.774774 0.8120 0.7970 0.7970 0.8050 0.8249
1189.124967 0.8480 0.8720 0.8920 0.9100 0.9120
1193.475160 0.9190 0.9230 0.9250 0.9270 0.9290
1197.825354 0.9290 0.9300 0.9310 0.9310 0.9330
1202.175547 0.9330 0.9330 0.9330 0.9340 0.9360
1206.525740 0.9380 0.9410 0.9420 0.9450 0.9460
1210.875934 0.9490 0.9530 0.9560 0.9570 0.9590
1215.226127 0.9600 0.9610 0.9610 0.9630 0.9630
1219.576320 0.9640 0.9650 0.9650 0.9670 0.9680
1223.926514 0.9680 0.9700 0.9700 0.9700 0.9700
1228.276707 0.9700 0.9700 0.9710 0.9700 0.9700
1232.626901 0.9700 0.9710 0.9700 0.9700 0.9710
1236.977094 0.9710 0.9710 0.9700 0.9700 0.9710
1241.327287 0.9720 0.9720 0.9720 0.9720 0.9710
1245.677481 0.9710 0.9710 0.9700 0.9700 0.9700
1250.027674 0.9680 0.9700 0.9680 0.9680 0.9680
1254.377867 0.9680 0.9680 0.9680 0.9680 0.9680
1258.728061 0.9680 0.9680 0.9670 0.9650 0.9640
1263.078254 0.9640 0.9630 0.9610 0.9600 0.9590
1267.428448 0.9590 0.9590 0.9590 0.9590 0.9570
1271.778641 0.9570 0.9590 0.9590 0.9570 0.9570
1276.128834 0.9560 0.9560 0.9560 0.9530 0.9530
1280.479028 0.9510 0.9480 0.9450 0.9420 0.9410
1284.829221 0.9380 0.9370 0.9340 0.9300 0.9270
1289.179414 0.9250 0.9190 0.9140 0.9120 0.9110
1293.529608 0.9140 0.9170 0.9210 0.9250 0.9270
1297.879801 0.9330 0.9340 0.9360 0.9380 0.9410
1302.229995 0.9410 0.9420 0.9440 0.9450 0.9450
1306.580188 0.9450 0.9460 0.9460 0.9480 0.9480
1310.930381 0.9480 0.9480 0.9480 0.9480 0.9480
1315.280575 0.9480 0.9480 0.9480 0.9490 0.9490
1319.630768 0.9510 0.9550 0.9550 0.9530 0.9530
1323.980961 0.9520 0.9520 0.9520 0.9520 0.9510
1328.331155 0.9510 0.9490 0.9480 0.9450 0.9400
1332.681348 0.9380 0.9380 0.9370 0.9370 0.9360
1337.031541 0.9360 0.9340 0.9340 0.9330 0.9270
1341.381735 0.9260 0.9250 0.9220 0.9210 0.9170
1345.731928 0.9140 0.9120 0.9100 0.9070 0.9060
1350.082122 0.9030 0.8960 0.8920 0.8870 0.8820
1354.432315 0.8800 0.8760 0.8730 0.8720 0.8660
1358.782508 0.8650 0.8630 0.8620 0.8620 0.8620
1363.132702 0.8630 0.8650 0.8650 0.8660 0.8680
1367.482895 0.8680 0.8680 0.8690 0.8690 0.8720
1371.833088 0.8720 0.8720 0.8720 0.8720 0.8720
1376.183282 0.8730 0.8760 0.8780 0.8800 0.8800
1380.533475 0.8810 0.8820 0.8820 0.8840 0.8840
1384.883669 0.8840 0.8840 0.8820 0.8820 0.8820
1389.233862 0.8820 0.8820 0.8800 0.8770 0.8740
1393.584055 0.8730 0.8680 0.8620 0.8570 0.8530
1397.934249 0.8470 0.8440 0.8320 0.8160 0.7930
1402.284442 0.7711 0.7640 0.7421 0.7101 0.6951
1406.634635 0.6950 0.7030 0.7440 0.7710 0.8050
1410.984829 0.8210 0.8400 0.8510 0.8540 0.8580
1415.335022 0.8620 0.8620 0.8590 0.8590 0.8540
1419.685216 0.8540 0.8590 0.8650 0.8730 0.8730
1424.035409 0.8740 0.8740 0.8730 0.8730 0.8720
1428.385602 0.8720 0.8680 0.8610 0.8530 0.8460
1432.735796 0.8360 0.8280 0.8140 0.7970 0.7720
1437.085989 0.7480 0.7141 0.6721 0.6461 0.6460
1441.436182 0.7070 0.7250 0.7250 0.7699 0.8139
1445.786376 0.8349 0.8539 0.8729 0.8840 0.8910
1450.136569 0.8990 0.9070 0.9110 0.9140 0.9140
1454.486762 0.9150 0.9150 0.9170 0.9170 0.9170
1458.836956 0.9170 0.9210 0.9250 0.9260 0.9270
1463.187149 0.9290 0.9290 0.9270 0.9270 0.9270
1467.537343 0.9270 0.9290 0.9300 0.9290 0.9270
1471.887536 0.9250 0.9230 0.9220 0.9220 0.9220
1476.237729 0.9220 0.9220 0.9190 0.9190 0.9190
1480.587923 0.9190 0.9170 0.9150 0.9140 0.9140
1484.938116 0.9080 0.9040 0.9020 0.8970 0.8950
1489.288309 0.8920 0.8890 0.8850 0.8820 0.8810
1493.638503 0.8800 0.8780 0.8760 0.8730 0.8650
1497.988696 0.8590 0.8570 0.8540 0.8500 0.8440
1502.338890 0.8420 0.8360 0.8340 0.8230 0.8140
1506.689083 0.8010 0.7970 0.7930 0.7890 0.7860
1511.039276 0.7800 0.7780 0.7720 0.7670 0.7610
1515.389470 0.7600 0.7510 0.7450 0.7370 0.7310
1519.739663 0.7270 0.7260 0.7170 0.7100 0.7080
1524.089856 0.7070 0.7040 0.7030 0.6960 0.6930
1528.440050 0.6840 0.6780 0.6720 0.6630 0.6510
1532.790243 0.6400 0.6340 0.6250 0.6170 0.6090
1537.140437 0.6040 0.5900 0.5740 0.5640 0.5380
1541.490630 0.5290 0.5260 0.5210 0.5170 0.5140
1545.840823 0.5100 0.5070 0.5060 0.5040 0.5030
1550.191017 0.5030 0.5040 0.5060 0.5070 0.5100
1554.541210 0.5140 0.5180 0.5290 0.5380 0.5450
1558.891403 0.5590 0.5670 0.5800 0.5929 0.6040
1563.241597 0.6080 0.6170 0.6230 0.6320 0.6420
1567.591790 0.6480 0.6550 0.6620 0.6650 0.6730
1571.941983 0.6760 0.6770 0.6780 0.6800 0.6810
1576.292177 0.6810 0.6820 0.6840 0.6840 0.6850
1580.642370 0.6870 0.6880 0.6890 0.6910 0.6920
1584.992564 0.6920 0.6930 0.6930 0.6960 0.6970
1589.342757 0.7020 0.7110 0.7180 0.7260 0.7330
1593.692950 0.7410 0.7480 0.7590 0.7650 0.7740
1598.043144 0.7820 0.7970 0.8050 0.8170 0.8210
1602.393337 0.8270 0.8320 0.8360 0.8430 0.8500
1606.743530 0.8530 0.8570 0.8620 0.8660 0.8720
1611.093724 0.8740 0.8770 0.8810 0.8820 0.8850
1615.443917 0.8850 0.8840 0.8840 0.8850 0.8920
1619.794111 0.8930 0.8930 0.8880 0.8840 0.8800
1624.144304 0.8760 0.8730 0.8690 0.8650 0.8610
1628.494497 0.8500 0.8291 0.8011 0.7751 0.7481
1632.844691 0.7250 0.7250 0.7370 0.8159 0.8460
1637.194884 0.8630 0.8760 0.8840 0.8910 0.8950
1641.545077 0.8960 0.8970 0.8970 0.8970 0.8970
1645.895271 0.8990 0.9000 0.9020 0.9060 0.9120
1650.245464 0.9150 0.9180 0.9210 0.9230 0.9250
1654.595658 0.9330 0.9340 0.9380 0.9410 0.9440
1658.945851 0.9450 0.9460 0.9460 0.9480 0.9480
1663.296044 0.9490 0.9510 0.9510 0.9510 0.9490
1667.646238 0.9490 0.9480 0.9460 0.9460 0.9510
1671.996431 0.9530 0.9550 0.9550 0.9550 0.9550
1676.346624 0.9560 0.9570 0.9570 0.9560 0.9560
1680.696818 0.9560 0.9530 0.9510 0.9520 0.9550
1685.047011 0.9610 0.9630 0.9630 0.9630 0.9630
1689.397204 0.9640 0.9640 0.9630 0.9610 0.9600
1693.747398 0.9570 0.9570 0.9570 0.9560 0.9560
1698.097591 0.9550 0.9530 0.9550 0.9560 0.9590
1702.447785 0.9630 0.9640 0.9640 0.9670 0.9680
1706.797978 0.9700 0.9710 0.9710 0.9710 0.9700
1711.148171 0.9700 0.9680 0.9680 0.9680 0.9700
1715.498365 0.9700 0.9710 0.9710 0.9720 0.9740
1719.848558 0.9750 0.9760 0.9780 0.9760 0.9780
1724.198751 0.9780 0.9780 0.9780 0.9790 0.9790
1728.548945 0.9780 0.9760 0.9760 0.9780 0.9790
1732.899138 0.9800 0.9800 0.9820 0.9830 0.9850
1737.249332 0.9850 0.9850 0.9860 0.9860 0.9870
1741.599525 0.9870 0.9870 0.9870 0.9870 0.9860
1745.949718 0.9860 0.9850 0.9850 0.9850 0.9860
1750.299912 0.9860 0.9870 0.9860 0.9860 0.9860
1754.650105 0.9860 0.9860 0.9870 0.9890 0.9890
1759.000298 0.9870 0.9870 0.9910 0.9870 0.9870
1763.350492 0.9870 0.9860 0.9860 0.9850 0.9850
1767.700685 0.9860 0.9860 0.9860 0.9860 0.9860
1772.050879 0.9870 0.9890 0.9890 0.9890 0.9890
1776.401072 0.9890 0.9860 0.9860 0.9860 0.9870
1780.751265 0.9870 0.9890 0.9900 0.9900 0.9900
1785.101459 0.9900 0.9900 0.9890 0.9870 0.9870
1789.451652 0.9860 0.9860 0.9870 0.9870 0.9870
1793.801845 0.9860 0.9850 0.9850 0.9830 0.9830
1798.152039 0.9830 0.9820 0.9820 0.9800 0.9820
1802.502232 0.9830 0.9830 0.9830 0.9830 0.9820
1806.852425 0.9780 0.9760 0.9760 0.9750 0.9750
1811.202619 0.9760 0.9780 0.9780 0.9780 0.9780
1815.552812 0.9760 0.9750 0.9750 0.9740 0.9720
1819.903006 0.9720 0.9680 0.9670 0.9650 0.9630
1824.253199 0.9610 0.9590 0.9570 0.9560 0.9550
1828.603392 0.9520 0.9510 0.9480 0.9440 0.9400
1832.953586 0.9340 0.9290 0.9210 0.9140 0.9110
1837.303779 0.9040 0.9000 0.8990 0.8960 0.8910
1841.653972 0.8890 0.8890 0.8910 0.8920 0.8930
1846.004166 0.8970 0.9020 0.9110 0.9140 0.9170
1850.354359 0.9230 0.9290 0.9360 0.9380 0.9420
1854.704553 0.9440 0.9450 0.9460 0.9480 0.9510
1859.054746 0.9560 0.9530 0.9560 0.9570 0.9590
1863.404939 0.9600 0.9600 0.9610 0.9630 0.9640
1867.755133 0.9650 0.9650 0.9670 0.9700 0.9700
1872.105326 0.9710 0.9710 0.9710 0.9720 0.9720
1876.455519 0.9720 0.9720 0.9750 0.9780 0.9760
1880.805713 0.9780 0.9790 0.9790 0.9800 0.9800
1885.155906 0.9800 0.9800 0.9800 0.9800 0.9820
1889.506100 0.9820 0.9820 0.9820 0.9800 0.9800
1893.856293 0.9800 0.9800 0.9800 0.9800 0.9800
1898.206486 0.9800 0.9800 0.9820 0.9820 0.9830
1902.556680 0.9850 0.9850 0.9850 0.9860 0.9860
1906.906873 0.9860 0.9860 0.9860 0.9860 0.9860
1911.257066 0.9870 0.9870 0.9870 0.9870 0.9870
1915.607260 0.9870 0.9870 0.9860 0.9860 0.9860
1919.957453 0.9870 0.9870 0.9870 0.9870 0.9860
1924.307646 0.9850 0.9850 0.9850 0.9860 0.9860
1928.657840 0.9890 0.9890 0.9890 0.9890 0.9890
1933.008033 0.9890 0.9870 0.9860 0.9860 0.9860
1937.358227 0.9860 0.9860 0.9860 0.9860 0.9860
1941.708420 0.9860 0.9860 0.9860 0.9870 0.9870
1946.058613 0.9890 0.9890 0.9900 0.9910 0.9910
1950.408807 0.9930 0.9930 0.9930 0.9940 0.9940
1954.759000 0.9940 0.9940 0.9950 0.9970 0.9970
1959.109193 0.9970 0.9970 0.9970 0.9970 0.9980
1963.459387 0.9980 0.9980 0.9980 0.9980 0.9980
1967.809580 1.0000 1.0000 1.0000 1.0000 1.0000
1972.159774 1.0010 1.0010 1.0010 1.0010 1.0010
1976.509967 1.0010 1.0020 1.0020 1.0020 1.0020
1980.860160 1.0020 1.0020 1.0020 1.0020 1.0020
1985.210354 1.0020 1.0020 1.0020 1.0020 1.0020
1989.560547 1.0020 1.0020 1.0040 1.0040 1.0040
1993.910740 1.0040 1.0040 1.0040 1.0040 1.0040
1998.260934 1.0040 1.0040 1.0040 1.0040 1.0040
2002.611127 1.0040 1.0040 1.0040 1.0040 1.0040
2006.961321 1.0040 1.0040 1.0040 1.0040 1.0040
2011.311514 1.0040 1.0040 1.0040 1.0040 1.0040
2015.661707 1.0040 1.0040 1.0040 1.0040 1.0040
2020.011901 1.0040 1.0040 1.0040 1.0040 1.0040
2024.362094 1.0040 1.0040 1.0040 1.0040 1.0040
2028.712287 1.0040 1.0040 1.0040 1.0040 1.0040
2033.062481 1.0040 1.0040 1.0040 1.0040 1.0040
2037.412674 1.0040 1.0040 1.0040 1.0040 1.0040
2041.762867 1.0040 1.0040 1.0040 1.0040 1.0040
2046.113061 1.0040 1.0040 1.0045 1.0050 1.0050
2050.463254 1.0050 1.0050 1.0050 1.0045 1.0040
2054.813448 1.0040 1.0040 1.0030 1.0020 1.0030
2059.163641 1.0040 1.0030 1.0020 1.0020 1.0020
2063.513834 1.0020 1.0020 1.0015 1.0010 1.0010
2067.864028 1.0010 1.0005 1.0000 1.0005 1.0010
2072.214221 1.0024 1.0039 1.0040 1.0040 1.0040
2076.564414 1.0040 1.0040 1.0040 1.0045 1.0050
2080.914608 1.0050 1.0050 1.0050 1.0050 1.0050
2085.264801 1.0050 1.0050 1.0050 1.0050 1.0050
2089.614995 1.0055 1.0060 1.0060 1.0060 1.0051
2093.965188 1.0040 1.0040 1.0040 1.0031 1.0021
2098.315381 1.0020 1.0020 1.0034 1.0049 1.0055
2102.665575 1.0060 1.0060 1.0060 1.0060 1.0060
2107.015768 1.0060 1.0060 1.0060 1.0060 1.0055
2111.365961 1.0050 1.0036 1.0021 1.0020 1.0020
2115.716155 1.0029 1.0039 1.0040 1.0040 1.0031
2120.066348 1.0021 1.0020 1.0020 1.0015 1.0010
2124.416542 1.0010 1.0010 1.0010 1.0010 1.0010
2128.766735 1.0010 1.0005 1.0000 1.0000 1.0000
2133.116928 1.0000 1.0000 1.0005 1.0010 1.0010
