##TITLE=1-PROPENE, 3-ETHOXY-
##JCAMP-DX=4.24
##DATA TYPE=INFRARED SPECTRUM
##CLASS=COBLENTZ III
##ORIGIN=DOW CORNING CORP.
##OWNER=COBLENTZ SOCIETY
Collection (C) 2018 copyright by the U.S. Secretary of Commerce
on behalf of the United States of America. All rights reserved.
##DATE=1966
##NAMES=allyl ethyl ether
3-ethoxy-1-propene
ALLYL ETHYL ETHER
##CAS REGISTRY NO=557-31-3
##MOLFORM=C5 H10 O
##SOURCE REFERENCE=COBLENTZ NO. 4827
##$NIST SOURCE=COBLENTZ
##$NIST IMAGE=cob4827
##SPECTROMETER/DATA SYSTEM=PERKIN-ELMER 521 (GRATING)
##INSTRUMENT PARAMETERS=FILTERS AT 3150, 2500, 2000, 1150, 700, 410; GRATING CHANGES AT 2000, 630 CM^-^1
##STATE=SOLUTION (10% IN CCl4 FOR 3800-1300, 10% IN CS2 FOR 1300-650, 10% IN CCl4 FOR 650-250 CM^-^1) VERSUS SOLVENT
##PATH LENGTH=0.012, 0.011, AND 0.010 CM (CsBr CELL)
##SAMPLING PROCEDURE=TRANSMISSION
##RESOLUTION=4
##DATA PROCESSING=DIGITIZED BY NIST FROM HARD COPY (FROM TWO SEGMENTS)
##XUNITS=1/CM
##YUNITS=TRANSMITTANCE
##XFACTOR=1.000000
##YFACTOR=1
##DELTAX=0.985762
##FIRSTX=243.373
##LASTX=3790.14
##FIRSTY=0.716
##MAXX=3790.14
##MINX=243.373
##MAXY=0.892
##MINY=0.012
##NPOINTS=3599
##XYDATA=(X++(Y..Y))
243.373000 0.7160 0.7160 0.7170 0.7180 0.7180
248.301809 0.7200 0.7240 0.7250 0.7260 0.7260
253.230619 0.7280 0.7290 0.7320 0.7330 0.7340
258.159428 0.7370 0.7380 0.7400 0.7410 0.7420
263.088237 0.7440 0.7450 0.7460 0.7480 0.7480
268.017046 0.7490 0.7490 0.7500 0.7500 0.7500
272.945856 0.7520 0.7520 0.7520 0.7530 0.7540
277.874665 0.7560 0.7560 0.7560 0.7570 0.7570
282.803474 0.7570 0.7580 0.7600 0.7610 0.7640
287.732284 0.7650 0.7690 0.7720 0.7740 0.7740
292.661093 0.7740 0.7770 0.7780 0.7800 0.7800
297.589902 0.7810 0.7820 0.7820 0.7840 0.7840
302.518711 0.7840 0.7850 0.7860 0.7860 0.7880
307.447521 0.7880 0.7880 0.7880 0.7880 0.7890
312.376330 0.7890 0.7890 0.7900 0.7900 0.7920
317.305139 0.7920 0.7920 0.7920 0.7920 0.7920
322.233949 0.7900 0.7900 0.7890 0.7890 0.7860
327.162758 0.7850 0.7840 0.7820 0.7820 0.7820
332.091567 0.7820 0.7840 0.7840 0.7850 0.7860
337.020376 0.7880 0.7890 0.7900 0.7940 0.7960
341.949186 0.7970 0.7980 0.8000 0.8000 0.8010
346.877995 0.8020 0.8020 0.8020 0.8020 0.8020
351.806804 0.8020 0.8010 0.8010 0.8010 0.8000
356.735614 0.8000 0.8000 0.7980 0.7980 0.7980
361.664423 0.7970 0.7970 0.7970 0.7970 0.7970
366.593232 0.7980 0.7980 0.8010 0.8050 0.8060
371.522041 0.8080 0.8090 0.8090 0.8100 0.8100
376.450851 0.8090 0.8090 0.8080 0.8080 0.8090
381.379660 0.8090 0.8090 0.8090 0.8090 0.8080
386.308469 0.8080 0.8060 0.8010 0.7960 0.7930
391.237279 0.7930 0.7920 0.7900 0.7890 0.7890
396.166088 0.7890 0.7880 0.7880 0.7880 0.7890
401.094897 0.7890 0.7900 0.7900 0.7920 0.7930
406.023706 0.7930 0.7940 0.7940 0.7940 0.7940
410.952516 0.7940 0.7930 0.7930 0.7930 0.7930
415.881325 0.7930 0.7930 0.7930 0.7920 0.7900
420.810134 0.7900 0.7890 0.7880 0.7860 0.7820
425.738944 0.7810 0.7800 0.7780 0.7770 0.7760
430.667753 0.7740 0.7700 0.7660 0.7660 0.7610
435.596562 0.7580 0.7570 0.7570 0.7560 0.7540
440.525371 0.7530 0.7520 0.7500 0.7490 0.7460
445.454181 0.7450 0.7440 0.7420 0.7400 0.7370
450.382990 0.7370 0.7360 0.7330 0.7320 0.7300
455.311799 0.7280 0.7250 0.7240 0.7220 0.7210
460.240609 0.7200 0.7180 0.7180 0.7180 0.7180
465.169418 0.7200 0.7210 0.7240 0.7260 0.7280
470.098227 0.7280 0.7280 0.7280 0.7260 0.7260
475.027036 0.7260 0.7250 0.7250 0.7240 0.7220
479.955846 0.7220 0.7210 0.7210 0.7210 0.7220
484.884655 0.7240 0.7250 0.7260 0.7260 0.7290
489.813464 0.7330 0.7400 0.7420 0.7440 0.7450
494.742274 0.7480 0.7500 0.7520 0.7540 0.7570
499.671083 0.7580 0.7620 0.7640 0.7680 0.7720
504.599892 0.7740 0.7770 0.7800 0.7820 0.7850
509.528701 0.7850 0.7860 0.7860 0.7880 0.7880
514.457511 0.7880 0.7860 0.7860 0.7850 0.7850
519.386320 0.7840 0.7810 0.7810 0.7800 0.7800
524.315129 0.7800 0.7780 0.7760 0.7720 0.7700
529.243939 0.7690 0.7690 0.7690 0.7700 0.7700
534.172748 0.7730 0.7740 0.7760 0.7760 0.7760
539.101557 0.7760 0.7740 0.7730 0.7700 0.7640
544.030366 0.7620 0.7600 0.7481 0.7400 0.7320
548.959176 0.7220 0.6980 0.6880 0.6780 0.6690
553.887985 0.6580 0.6560 0.6540 0.6540 0.6560
558.816794 0.6570 0.6600 0.6690 0.6780 0.6880
563.745604 0.6970 0.7040 0.7060 0.7249 0.7340
568.674413 0.7440 0.7540 0.7610 0.7660 0.7680
573.603222 0.7700 0.7740 0.7740 0.7760 0.7770
578.532031 0.7770 0.7770 0.7780 0.7780 0.7780
583.460841 0.7770 0.7770 0.7770 0.7770 0.7760
588.389650 0.7760 0.7740 0.7730 0.7730 0.7720
593.318459 0.7720 0.7720 0.7700 0.7700 0.7690
598.247269 0.7690 0.7690 0.7680 0.7680 0.7660
603.176078 0.7660 0.7660 0.7620 0.7610 0.7610
608.104887 0.7610 0.7600 0.7580 0.7560 0.7560
613.033696 0.7490 0.7480 0.7480 0.7450 0.7440
617.962506 0.7420 0.7410 0.7380 0.7330 0.7250
622.891315 0.7240 0.7180 0.7100 0.7050 0.6980
627.820124 0.6920 0.6900 0.6930 0.6960 0.6980
632.748934 0.7040 0.7080 0.7100 0.7120 0.7140
637.677743 0.7140 0.7160 0.7160 0.7160 0.7140
642.606552 0.7140 0.7140 0.7130 0.7130 0.7130
647.535361 0.7140 0.7220 0.7240 0.7260 0.7330
652.464171 0.7380 0.7410 0.7420 0.7420 0.7440
657.392980 0.7460 0.7520 0.7640 0.7690 0.7740
662.321789 0.7770 0.7800 0.7810 0.7860 0.7959
667.250599 0.7960 0.8100 0.8120 0.8120 0.8120
672.179408 0.8130 0.8130 0.8140 0.8140 0.8200
677.108217 0.8220 0.8240 0.8240 0.8250 0.8260
682.037026 0.8280 0.8290 0.8290 0.8300 0.8320
686.965836 0.8320 0.8320 0.8300 0.8240 0.8170
691.894645 0.8120 0.8080 0.8080 0.8120 0.8160
696.823454 0.8180 0.8220 0.8260 0.8330 0.8380
701.752264 0.8440 0.8460 0.8490 0.8490 0.8520
706.681073 0.8530 0.8530 0.8540 0.8540 0.8570
711.609882 0.8570 0.8570 0.8580 0.8580 0.8570
716.538691 0.8570 0.8560 0.8540 0.8530 0.8520
721.467501 0.8500 0.8500 0.8460 0.8321 0.8131
726.396310 0.8050 0.7860 0.7760 0.7440 0.7440
731.325119 0.8128 0.8140 0.8399 0.8440 0.8460
736.253929 0.8540 0.8560 0.8570 0.8620 0.8640
741.182738 0.8660 0.8680 0.8680 0.8680 0.8680
746.111547 0.8690 0.8690 0.8690 0.8690 0.8700
751.040356 0.8720 0.8720 0.8720 0.8730 0.8730
755.969166 0.8740 0.8740 0.8760 0.8760 0.8770
760.897975 0.8770 0.8780 0.8780 0.8780 0.8780
765.826784 0.8780 0.8780 0.8780 0.8770 0.8770
770.755594 0.8770 0.8760 0.8740 0.8730 0.8730
775.684403 0.8720 0.8700 0.8700 0.8690 0.8680
780.613212 0.8660 0.8660 0.8650 0.8640 0.8620
785.542021 0.8620 0.8610 0.8580 0.8580 0.8560
790.470831 0.8520 0.8500 0.8460 0.8440 0.8360
795.399640 0.8290 0.8250 0.8220 0.8200 0.8200
800.328449 0.8210 0.8240 0.8250 0.8260 0.8260
805.257259 0.8260 0.8250 0.8240 0.8200 0.8170
810.186068 0.8130 0.8080 0.8000 0.7970 0.7960
815.114877 0.7970 0.8020 0.8080 0.8120 0.8140
820.043686 0.8180 0.8220 0.8220 0.8240 0.8250
824.972496 0.8250 0.8240 0.8220 0.8200 0.8130
829.901305 0.8090 0.8040 0.7970 0.7930 0.7890
834.830114 0.7840 0.7800 0.7700 0.7560 0.7500
839.758924 0.7360 0.7240 0.7091 0.6971 0.6741
844.687733 0.6720 0.6600 0.6580 0.6600 0.6770
849.616542 0.6810 0.7089 0.7339 0.7420 0.7599
854.545351 0.7680 0.7760 0.7770 0.7780 0.7780
859.474161 0.7770 0.7740 0.7700 0.7680 0.7640
864.402970 0.7620 0.7520 0.7480 0.7440 0.7360
869.331779 0.7250 0.7091 0.6970 0.6940 0.6920
874.260589 0.6920 0.6820 0.6770 0.6720 0.6640
879.189398 0.6560 0.6480 0.6102 0.5841 0.5691
884.118207 0.5660 0.5690 0.5770 0.5960 0.6180
889.047016 0.6409 0.6570 0.6759 0.6780 0.6770
893.975826 0.6760 0.6740 0.6700 0.6680 0.6650
898.904635 0.6560 0.6520 0.6440 0.6261 0.6041
903.833444 0.5900 0.5690 0.5460 0.5260 0.5000
908.762254 0.4731 0.4371 0.4081 0.3373 0.3022
913.691063 0.2600 0.1770 0.1500 0.0921 0.0621
918.619872 0.0341 0.0330 0.0320 0.0320 0.0330
923.548681 0.0340 0.0380 0.0400 0.0580 0.0680
928.477491 0.0849 0.1019 0.1657 0.2048 0.2726
933.406300 0.3250 0.4580 0.4700 0.4810 0.4940
938.335109 0.5050 0.5060 0.5369 0.5967 0.5980
943.263919 0.6160 0.6290 0.6540 0.6580 0.6610
948.192728 0.6660 0.6740 0.6889 0.6960 0.6980
953.121537 0.6970 0.6960 0.6920 0.6850 0.6780
958.050346 0.6730 0.6660 0.6600 0.6560 0.6490
962.979156 0.6440 0.6340 0.6290 0.6170 0.6050
967.907965 0.5960 0.5860 0.5481 0.5380 0.5201
972.836774 0.5140 0.5120 0.4930 0.4770 0.4650
977.765584 0.4530 0.4331 0.3942 0.3731 0.3372
982.694393 0.3170 0.2850 0.2480 0.2170 0.2120
987.623202 0.2090 0.2060 0.1960 0.1821 0.1621
992.552011 0.1520 0.1420 0.1340 0.1320 0.1340
997.480821 0.1520 0.1699 0.1859 0.2457 0.3117
1002.409630 0.3410 0.3560 0.3720 0.3850 0.3940
1007.338439 0.3930 0.3890 0.3810 0.3701 0.3561
1012.267249 0.3380 0.3290 0.3290 0.3360 0.3420
1017.196058 0.3500 0.3600 0.3720 0.3939 0.3980
1022.124867 0.4120 0.4180 0.4240 0.4290 0.4460
1027.053676 0.4560 0.4660 0.4780 0.4959 0.5079
1031.982486 0.5360 0.5540 0.5570 0.5660 0.5740
1036.911295 0.5770 0.5780 0.5780 0.5770 0.5770
1041.840104 0.5760 0.5740 0.5730 0.5650 0.5530
1046.768914 0.5460 0.5360 0.5240 0.5051 0.4781
1051.697723 0.4660 0.4130 0.4010 0.3900 0.3740
1056.626532 0.3650 0.3580 0.3500 0.3251 0.3041
1061.555341 0.2920 0.2770 0.2580 0.2450 0.2340
1066.484151 0.2160 0.2050 0.1940 0.1840 0.1810
1071.412960 0.1810 0.1820 0.2000 0.2140 0.2359
1076.341769 0.2579 0.2660 0.2720 0.2730 0.2720
1081.270579 0.2620 0.2540 0.2370 0.2180 0.2010
1086.199388 0.1841 0.1641 0.1530 0.1261 0.0693
1091.128197 0.0570 0.0450 0.0300 0.0200 0.0140
1096.057006 0.0130 0.0120 0.0120 0.0120 0.0120
1100.985816 0.0120 0.0130 0.0140 0.0160 0.0160
1105.914625 0.0170 0.0170 0.0170 0.0170 0.0180
1110.843434 0.0180 0.0180 0.0180 0.0200 0.0200
1115.772244 0.0210 0.0210 0.0210 0.0220 0.0220
1120.701053 0.0240 0.0250 0.0260 0.0280 0.0290
1125.629862 0.0320 0.0340 0.0360 0.0400 0.0440
1130.558671 0.0490 0.0610 0.0690 0.0800 0.0900
1135.487481 0.0980 0.1050 0.1259 0.1379 0.1420
1140.416290 0.1490 0.1500 0.1520 0.1500 0.1480
1145.345099 0.1460 0.1460 0.1480 0.1500 0.1540
1150.273909 0.1580 0.1620 0.1650 0.1690 0.1810
1155.202718 0.1960 0.2050 0.2209 0.2290 0.2370
1160.131527 0.2440 0.2640 0.2810 0.3000 0.3160
1165.060336 0.3300 0.3529 0.3699 0.3879 0.3970
1169.989146 0.4010 0.4160 0.4250 0.4320 0.4340
1174.917955 0.4340 0.4400 0.4480 0.4570 0.4699
1179.846764 0.4890 0.5050 0.5370 0.5610 0.5800
1184.775574 0.6169 0.6419 0.6679 0.6780 0.6889
1189.704383 0.7010 0.7080 0.7260 0.7320 0.7400
1194.633192 0.7420 0.7450 0.7490 0.7560 0.7570
1199.562001 0.7580 0.7680 0.7720 0.7740 0.7760
1204.490811 0.7760 0.7780 0.7780 0.7780 0.7800
1209.419620 0.7800 0.7810 0.7810 0.7810 0.7820
1214.348429 0.7820 0.7820 0.7840 0.7840 0.7820
1219.277239 0.7820 0.7810 0.7810 0.7800 0.7780
1224.206048 0.7760 0.7740 0.7720 0.7690 0.7680
1229.134857 0.7650 0.7620 0.7580 0.7570 0.7570
1234.063666 0.7560 0.7420 0.7320 0.7290 0.7280
1238.992476 0.7260 0.7260 0.7280 0.7300 0.7320
1243.921285 0.7320 0.7320 0.7300 0.7300 0.7300
1248.850094 0.7290 0.7260 0.7240 0.7180 0.7100
1253.778904 0.7060 0.6940 0.6801 0.6611 0.6481
1258.707713 0.6450 0.6320 0.6020 0.5661 0.5480
1263.636522 0.5261 0.5240 0.5220 0.5240 0.5250
1268.565331 0.5320 0.5370 0.5460 0.5480 0.5530
1273.494141 0.5570 0.5610 0.5650 0.5700 0.5899
1278.422950 0.6050 0.6200 0.6450 0.6490 0.6490
1283.351759 0.6500 0.6500 0.6490 0.6460 0.6440
1288.280569 0.6400 0.6370 0.6360 0.6370 0.6380
1293.209378 0.6400 0.6440 0.6480 0.6540 0.6610
1298.138187 0.6700 0.6820 0.6930 0.7120 0.7300
1303.066996 0.7519 0.7600 0.7650 0.7700 0.7730
1307.995806 0.7730 0.7760 0.7770 0.7800 0.7800
1312.924615 0.7810 0.7810 0.7810 0.7800 0.7800
1317.853424 0.7800 0.7780 0.7780 0.7760 0.7740
1322.782234 0.7730 0.7690 0.7610 0.7570 0.7480
1327.711043 0.7450 0.7410 0.7320 0.7280 0.7130
1332.639852 0.7050 0.6851 0.6541 0.6281 0.6200
1337.568661 0.5770 0.5540 0.5080 0.3921 0.2802
1342.497471 0.2620 0.2620 0.2999 0.3139 0.3339
1347.426280 0.3640 0.4170 0.4170 0.4050 0.3970
1352.355089 0.3920 0.3880 0.3880 0.3999 0.4199
1357.283899 0.4330 0.4460 0.5609 0.6019 0.6289
1362.212708 0.6300 0.6300 0.6200 0.6140 0.6050
1367.141517 0.5740 0.5330 0.4960 0.4770 0.4540
1372.070326 0.4321 0.4081 0.3861 0.3681 0.3640
1376.999136 0.3680 0.3840 0.4120 0.4380 0.4410
1381.927945 0.4560 0.4680 0.4720 0.4740 0.4780
1386.856754 0.4810 0.4890 0.4900 0.4900 0.4730
1391.785564 0.4251 0.3812 0.3621 0.3302 0.3210
1396.714373 0.3210 0.3250 0.3290 0.3370 0.3460
1401.643182 0.3570 0.3769 0.4009 0.4359 0.4659
1406.571991 0.4860 0.5020 0.5080 0.5120 0.5120
1411.500801 0.5120 0.5100 0.5080 0.4901 0.4582
1416.429610 0.4370 0.4260 0.3970 0.3920 0.3920
1421.358419 0.4080 0.4299 0.4450 0.4560 0.4650
1426.287229 0.4720 0.4860 0.4860 0.4920 0.4970
1431.216038 0.4980 0.5010 0.5040 0.5060 0.5090
1436.144847 0.5100 0.5100 0.5090 0.5000 0.4820
1441.073656 0.4501 0.4400 0.4290 0.4200 0.4061
1446.002466 0.4020 0.3980 0.3970 0.3970 0.4000
1450.931275 0.4100 0.4210 0.4280 0.4260 0.4121
1455.860084 0.4090 0.4120 0.4250 0.4400 0.4530
1460.788894 0.4680 0.5119 0.5618 0.5839 0.6039
1465.717703 0.6260 0.6300 0.6330 0.6360 0.6380
1470.646512 0.6380 0.6370 0.6360 0.6360 0.6400
1475.575321 0.6410 0.6440 0.6460 0.6480 0.6480
1480.504131 0.6460 0.6221 0.6001 0.5383 0.4843
1485.432940 0.4840 0.5250 0.5660 0.5940 0.6199
1490.361749 0.6888 0.7169 0.7449 0.7520 0.7570
1495.290559 0.7610 0.7640 0.7680 0.7770 0.7900
1500.219368 0.7970 0.8050 0.8090 0.8130 0.8200
1505.148177 0.8240 0.8250 0.8260 0.8280 0.8280
1510.076986 0.8300 0.8330 0.8340 0.8360 0.8360
1515.005796 0.8370 0.8380 0.8400 0.8410 0.8420
1519.934605 0.8420 0.8440 0.8440 0.8420 0.8410
1524.863414 0.8410 0.8410 0.8410 0.8410 0.8410
1529.792224 0.8410 0.8410 0.8410 0.8410 0.8410
1534.721033 0.8410 0.8410 0.8400 0.8400 0.8380
1539.649842 0.8380 0.8380 0.8370 0.8360 0.8340
1544.578651 0.8330 0.8330 0.8320 0.8320 0.8320
1549.507461 0.8300 0.8300 0.8300 0.8320 0.8330
1554.436270 0.8330 0.8330 0.8330 0.8330 0.8340
1559.365079 0.8340 0.8340 0.8340 0.8340 0.8360
1564.293889 0.8360 0.8360 0.8340 0.8340 0.8340
1569.222698 0.8360 0.8370 0.8370 0.8380 0.8380
1574.151507 0.8380 0.8360 0.8360 0.8340 0.8340
1579.080316 0.8340 0.8360 0.8380 0.8400 0.8420
1584.009126 0.8420 0.8420 0.8440 0.8440 0.8450
1588.937935 0.8450 0.8450 0.8460 0.8480 0.8480
1593.866744 0.8460 0.8450 0.8450 0.8450 0.8460
1598.795554 0.8460 0.8450 0.8450 0.8460 0.8460
1603.724363 0.8460 0.8460 0.8460 0.8460 0.8460
1608.653172 0.8480 0.8480 0.8450 0.8440 0.8440
1613.581981 0.8420 0.8420 0.8410 0.8410 0.8400
1618.510791 0.8400 0.8400 0.8400 0.8400 0.8410
1623.439600 0.8410 0.8400 0.8380 0.8370 0.8360
1628.368409 0.8340 0.8330 0.8320 0.8300 0.8220
1633.297219 0.8160 0.8120 0.8050 0.7970 0.7920
1638.226028 0.7840 0.7800 0.7411 0.7022 0.6901
1643.154837 0.6800 0.6690 0.6520 0.6340 0.6200
1648.083646 0.6010 0.5980 0.5641 0.5640 0.6805
1653.012456 0.7460 0.7530 0.7800 0.8130 0.8250
1657.941265 0.8320 0.8330 0.8380 0.8410 0.8500
1662.870074 0.8520 0.8530 0.8540 0.8570 0.8580
1667.798884 0.8600 0.8610 0.8610 0.8620 0.8620
1672.727693 0.8620 0.8640 0.8640 0.8640 0.8640
1677.656502 0.8640 0.8650 0.8640 0.8650 0.8650
1682.585311 0.8660 0.8660 0.8660 0.8660 0.8680
1687.514121 0.8660 0.8650 0.8650 0.8640 0.8640
1692.442930 0.8650 0.8650 0.8660 0.8680 0.8700
1697.371739 0.8700 0.8720 0.8720 0.8730 0.8730
1702.300549 0.8730 0.8730 0.8740 0.8730 0.8740
1707.229358 0.8740 0.8740 0.8740 0.8740 0.8740
1712.158167 0.8760 0.8740 0.8740 0.8760 0.8760
1717.086976 0.8760 0.8760 0.8760 0.8760 0.8760
1722.015786 0.8760 0.8760 0.8760 0.8760 0.8760
1726.944595 0.8740 0.8740 0.8740 0.8740 0.8740
1731.873404 0.8740 0.8740 0.8740 0.8740 0.8740
1736.802214 0.8740 0.8740 0.8740 0.8740 0.8740
1741.731023 0.8740 0.8740 0.8740 0.8760 0.8760
1746.659832 0.8760 0.8760 0.8770 0.8770 0.8770
1751.588641 0.8770 0.8780 0.8780 0.8780 0.8780
1756.517451 0.8780 0.8780 0.8780 0.8780 0.8800
1761.446260 0.8780 0.8780 0.8780 0.8780 0.8780
1766.375069 0.8770 0.8770 0.8770 0.8780 0.8780
1771.303879 0.8800 0.8810 0.8810 0.8810 0.8810
1776.232688 0.8820 0.8840 0.8840 0.8850 0.8850
1781.161497 0.8850 0.8850 0.8840 0.8850 0.8840
1786.090306 0.8820 0.8840 0.8840 0.8840 0.8840
1791.019116 0.8820 0.8820 0.8840 0.8840 0.8840
1795.947925 0.8840 0.8840 0.8840 0.8840 0.8820
1800.876734 0.8820 0.8840 0.8850 0.8850 0.8840
1805.805544 0.8840 0.8840 0.8840 0.8840 0.8840
1810.734353 0.8820 0.8840 0.8820 0.8820 0.8810
1815.663162 0.8810 0.8810 0.8810 0.8810 0.8810
1820.591971 0.8800 0.8800 0.8800 0.8800 0.8800
1825.520781 0.8780 0.8760 0.8760 0.8740 0.8730
1830.449590 0.8720 0.8700 0.8660 0.8640 0.8620
1835.378399 0.8610 0.8600 0.8580 0.8580 0.8560
1840.307209 0.8520 0.8450 0.8360 0.8320 0.8300
1845.236018 0.8250 0.8220 0.8200 0.8160 0.8130
1850.164827 0.8060 0.8040 0.8000 0.7970 0.7970
1855.093636 0.7980 0.7980 0.8010 0.8040 0.8050
1860.022446 0.8080 0.8080 0.8120 0.8120 0.8140
1864.951255 0.8180 0.8210 0.8260 0.8300 0.8320
1869.880064 0.8330 0.8400 0.8480 0.8490 0.8500
1874.808874 0.8530 0.8560 0.8610 0.8640 0.8660
1879.737683 0.8660 0.8700 0.8730 0.8730 0.8760
1884.666492 0.8770 0.8770 0.8770 0.8770 0.8770
1889.595301 0.8770 0.8770 0.8770 0.8770 0.8740
1894.524111 0.8740 0.8740 0.8740 0.8730 0.8730
1899.452920 0.8730 0.8720 0.8720 0.8700 0.8690
1904.381729 0.8680 0.8680 0.8680 0.8680 0.8680
1909.310539 0.8690 0.8690 0.8700 0.8700 0.8700
1914.239348 0.8700 0.8700 0.8700 0.8720 0.8720
1919.168157 0.8720 0.8700 0.8690 0.8680 0.8680
1924.096966 0.8660 0.8660 0.8680 0.8680 0.8660
1929.025776 0.8660 0.8650 0.8640 0.8620 0.8620
1933.954585 0.8610 0.8580 0.8570 0.8570 0.8570
1938.883394 0.8560 0.8540 0.8540 0.8530 0.8520
1943.812204 0.8500 0.8490 0.8490 0.8490 0.8500
1948.741013 0.8500 0.8520 0.8540 0.8560 0.8570
1953.669822 0.8570 0.8570 0.8560 0.8560 0.8560
1958.598631 0.8540 0.8540 0.8560 0.8560 0.8570
1963.527441 0.8570 0.8570 0.8570 0.8580 0.8580
1968.456250 0.8580 0.8580 0.8570 0.8570 0.8560
1973.385059 0.8560 0.8560 0.8540 0.8520 0.8490
1978.313869 0.8490 0.8480 0.8460 0.8450 0.8450
1983.242678 0.8440 0.8440 0.8440 0.8440 0.8440
1988.171487 0.8450 0.8460 0.8460 0.8480 0.8480
1993.100296 0.8480 0.8490 0.8500 0.8520 0.8540
1998.029106 0.8560 0.8580 0.8610 0.8615 0.8620
2002.957915 0.8630 0.8640 0.8640 0.8640 0.8640
2007.886724 0.8640 0.8645 0.8650 0.8650 0.8650
2012.815534 0.8670 0.8690 0.8705 0.8720 0.8725
2017.744343 0.8730 0.8735 0.8740 0.8740 0.8740
2022.673152 0.8750 0.8760 0.8765 0.8770 0.8770
2027.601961 0.8770 0.8765 0.8760 0.8765 0.8770
2032.530771 0.8770 0.8770 0.8775 0.8780 0.8780
2037.459580 0.8780 0.8790 0.8800 0.8800 0.8800
2042.388389 0.8805 0.8810 0.8810 0.8810 0.8815
2047.317199 0.8820 0.8815 0.8810 0.8810 0.8810
2052.246008 0.8810 0.8810 0.8810 0.8810 0.8810
2057.174817 0.8810 0.8810 0.8810 0.8810 0.8810
2062.103626 0.8815 0.8820 0.8820 0.8820 0.8815
2067.032436 0.8810 0.8810 0.8810 0.8805 0.8800
2071.961245 0.8790 0.8780 0.8775 0.8770 0.8770
2076.890054 0.8770 0.8770 0.8770 0.8770 0.8770
2081.818864 0.8765 0.8760 0.8760 0.8760 0.8750
2086.747673 0.8740 0.8740 0.8740 0.8740 0.8740
2091.676482 0.8740 0.8740 0.8740 0.8740 0.8735
2096.605291 0.8730 0.8730 0.8730 0.8730 0.8730
2101.534101 0.8725 0.8720 0.8700 0.8680 0.8670
2106.462910 0.8660 0.8660 0.8660 0.8660 0.8660
2111.391719 0.8660 0.8660 0.8660 0.8660 0.8660
2116.320529 0.8660 0.8660 0.8660 0.8660 0.8660
2121.249338 0.8670 0.8680 0.8685 0.8690 0.8695
2126.178147 0.8700 0.8700 0.8700 0.8710 0.8720
2131.106956 0.8725 0.8730 0.8730 0.8730 0.8735
2136.035766 0.8740 0.8750 0.8760 0.8760 0.8760
2140.964575 0.8760 0.8760 0.8760 0.8760 0.8760
2145.893384 0.8760 0.8760 0.8760 0.8760 0.8760
2150.822194 0.8760 0.8760 0.8760 0.8760 0.8760
2155.751003 0.8760 0.8760 0.8760 0.8760 0.8760
2160.679812 0.8750 0.8740 0.8740 0.8740 0.8735
2165.608621 0.8730 0.8730 0.8730 0.8725 0.8720
2170.537431 0.8720 0.8720 0.8720 0.8720 0.8710
2175.466240 0.8700 0.8700 0.8700 0.8700 0.8700
2180.395049 0.8695 0.8690 0.8690 0.8690 0.8690
2185.323859 0.8690 0.8690 0.8690 0.8690 0.8690
2190.252668 0.8690 0.8690 0.8690 0.8690 0.8690
2195.181477 0.8690 0.8685 0.8680 0.8680 0.8680
2200.110286 0.8670 0.8660 0.8660 0.8660 0.8660
2205.039096 0.8660 0.8660 0.8660 0.8670 0.8680
2209.967905 0.8680 0.8680 0.8680 0.8680 0.8685
2214.896714 0.8690 0.8690 0.8690 0.8690 0.8690
2219.825524 0.8695 0.8700 0.8700 0.8700 0.8700
2224.754333 0.8700 0.8700 0.8700 0.8700 0.8700
2229.683142 0.8700 0.8700 0.8695 0.8690 0.8690
