##TITLE=METHANE, BROMOIODO-
##JCAMP-DX=4.24
##DATA TYPE=INFRARED SPECTRUM
##CLASS=COBLENTZ III
##ORIGIN=DOW CHEMICAL COMPANY
##OWNER=COBLENTZ SOCIETY
Collection (C) 2018 copyright by the U.S. Secretary of Commerce
on behalf of the United States of America. All rights reserved.
##DATE=1962/04/27
##NAMES=bromo(iodo)methane
##CAS REGISTRY NO=557-68-6
##MOLFORM=C H2 Br I
##SOURCE REFERENCE=COBLENTZ NO. 10025
##$NIST SOURCE=COBLENTZ
##$NIST IMAGE=cob10025
##SPECTROMETER/DATA SYSTEM=DOW KBr FOREPRISM-GRATING
##INSTRUMENT PARAMETERS=BLAZED AT 3.5, 12.0, 20.0 MICRON, CHANGED AT 5.0, 7.5, 14.9 MICRON
##STATE=SOLUTION (10% IN CCl4 FOR 3800-1333 AND 10% IN CS2 FOR 1333-450 CM^-^1)
##PATH LENGTH=0.010, 0.010 CM
$$SPECTRAL CONTAMINATION DUE TO CCl4 AROUND 1550, AND CS2 AROUND 855 CM^-^1
$$SPECTRAL FEATURES DUE TO UNKNOWNS AROUND 1190, 1108, 640 CM^-^1
##SAMPLING PROCEDURE=TRANSMISSION
##RESOLUTION=4
##DATA PROCESSING=DIGITIZED BY NIST FROM HARD COPY (FROM TWO SEGMENTS)
##XUNITS=1/CM
##YUNITS=TRANSMITTANCE
##XFACTOR=1.000000
##YFACTOR=1
##DELTAX=0.851066
##FIRSTX=445.957
##LASTX=3800.01
##FIRSTY=1.006
##MAXX=3800.01
##MINX=445.957
##MAXY=1.031
##MINY=0.017
##NPOINTS=3942
##XYDATA=(X++(Y..Y))
445.957000 1.0060 1.0050 1.0030 1.0030 1.0030
450.212329 1.0020 1.0020 1.0010 1.0010 1.0010
454.467658 1.0000 1.0000 1.0000 0.9980 0.9980
458.722987 0.9970 0.9970 0.9960 0.9940 0.9940
462.978316 0.9940 0.9940 0.9960 0.9960 0.9960
467.233645 0.9970 0.9970 0.9980 1.0000 1.0000
471.488974 1.0000 0.9980 0.9980 0.9980 0.9980
475.744304 0.9980 0.9980 1.0000 1.0000 1.0000
479.999633 1.0000 1.0000 1.0010 1.0010 1.0010
484.254962 1.0010 1.0020 1.0020 1.0020 1.0020
488.510291 1.0020 1.0010 1.0010 1.0010 1.0010
492.765620 1.0010 1.0010 1.0010 1.0010 1.0000
497.020949 1.0000 1.0000 0.9980 0.9970 0.9970
501.276278 0.9960 0.9960 0.9940 0.9940 0.9930
505.531607 0.9930 0.9920 0.9890 0.9840 0.9780
509.786936 0.9740 0.9680 0.9650 0.9610 0.9530
514.042265 0.9450 0.9330 0.9210 0.9120 0.9040
518.297594 0.8881 0.8711 0.8571 0.8570 0.9107
522.552923 0.9340 0.9600 0.9740 0.9800 0.9920
526.808253 0.9930 0.9970 0.9980 1.0050 1.0070
531.063582 1.0090 1.0100 1.0100 1.0110 1.0110
535.318911 1.0110 1.0110 1.0110 1.0130 1.0130
539.574240 1.0130 1.0150 1.0150 1.0170 1.0170
543.829569 1.0180 1.0180 1.0190 1.0190 1.0190
548.084898 1.0210 1.0210 1.0210 1.0210 1.0210
552.340227 1.0210 1.0210 1.0210 1.0210 1.0190
556.595556 1.0190 1.0190 1.0190 1.0170 1.0150
560.850885 1.0140 1.0140 1.0130 1.0090 1.0010
565.106214 1.0010 1.0000 0.9980 0.9920 0.9850
569.361543 0.9780 0.9740 0.9541 0.9520 0.9520
573.616872 0.9650 0.9760 0.9890 1.0020 1.0070
577.872202 1.0130 1.0140 1.0140 1.0150 1.0150
582.127531 1.0150 1.0150 1.0150 1.0150 1.0140
586.382860 1.0090 1.0010 1.0010 1.0000 1.0000
590.638189 0.9980 0.9970 0.9920 0.9840 0.9780
594.893518 0.9730 0.9660 0.9570 0.9490 0.9400
599.148847 0.9300 0.9160 0.9090 0.8930 0.8880
603.404176 0.8691 0.8511 0.8301 0.8031 0.8030
607.659505 0.7420 0.7050 0.6171 0.5611 0.5430
611.914834 0.5231 0.4762 0.4441 0.3952 0.3144
616.170163 0.2660 0.1001 0.0980 0.0940 0.0740
620.425492 0.0989 0.2346 0.2739 0.3138 0.3976
624.680821 0.6140 0.6899 0.7629 0.8029 0.8479
628.936151 0.8679 0.8909 0.9010 0.9010 0.9000
633.191480 0.8990 0.8970 0.8910 0.8830 0.8790
637.446809 0.8750 0.8680 0.8630 0.8630 0.8640
641.702138 0.8670 0.8870 0.9200 0.9330 0.9440
645.957467 0.9480 0.9500 0.9520 0.9520 0.9540
650.212796 0.9560 0.9560 0.9570 0.9570 0.9600
654.468125 0.9640 0.9660 0.9690 0.9700 0.9720
658.723454 0.9720 0.9720 0.9730 0.9730 0.9730
662.978783 0.9730 0.9740 0.9740 0.9740 0.9740
667.234112 0.9740 0.9760 0.9760 0.9760 0.9760
671.489441 0.9770 0.9770 0.9770 0.9770 0.9780
675.744770 0.9780 0.9780 0.9780 0.9780 0.9800
680.000100 0.9800 0.9800 0.9800 0.9800 0.9800
684.255429 0.9800 0.9800 0.9800 0.9800 0.9800
688.510758 0.9780 0.9780 0.9780 0.9780 0.9780
692.766087 0.9780 0.9800 0.9800 0.9800 0.9800
697.021416 0.9800 0.9810 0.9810 0.9800 0.9800
701.276745 0.9800 0.9800 0.9800 0.9800 0.9800
705.532074 0.9780 0.9780 0.9780 0.9760 0.9760
709.787403 0.9730 0.9700 0.9700 0.9690 0.9680
714.042732 0.9660 0.9650 0.9650 0.9650 0.9650
718.298061 0.9660 0.9690 0.9720 0.9740 0.9760
722.553390 0.9760 0.9760 0.9770 0.9770 0.9780
726.808719 0.9780 0.9780 0.9780 0.9800 0.9800
731.064049 0.9800 0.9800 0.9780 0.9780 0.9770
735.319378 0.9760 0.9760 0.9740 0.9740 0.9740
739.574707 0.9730 0.9680 0.9680 0.9660 0.9650
743.830036 0.9640 0.9560 0.9530 0.9520 0.9440
748.085365 0.9400 0.9300 0.9170 0.9041 0.8931
752.340694 0.8830 0.8710 0.8510 0.8300 0.8120
756.596023 0.8030 0.7900 0.7900 0.8059 0.8140
760.851352 0.8330 0.8520 0.8690 0.8890 0.9050
765.106681 0.9180 0.9280 0.9360 0.9440 0.9530
769.362010 0.9570 0.9610 0.9660 0.9680 0.9690
773.617339 0.9690 0.9690 0.9690 0.9690 0.9680
777.872668 0.9680 0.9650 0.9640 0.9620 0.9620
782.127998 0.9610 0.9610 0.9600 0.9600 0.9600
786.383327 0.9610 0.9640 0.9650 0.9680 0.9690
790.638656 0.9720 0.9740 0.9760 0.9760 0.9770
794.893985 0.9800 0.9800 0.9800 0.9810 0.9810
799.149314 0.9820 0.9820 0.9810 0.9810 0.9810
803.404643 0.9800 0.9780 0.9780 0.9770 0.9770
807.659972 0.9770 0.9760 0.9740 0.9740 0.9770
811.915301 0.9770 0.9780 0.9800 0.9840 0.9850
816.170630 0.9850 0.9850 0.9850 0.9840 0.9820
820.425959 0.9800 0.9800 0.9800 0.9800 0.9780
824.681288 0.9780 0.9780 0.9770 0.9740 0.9730
828.936617 0.9720 0.9690 0.9660 0.9660 0.9640
833.191947 0.9600 0.9570 0.9540 0.9490 0.9440
837.447276 0.9410 0.9340 0.9290 0.9170 0.9090
841.702605 0.8990 0.8910 0.8810 0.8720 0.8680
845.957934 0.8590 0.8530 0.8450 0.8370 0.8280
850.213263 0.8240 0.8150 0.8120 0.8110 0.8110
854.468592 0.8120 0.8140 0.8150 0.8180 0.8190
858.723921 0.8220 0.8240 0.8270 0.8310 0.8320
862.979250 0.8370 0.8410 0.8430 0.8470 0.8510
867.234579 0.8520 0.8590 0.8650 0.8680 0.8680
871.489908 0.8690 0.8720 0.8720 0.8760 0.8790
875.745237 0.8800 0.8810 0.8810 0.8890 0.8930
880.000566 0.9000 0.9090 0.9110 0.9120 0.9130
884.255896 0.9150 0.9200 0.9240 0.9260 0.9290
888.511225 0.9340 0.9380 0.9410 0.9420 0.9420
892.766554 0.9440 0.9450 0.9460 0.9480 0.9490
897.021883 0.9490 0.9500 0.9520 0.9520 0.9500
901.277212 0.9520 0.9520 0.9520 0.9520 0.9530
905.532541 0.9530 0.9530 0.9530 0.9530 0.9540
909.787870 0.9530 0.9530 0.9530 0.9530 0.9540
914.043199 0.9540 0.9530 0.9530 0.9530 0.9530
918.298528 0.9530 0.9530 0.9530 0.9540 0.9540
922.553857 0.9560 0.9570 0.9570 0.9570 0.9570
926.809186 0.9570 0.9570 0.9560 0.9560 0.9570
931.064515 0.9570 0.9570 0.9570 0.9570 0.9570
935.319844 0.9570 0.9570 0.9570 0.9570 0.9570
939.575174 0.9570 0.9600 0.9600 0.9610 0.9610
943.830503 0.9610 0.9610 0.9610 0.9610 0.9620
948.085832 0.9620 0.9620 0.9620 0.9620 0.9610
952.341161 0.9610 0.9610 0.9610 0.9610 0.9610
956.596490 0.9610 0.9610 0.9610 0.9620 0.9610
960.851819 0.9610 0.9600 0.9600 0.9600 0.9600
965.107148 0.9580 0.9580 0.9580 0.9580 0.9570
969.362477 0.9570 0.9570 0.9570 0.9570 0.9580
973.617806 0.9580 0.9600 0.9600 0.9610 0.9610
977.873135 0.9610 0.9610 0.9610 0.9610 0.9610
982.128464 0.9610 0.9610 0.9610 0.9610 0.9610
986.383793 0.9610 0.9610 0.9610 0.9610 0.9620
990.639123 0.9620 0.9620 0.9620 0.9640 0.9640
994.894452 0.9640 0.9640 0.9640 0.9640 0.9620
999.149781 0.9620 0.9620 0.9620 0.9620 0.9620
1003.405110 0.9620 0.9620 0.9620 0.9620 0.9620
1007.660439 0.9620 0.9640 0.9640 0.9640 0.9640
1011.915768 0.9640 0.9640 0.9640 0.9620 0.9620
1016.171097 0.9620 0.9620 0.9620 0.9610 0.9580
1020.426426 0.9570 0.9570 0.9570 0.9580 0.9610
1024.681755 0.9610 0.9610 0.9610 0.9610 0.9610
1028.937084 0.9580 0.9570 0.9570 0.9570 0.9580
1033.192413 0.9600 0.9600 0.9600 0.9600 0.9600
1037.447742 0.9600 0.9600 0.9580 0.9580 0.9580
1041.703072 0.9580 0.9570 0.9570 0.9570 0.9570
1045.958401 0.9560 0.9560 0.9560 0.9560 0.9560
1050.213730 0.9560 0.9560 0.9560 0.9560 0.9540
1054.469059 0.9540 0.9540 0.9530 0.9530 0.9520
1058.724388 0.9520 0.9500 0.9500 0.9490 0.9480
1062.979717 0.9480 0.9460 0.9460 0.9460 0.9460
1067.235046 0.9460 0.9460 0.9460 0.9460 0.9460
1071.490375 0.9460 0.9460 0.9460 0.9480 0.9490
1075.745704 0.9500 0.9520 0.9530 0.9530 0.9530
1080.001033 0.9530 0.9530 0.9530 0.9520 0.9520
1084.256362 0.9500 0.9500 0.9500 0.9500 0.9500
1088.511691 0.9530 0.9530 0.9520 0.9500 0.9490
1092.767021 0.9480 0.9460 0.9420 0.9340 0.9340
1097.022350 0.9300 0.9200 0.9040 0.8950 0.8830
1101.277679 0.8690 0.8570 0.8450 0.7910 0.7431
1105.533008 0.7410 0.7181 0.7180 0.8107 0.8717
1109.788337 0.9001 0.9320 0.9380 0.9420 0.9480
1114.043666 0.9530 0.9560 0.9560 0.9560 0.9560
1118.298995 0.9560 0.9560 0.9540 0.9540 0.9530
1122.554324 0.9520 0.9490 0.9480 0.9440 0.9400
1126.809653 0.9330 0.9280 0.9130 0.9070 0.8930
1131.064982 0.8810 0.8710 0.8520 0.8350 0.8071
1135.320311 0.7920 0.7710 0.7580 0.6910 0.6460
1139.575640 0.5761 0.5490 0.5231 0.4672 0.3952
1143.830970 0.2939 0.1990 0.1310 0.0620 0.0410
1148.086299 0.0170 0.0170 0.0459 0.1656 0.2816
1152.341628 0.3211 0.3611 0.4662 0.6520 0.7010
1156.596957 0.7410 0.7720 0.8109 0.8409 0.8599
1160.852286 0.8720 0.8930 0.9000 0.9080 0.9150
1165.107615 0.9250 0.9290 0.9340 0.9360 0.9400
1169.362944 0.9450 0.9460 0.9500 0.9500 0.9520
1173.618273 0.9500 0.9490 0.9480 0.9450 0.9450
1177.873602 0.9440 0.9410 0.9410 0.9400 0.9400
1182.128931 0.9400 0.9380 0.9340 0.9250 0.9081
1186.384260 0.8890 0.8710 0.8680 0.8520 0.8520
1190.639589 0.9259 0.9360 0.9420 0.9520 0.9570
1194.894919 0.9610 0.9640 0.9650 0.9660 0.9690
1199.150248 0.9700 0.9700 0.9720 0.9700 0.9690
1203.405577 0.9690 0.9690 0.9680 0.9680 0.9680
1207.660906 0.9680 0.9680 0.9680 0.9660 0.9660
1211.916235 0.9660 0.9660 0.9650 0.9650 0.9640
1216.171564 0.9640 0.9640 0.9640 0.9640 0.9650
1220.426893 0.9650 0.9650 0.9650 0.9650 0.9650
1224.682222 0.9640 0.9640 0.9640 0.9640 0.9640
1228.937551 0.9640 0.9650 0.9650 0.9650 0.9650
1233.192880 0.9640 0.9640 0.9620 0.9620 0.9620
1237.448209 0.9620 0.9620 0.9620 0.9620 0.9620
1241.703538 0.9620 0.9620 0.9610 0.9600 0.9580
1245.958868 0.9580 0.9580 0.9580 0.9570 0.9560
1250.214197 0.9540 0.9530 0.9530 0.9530 0.9530
1254.469526 0.9530 0.9530 0.9530 0.9520 0.9520
1258.724855 0.9520 0.9520 0.9520 0.9520 0.9520
1262.980184 0.9520 0.9520 0.9520 0.9520 0.9520
1267.235513 0.9520 0.9520 0.9520 0.9530 0.9530
1271.490842 0.9540 0.9540 0.9540 0.9560 0.9560
1275.746171 0.9570 0.9570 0.9580 0.9580 0.9580
1280.001500 0.9580 0.9580 0.9580 0.9580 0.9580
1284.256829 0.9580 0.9580 0.9580 0.9570 0.9570
1288.512158 0.9560 0.9560 0.9560 0.9560 0.9570
1292.767487 0.9580 0.9600 0.9610 0.9610 0.9640
1297.022817 0.9650 0.9660 0.9660 0.9660 0.9680
1301.278146 0.9680 0.9680 0.9680 0.9700 0.9720
1305.533475 0.9730 0.9740 0.9740 0.9740 0.9760
1309.788804 0.9760 0.9740 0.9740 0.9740 0.9740
1314.044133 0.9730 0.9730 0.9730 0.9730 0.9720
1318.299462 0.9720 0.9720 0.9740 0.9760 0.9760
1322.554791 0.9770 0.9770 0.9760 0.9760 0.9760
1326.810120 0.9760 0.9760 0.9760 0.9760 0.9740
1331.065449 0.9740 0.9730 0.9720 0.9720 0.9720
1335.320778 0.9720 0.9720 0.9720 0.9720 0.9720
1339.576107 0.9720 0.9720 0.9720 0.9720 0.9720
1343.831436 0.9720 0.9730 0.9730 0.9740 0.9740
1348.086766 0.9740 0.9730 0.9730 0.9720 0.9720
1352.342095 0.9700 0.9700 0.9700 0.9700 0.9730
1356.597424 0.9760 0.9760 0.9760 0.9760 0.9770
1360.852753 0.9770 0.9770 0.9770 0.9760 0.9740
1365.108082 0.9720 0.9700 0.9690 0.9690 0.9690
1369.363411 0.9690 0.9690 0.9690 0.9690 0.9690
1373.618740 0.9690 0.9690 0.9700 0.9700 0.9720
1377.874069 0.9720 0.9730 0.9770 0.9800 0.9840
1382.129398 0.9920 0.9930 0.9920 0.9920 0.9890
1386.384727 0.9860 0.9850 0.9810 0.9800 0.9780
1390.640056 0.9760 0.9740 0.9730 0.9730 0.9730
1394.895385 0.9720 0.9720 0.9700 0.9700 0.9690
1399.150714 0.9680 0.9650 0.9640 0.9640 0.9620
1403.406044 0.9600 0.9580 0.9570 0.9540 0.9540
1407.661373 0.9530 0.9530 0.9540 0.9560 0.9570
1411.916702 0.9580 0.9600 0.9610 0.9640 0.9650
1416.172031 0.9660 0.9690 0.9700 0.9720 0.9770
1420.427360 0.9780 0.9780 0.9780 0.9780 0.9780
1424.682689 0.9800 0.9810 0.9810 0.9810 0.9810
1428.938018 0.9800 0.9800 0.9800 0.9800 0.9800
1433.193347 0.9800 0.9800 0.9800 0.9800 0.9800
1437.448676 0.9780 0.9780 0.9780 0.9770 0.9760
1441.704005 0.9760 0.9760 0.9760 0.9760 0.9760
1445.959334 0.9760 0.9760 0.9760 0.9760 0.9760
1450.214663 0.9740 0.9740 0.9740 0.9740 0.9740
1454.469993 0.9730 0.9730 0.9720 0.9720 0.9700
1458.725322 0.9690 0.9680 0.9660 0.9650 0.9640
1462.980651 0.9640 0.9640 0.9640 0.9610 0.9580
1467.235980 0.9580 0.9570 0.9560 0.9540 0.9540
1471.491309 0.9530 0.9520 0.9500 0.9490 0.9490
1475.746638 0.9450 0.9400 0.9360 0.9340 0.9320
1480.001967 0.9300 0.9240 0.9220 0.9210 0.9200
1484.257296 0.9160 0.9130 0.9120 0.9070 0.9040
1488.512625 0.8930 0.8920 0.8840 0.8800 0.8790
1492.767954 0.8730 0.8730 0.8690 0.8610 0.8570
1497.023283 0.8530 0.8450 0.8410 0.8330 0.8300
1501.278612 0.8230 0.8190 0.8150 0.8100 0.7960
1505.533942 0.7940 0.7880 0.7860 0.7830 0.7760
1509.789271 0.7710 0.7660 0.7590 0.7560 0.7540
1514.044600 0.7500 0.7430 0.7420 0.7370 0.7330
1518.299929 0.7270 0.7260 0.7220 0.7140 0.7140
1522.555258 0.7090 0.7030 0.6990 0.6940 0.6900
1526.810587 0.6860 0.6830 0.6740 0.6620 0.6560
1531.065916 0.6460 0.6410 0.6320 0.6180 0.6050
1535.321245 0.6000 0.5890 0.5810 0.5720 0.5590
1539.576574 0.5520 0.5440 0.5350 0.5250 0.5200
1543.831903 0.5130 0.5090 0.5030 0.5010 0.4990
1548.087232 0.4980 0.4960 0.4950 0.4950 0.4980
1552.342561 0.5010 0.5010 0.5090 0.5130 0.5210
1556.597891 0.5250 0.5330 0.5630 0.5720 0.5770
1560.853220 0.5840 0.5890 0.5900 0.6040 0.6140
1565.108549 0.6280 0.6330 0.6440 0.6480 0.6580
1569.363878 0.6670 0.6740 0.6770 0.6780 0.6810
1573.619207 0.6830 0.6890 0.6940 0.6940 0.6980
1577.874536 0.6990 0.6990 0.7020 0.7050 0.7070
1582.129865 0.7090 0.7100 0.7140 0.7170 0.7230
1586.385194 0.7310 0.7340 0.7370 0.7390 0.7520
1590.640523 0.7590 0.7670 0.7720 0.7780 0.7880
1594.895852 0.7950 0.8070 0.8140 0.8180 0.8300
1599.151181 0.8330 0.8510 0.8610 0.8730 0.8750
1603.406510 0.8810 0.8880 0.8930 0.9030 0.9070
1607.661840 0.9150 0.9240 0.9300 0.9340 0.9410
1611.917169 0.9420 0.9440 0.9450 0.9490 0.9540
1616.172498 0.9570 0.9580 0.9580 0.9640 0.9680
1620.427827 0.9700 0.9720 0.9730 0.9760 0.9770
1624.683156 0.9770 0.9780 0.9800 0.9820 0.9840
1628.938485 0.9840 0.9840 0.9860 0.9890 0.9920
1633.193814 0.9930 0.9930 0.9940 0.9940 0.9940
1637.449143 0.9970 0.9980 1.0020 1.0020 1.0070
1641.704472 1.0070 1.0070 1.0090 1.0100 1.0100
1645.959801 1.0110 1.0110 1.0090 1.0070 1.0030
1650.215130 1.0030 1.0020 1.0020 1.0010 1.0010
1654.470459 1.0000 0.9980 0.9940 0.9930 0.9930
1658.725789 0.9900 0.9890 0.9880 0.9880 0.9860
1662.981118 0.9860 0.9860 0.9850 0.9840 0.9840
1667.236447 0.9820 0.9820 0.9820 0.9820 0.9820
1671.491776 0.9820 0.9810 0.9810 0.9810 0.9820
1675.747105 0.9840 0.9840 0.9840 0.9840 0.9840
1680.002434 0.9840 0.9840 0.9840 0.9840 0.9840
1684.257763 0.9850 0.9840 0.9840 0.9820 0.9820
1688.513092 0.9820 0.9820 0.9820 0.9820 0.9820
1692.768421 0.9840 0.9840 0.9840 0.9840 0.9840
1697.023750 0.9840 0.9800 0.9800 0.9800 0.9780
1701.279079 0.9770 0.9760 0.9770 0.9770 0.9770
1705.534408 0.9770 0.9770 0.9770 0.9770 0.9770
1709.789738 0.9780 0.9780 0.9780 0.9780 0.9780
1714.045067 0.9770 0.9770 0.9770 0.9770 0.9770
1718.300396 0.9770 0.9780 0.9780 0.9780 0.9780
1722.555725 0.9780 0.9780 0.9780 0.9780 0.9800
1726.811054 0.9800 0.9780 0.9780 0.9780 0.9780
1731.066383 0.9770 0.9770 0.9760 0.9760 0.9760
1735.321712 0.9740 0.9740 0.9740 0.9760 0.9760
1739.577041 0.9760 0.9770 0.9770 0.9760 0.9760
1743.832370 0.9760 0.9760 0.9760 0.9760 0.9760
1748.087699 0.9760 0.9760 0.9760 0.9740 0.9740
1752.343028 0.9760 0.9760 0.9760 0.9760 0.9760
1756.598357 0.9760 0.9760 0.9760 0.9760 0.9760
1760.853687 0.9770 0.9770 0.9770 0.9770 0.9770
1765.109016 0.9770 0.9760 0.9760 0.9760 0.9760
1769.364345 0.9770 0.9770 0.9780 0.9800 0.9800
1773.619674 0.9800 0.9810 0.9810 0.9800 0.9780
1777.875003 0.9780 0.9780 0.9780 0.9780 0.9770
1782.130332 0.9770 0.9770 0.9770 0.9770 0.9770
1786.385661 0.9770 0.9770 0.9760 0.9760 0.9740
1790.640990 0.9740 0.9760 0.9760 0.9760 0.9760
1794.896319 0.9760 0.9760 0.9760 0.9740 0.9740
1799.151648 0.9740 0.9760 0.9760 0.9720 0.9720
1803.406977 0.9720 0.9720 0.9720 0.9720 0.9720
1807.662306 0.9720 0.9730 0.9730 0.9730 0.9740
1811.917636 0.9740 0.9740 0.9730 0.9720 0.9700
1816.172965 0.9700 0.9700 0.9700 0.9700 0.9690
1820.428294 0.9690 0.9700 0.9700 0.9700 0.9700
1824.683623 0.9700 0.9690 0.9690 0.9690 0.9690
1828.938952 0.9690 0.9690 0.9690 0.9690 0.9680
1833.194281 0.9680 0.9660 0.9660 0.9660 0.9660
1837.449610 0.9660 0.9680 0.9680 0.9680 0.9690
1841.704939 0.9690 0.9690 0.9690 0.9690 0.9690
1845.960268 0.9680 0.9680 0.9680 0.9680 0.9680
1850.215597 0.9680 0.9690 0.9690 0.9690 0.9700
1854.470926 0.9700 0.9700 0.9700 0.9700 0.9700
1858.726255 0.9700 0.9700 0.9690 0.9690 0.9690
1862.981585 0.9680 0.9680 0.9680 0.9680 0.9680
1867.236914 0.9690 0.9720 0.9720 0.9720 0.9720
1871.492243 0.9720 0.9720 0.9720 0.9720 0.9730
1875.747572 0.9740 0.9740 0.9740 0.9740 0.9740
1880.002901 0.9740 0.9740 0.9740 0.9740 0.9740
1884.258230 0.9740 0.9740 0.9740 0.9740 0.9740
1888.513559 0.9740 0.9740 0.9740 0.9730 0.9720
1892.768888 0.9720 0.9720 0.9720 0.9730 0.9730
1897.024217 0.9730 0.9720 0.9720 0.9720 0.9730
1901.279546 0.9740 0.9730 0.9740 0.9740 0.9740
1905.534875 0.9740 0.9760 0.9760 0.9760 0.9760
1909.790204 0.9760 0.9760 0.9760 0.9760 0.9760
1914.045533 0.9760 0.9760 0.9740 0.9740 0.9730
1918.300863 0.9740 0.9740 0.9760 0.9760 0.9760
1922.556192 0.9760 0.9760 0.9760 0.9760 0.9760
1926.811521 0.9760 0.9760 0.9760 0.9760 0.9770
1931.066850 0.9770 0.9770 0.9770 0.9770 0.9770
1935.322179 0.9770 0.9770 0.9780 0.9780 0.9800
1939.577508 0.9800 0.9780 0.9770 0.9760 0.9760
1943.832837 0.9760 0.9760 0.9760 0.9760 0.9760
1948.088166 0.9770 0.9770 0.9780 0.9780 0.9780
1952.343495 0.9780 0.9780 0.9780 0.9780 0.9770
1956.598824 0.9770 0.9780 0.9780 0.9780 0.9800
1960.854153 1.0000 0.9900 0.9800 0.9770 0.9740
1965.109482 0.9740 0.9740 0.9760 0.9760 0.9760
1969.364812 0.9770 0.9780 0.9780 0.9780 0.9780
1973.620141 0.9770 0.9760 0.9760 0.9770 0.9770
1977.875470 0.9770 0.9770 0.9760 0.9760 0.9740
1982.130799 0.9740 0.9730 0.9740 0.9740 0.9740
1986.386128 0.9740 0.9740 0.9730 0.9760 0.9770
1990.641457 0.9760 0.9760 0.9760 0.9760 0.9760
1994.896786 0.9760 0.9760 0.9760 0.9760 0.9760
1999.152115 0.9760 0.9760 0.9765 0.9770 0.9765
2003.407444 0.9760 0.9760 0.9760 0.9760 0.9760
2007.662773 0.9760 0.9760 0.9760 0.9760 0.9765
2011.918102 0.9770 0.9770 0.9770 0.9770 0.9770
2016.173431 0.9770 0.9770 0.9775 0.9780 0.9790
2020.428761 0.9801 0.9841 0.9880 0.9880 0.9879
2024.684090 0.9859 0.9840 0.9840 0.9840 0.9840
2028.939419 0.9839 0.9824 0.9810 0.9805 0.9800
2033.194748 0.9800 0.9800 0.9800 0.9800 0.9800
2037.450077 0.9800 0.9800 0.9800 0.9800 0.9800
2041.705406 0.9800 0.9800 0.9800 0.9800 0.9800
2045.960735 0.9801 0.9811 0.9820 0.9820 0.9819
2050.216064 0.9798 0.9780 0.9780 0.9780 0.9780
2054.471393 0.9780 0.9780 0.9781 0.9791 0.9800
2058.726722 0.9800 0.9800 0.9800 0.9800 0.9800
2062.982051 0.9800 0.9800 0.9800 0.9800 0.9795
2067.237380 0.9739 0.9696 0.9751 0.9800 0.9800
2071.492710 0.9801 0.9806 0.9811 0.9816 0.9820
2075.748039 0.9820 0.9821 0.9831 0.9840 0.9840
2080.003368 0.9840 0.9840 0.9840 0.9840 0.9840
2084.258697 0.9840 0.9839 0.9829 0.9819 0.9814
2088.514026 0.9809 0.9804 0.9801 0.9806 0.9810
2092.769355 0.9810 0.9810 0.9810 0.9810 0.9810
2097.024684 0.9811 0.9816 0.9819 0.9814 0.9809
2101.280013 0.9804 0.9800 0.9800 0.9800 0.9800
2105.535342 0.9798 0.9788 0.9780 0.9780 0.9779
2109.790671 0.9774 0.9769 0.9764 0.9758 0.9748
2114.046000 0.9739 0.9734 0.9729 0.9724 0.9718
2118.301329 0.9708 0.9698 0.9688 0.9674 0.9644
2122.556659 0.9619 0.9614 0.9607 0.9592 0.9582
2126.811988 0.9592 0.9601 0.9606 0.9613 0.9628
2131.067317 0.9645 0.9670 0.9693 0.9708 0.9720
2135.322646 0.9720 0.9720 0.9720 0.9725 0.9745
2139.577975 0.9761 0.9766 0.9771 0.9776 0.9780
2143.833304 0.9780 0.9780 0.9780 0.9780 0.9780
2148.088633 0.9782 0.9792 0.9800 0.9800 0.9800
2152.343962 0.9800 0.9800 0.9800 0.9800 0.9800
