##TITLE=PROPANE, 2-IODO-2-METHYL-
##JCAMP-DX=4.24
##DATA TYPE=INFRARED SPECTRUM
##CLASS=COBLENTZ III
##ORIGIN=STANDARD OIL OF OHIO
##OWNER=COBLENTZ SOCIETY
Collection (C) 2018 copyright by the U.S. Secretary of Commerce
on behalf of the United States of America. All rights reserved.
##DATE=1971/06/22
##NAMES=2-iodo-2-methylpropane
##CAS REGISTRY NO=558-17-8
##MOLFORM=C4 H9 I
##SOURCE REFERENCE=COBLENTZ NO. 10019
##$NIST SOURCE=COBLENTZ
##$NIST IMAGE=cob10019
##SPECTROMETER/DATA SYSTEM=PERKIN-ELMER 521 (GRATING)
##INSTRUMENT PARAMETERS=FILTERS AT 3150, 2500, 2000, 1150, 700, 410 AND GRATING CHANGES AT 2000, 630 CM^-^1
##STATE=LIQUID
##PATH LENGTH=SMEAR, KBr PLATES
##SAMPLING PROCEDURE=TRANSMISSION
##RESOLUTION=4
##DATA PROCESSING=DIGITIZED BY NIST FROM HARD COPY (FROM TWO SEGMENTS)
##XUNITS=1/CM
##YUNITS=TRANSMITTANCE
##XFACTOR=1.000000
##YFACTOR=1
##DELTAX=1.001672
##FIRSTX=249.082
##LASTX=3897.17
##FIRSTY=0.053
##MAXX=3897.17
##MINX=249.082
##MAXY=0.902
##MINY=0.053
##NPOINTS=3643
##XYDATA=(X++(Y..Y))
249.082000 0.0530 0.0530 0.0530 0.0540 0.0540
254.090361 0.0570 0.0570 0.0580 0.0590 0.0590
259.098722 0.0580 0.0580 0.0590 0.0590 0.0590
264.107082 0.0610 0.0630 0.0630 0.0630 0.0640
269.115443 0.0640 0.0670 0.0680 0.0680 0.0690
274.123804 0.0720 0.0730 0.0740 0.0770 0.0780
279.132165 0.0790 0.0790 0.0800 0.0820 0.0830
284.140526 0.0840 0.0840 0.0850 0.0870 0.0880
289.148887 0.0890 0.0890 0.0920 0.0940 0.0950
294.157247 0.1000 0.1020 0.1040 0.1070 0.1130
299.165608 0.1250 0.1350 0.1430 0.1490 0.1510
304.173969 0.1510 0.1530 0.1530 0.1530 0.1530
309.182330 0.1530 0.1560 0.1630 0.1710 0.1740
314.190691 0.1750 0.1780 0.1840 0.1910 0.1930
319.199051 0.1940 0.1990 0.2050 0.2150 0.2190
324.207412 0.2270 0.2350 0.2450 0.2470 0.2500
329.215773 0.2510 0.2560 0.2600 0.2620 0.2660
334.224134 0.2760 0.2780 0.2880 0.2960 0.3010
339.232495 0.3020 0.3160 0.3280 0.3430 0.3440
344.240856 0.3480 0.3490 0.3540 0.3560 0.3610
349.249216 0.3740 0.3810 0.3960 0.4090 0.4320
354.257577 0.4390 0.4400 0.4470 0.4470 0.4490
359.265938 0.4590 0.4650 0.4690 0.4760 0.4790
364.274299 0.4810 0.4930 0.5000 0.5040 0.5130
369.282660 0.5200 0.5260 0.5500 0.5500 0.5560
374.291020 0.5620 0.5740 0.5820 0.5820 0.5840
379.299381 0.5850 0.5890 0.5940 0.6000 0.6050
384.307742 0.6070 0.6110 0.6170 0.6220 0.6260
389.316103 0.6320 0.6370 0.6420 0.6450 0.6480
394.324464 0.6510 0.6630 0.6710 0.6770 0.6840
399.332825 0.6920 0.6960 0.6960 0.6990 0.7030
404.341185 0.7070 0.7090 0.7130 0.7170 0.7190
409.349546 0.7240 0.7290 0.7350 0.7400 0.7450
414.357907 0.7500 0.7530 0.7570 0.7590 0.7600
419.366268 0.7630 0.7680 0.7720 0.7740 0.7750
424.374629 0.7770 0.7830 0.7920 0.7950 0.7970
429.382990 0.7990 0.8000 0.8030 0.8050 0.8050
434.391350 0.8060 0.8130 0.8140 0.8210 0.8240
439.399711 0.8250 0.8280 0.8300 0.8310 0.8310
444.408072 0.8310 0.8330 0.8330 0.8330 0.8330
449.416433 0.8330 0.8330 0.8330 0.8330 0.8310
454.424794 0.8310 0.8310 0.8300 0.8290 0.8260
459.433154 0.8250 0.8240 0.8200 0.8190 0.8130
464.441515 0.8110 0.8090 0.8000 0.7930 0.7920
469.449876 0.7820 0.7700 0.7580 0.7400 0.7210
474.458237 0.6941 0.6780 0.6501 0.6261 0.6011
479.466598 0.5620 0.5330 0.5010 0.4640 0.4331
484.474959 0.3991 0.3641 0.3361 0.3161 0.3130
489.483319 0.3130 0.3300 0.3680 0.3990 0.4529
494.491680 0.4999 0.5699 0.6209 0.6419 0.6679
499.500041 0.6990 0.7230 0.7420 0.7570 0.7630
504.508402 0.7700 0.7740 0.7750 0.7770 0.7770
509.516763 0.7780 0.7770 0.7770 0.7750 0.7720
514.525123 0.7700 0.7670 0.7650 0.7630 0.7590
519.533484 0.7580 0.7580 0.7590 0.7600 0.7740
524.541845 0.7870 0.8000 0.8140 0.8240 0.8409
529.550206 0.8490 0.8560 0.8630 0.8630 0.8670
534.558567 0.8700 0.8710 0.8740 0.8750 0.8760
539.566928 0.8790 0.8800 0.8810 0.8820 0.8840
544.575288 0.8860 0.8870 0.8890 0.8910 0.8910
549.583649 0.8910 0.8920 0.8920 0.8920 0.8920
554.592010 0.8920 0.8920 0.8910 0.8910 0.8920
559.600371 0.8920 0.8920 0.8920 0.8920 0.8920
564.608732 0.8950 0.8960 0.8960 0.8970 0.8970
569.617092 0.8970 0.8970 0.8990 0.8990 0.8990
574.625453 0.8990 0.8990 0.8990 0.8990 0.8990
579.633814 0.8990 0.8990 0.8990 0.8990 0.9000
584.642175 0.9000 0.9020 0.9020 0.9010 0.9010
589.650536 0.9010 0.9010 0.9010 0.9010 0.9010
594.658897 0.9010 0.9010 0.9010 0.9010 0.9010
599.667257 0.9010 0.9010 0.9010 0.9010 0.9010
604.675618 0.9010 0.9010 0.9010 0.9010 0.9010
609.683979 0.9010 0.9010 0.9010 0.9010 0.9000
614.692340 0.8990 0.8970 0.8970 0.8970 0.8960
619.700701 0.8960 0.8950 0.8950 0.8940 0.8940
624.709061 0.8940 0.8920 0.8920 0.8920 0.8920
629.717422 0.8920 0.8900 0.8890 0.8890 0.8890
634.725783 0.8890 0.8900 0.8900 0.8900 0.8900
639.734144 0.8890 0.8890 0.8900 0.8900 0.8900
644.742505 0.8900 0.8900 0.8900 0.8900 0.8900
649.750866 0.8900 0.8900 0.8900 0.8900 0.8900
654.759226 0.8900 0.8900 0.8900 0.8900 0.8890
659.767587 0.8890 0.8900 0.8900 0.8890 0.8900
664.775948 0.8900 0.8890 0.8870 0.8870 0.8870
669.784309 0.8860 0.8860 0.8870 0.8860 0.8860
674.792670 0.8860 0.8860 0.8860 0.8860 0.8870
679.801030 0.8860 0.8850 0.8840 0.8820 0.8820
684.809391 0.8820 0.8810 0.8800 0.8800 0.8800
689.817752 0.8800 0.8810 0.8810 0.8800 0.8800
694.826113 0.8800 0.8790 0.8790 0.8790 0.8790
699.834474 0.8790 0.8770 0.8770 0.8770 0.8770
704.842835 0.8770 0.8770 0.8760 0.8760 0.8760
709.851195 0.8760 0.8760 0.8760 0.8750 0.8750
714.859556 0.8750 0.8750 0.8750 0.8750 0.8750
719.867917 0.8740 0.8720 0.8720 0.8720 0.8720
724.876278 0.8720 0.8720 0.8720 0.8710 0.8700
729.884639 0.8670 0.8660 0.8640 0.8630 0.8630
734.892999 0.8610 0.8610 0.8610 0.8600 0.8600
739.901360 0.8590 0.8590 0.8600 0.8610 0.8610
744.909721 0.8630 0.8650 0.8670 0.8690 0.8690
749.918082 0.8690 0.8690 0.8700 0.8690 0.8690
754.926443 0.8690 0.8690 0.8690 0.8690 0.8690
759.934804 0.8690 0.8700 0.8700 0.8630 0.8610
764.943164 0.8610 0.8600 0.8590 0.8560 0.8510
769.951525 0.8430 0.8390 0.8360 0.8340 0.8310
774.959886 0.8260 0.8250 0.8240 0.8230 0.8190
779.968247 0.8150 0.8130 0.8060 0.8060 0.8050
784.976608 0.8030 0.7970 0.7940 0.7880 0.7820
789.984969 0.7720 0.7630 0.7520 0.7310 0.7020
794.993329 0.6770 0.6500 0.6051 0.5751 0.5441
800.001690 0.4949 0.4090 0.3730 0.3730 0.4320
805.010051 0.5758 0.6419 0.7059 0.7439 0.7619
810.018412 0.7870 0.7990 0.8140 0.8260 0.8340
815.026773 0.8400 0.8450 0.8530 0.8550 0.8560
820.035133 0.8560 0.8580 0.8590 0.8610 0.8640
825.043494 0.8650 0.8660 0.8660 0.8660 0.8670
830.051855 0.8690 0.8690 0.8700 0.8700 0.8700
835.060216 0.8700 0.8700 0.8700 0.8700 0.8700
840.068577 0.8700 0.8700 0.8710 0.8710 0.8710
845.076938 0.8710 0.8710 0.8710 0.8710 0.8710
850.085298 0.8710 0.8710 0.8700 0.8700 0.8700
855.093659 0.8700 0.8700 0.8700 0.8690 0.8690
860.102020 0.8690 0.8700 0.8700 0.8700 0.8700
865.110381 0.8700 0.8690 0.8670 0.8670 0.8670
870.118742 0.8660 0.8660 0.8660 0.8660 0.8660
875.127102 0.8660 0.8660 0.8650 0.8650 0.8670
880.135463 0.8700 0.8700 0.8690 0.8690 0.8690
885.143824 0.8690 0.8690 0.8690 0.8690 0.8690
890.152185 0.8690 0.8690 0.8690 0.8690 0.8690
895.160546 0.8690 0.8690 0.8690 0.8690 0.8700
900.168907 0.8710 0.8700 0.8700 0.8700 0.8700
905.177267 0.8700 0.8700 0.8690 0.8690 0.8670
910.185628 0.8660 0.8650 0.8650 0.8650 0.8650
915.193989 0.8660 0.8660 0.8660 0.8660 0.8670
920.202350 0.8660 0.8660 0.8640 0.8610 0.8610
925.210711 0.8610 0.8610 0.8610 0.8610 0.8610
930.219071 0.8600 0.8600 0.8610 0.8610 0.8610
935.227432 0.8610 0.8610 0.8630 0.8630 0.8630
940.235793 0.8630 0.8610 0.8600 0.8600 0.8600
945.244154 0.8600 0.8600 0.8610 0.8610 0.8610
950.252515 0.8610 0.8600 0.8600 0.8600 0.8610
955.260876 0.8600 0.8600 0.8600 0.8600 0.8600
960.269236 0.8600 0.8590 0.8590 0.8580 0.8560
965.277597 0.8560 0.8590 0.8590 0.8590 0.8580
970.285958 0.8580 0.8580 0.8580 0.8580 0.8580
975.294319 0.8580 0.8580 0.8560 0.8550 0.8550
980.302680 0.8550 0.8550 0.8550 0.8550 0.8550
985.311040 0.8540 0.8540 0.8540 0.8540 0.8530
990.319401 0.8540 0.8530 0.8530 0.8530 0.8530
995.327762 0.8530 0.8530 0.8530 0.8530 0.8500
1000.336123 0.8460 0.8430 0.8410 0.8400 0.8390
1005.344484 0.8390 0.8380 0.8380 0.8360 0.8350
1010.352845 0.8340 0.8340 0.8330 0.8290 0.8280
1015.361205 0.8260 0.8230 0.8200 0.8150 0.8100
1020.369566 0.7980 0.7930 0.7840 0.7750 0.7640
1025.377927 0.7550 0.7550 0.7600 0.7770 0.7840
1030.386288 0.7950 0.8090 0.8160 0.8210 0.8230
1035.394649 0.8240 0.8260 0.8280 0.8290 0.8290
1040.403009 0.8290 0.8290 0.8300 0.8300 0.8280
1045.411370 0.8260 0.8260 0.8260 0.8250 0.8230
1050.419731 0.8200 0.8190 0.8180 0.8150 0.8130
1055.428092 0.8090 0.8060 0.8050 0.8010 0.7990
1060.436453 0.7930 0.7880 0.7870 0.7850 0.7850
1065.444814 0.7870 0.7930 0.7950 0.7970 0.7980
1070.453174 0.8000 0.8060 0.8130 0.8140 0.8180
1075.461535 0.8200 0.8210 0.8230 0.8240 0.8230
1080.469896 0.8200 0.8190 0.8160 0.8150 0.8130
1085.478257 0.8080 0.8080 0.8060 0.8050 0.8040
1090.486618 0.7980 0.7940 0.7940 0.7890 0.7870
1095.494979 0.7840 0.7820 0.7800 0.7800 0.7770
1100.503339 0.7730 0.7680 0.7630 0.7580 0.7490
1105.511700 0.7370 0.7280 0.7230 0.7090 0.7030
1110.520061 0.6819 0.6560 0.6450 0.6310 0.6100
1115.528422 0.5790 0.5550 0.5350 0.5140 0.4641
1120.536783 0.4029 0.3729 0.3109 0.2640 0.2200
1125.545143 0.1830 0.1530 0.1270 0.1000 0.0930
1130.553504 0.0840 0.0680 0.0660 0.0660 0.0680
1135.561865 0.0690 0.0750 0.0790 0.0820 0.1029
1140.570226 0.1251 0.1561 0.1880 0.2250 0.2750
1145.578587 0.3160 0.3540 0.3909 0.4199 0.4619
1150.586948 0.4911 0.5091 0.5570 0.5760 0.6060
1155.595308 0.6260 0.6350 0.6480 0.6600 0.6740
1160.603669 0.6880 0.6940 0.6980 0.7060 0.7090
1165.612030 0.7130 0.7160 0.7170 0.7240 0.7280
1170.620391 0.7330 0.7340 0.7370 0.7370 0.7390
1175.628752 0.7400 0.7430 0.7450 0.7490 0.7520
1180.637112 0.7530 0.7580 0.7580 0.7590 0.7620
1185.645473 0.7640 0.7640 0.7640 0.7640 0.7640
1190.653834 0.7620 0.7600 0.7600 0.7600 0.7600
1195.662195 0.7620 0.7630 0.7620 0.7620 0.7620
1200.670556 0.7600 0.7590 0.7580 0.7580 0.7580
1205.678917 0.7570 0.7550 0.7540 0.7520 0.7500
1210.687277 0.7480 0.7450 0.7420 0.7380 0.7310
1215.695638 0.7260 0.7140 0.6990 0.6840 0.6730
1220.703999 0.6509 0.6309 0.5899 0.5620 0.5460
1225.712360 0.5290 0.4960 0.4570 0.4530 0.4550
1230.720721 0.5712 0.6281 0.6831 0.7190 0.7540
1235.729081 0.7740 0.7920 0.8110 0.8200 0.8280
1240.737442 0.8330 0.8340 0.8360 0.8360 0.8380
1245.745803 0.8440 0.8460 0.8480 0.8480 0.8480
1250.754164 0.8500 0.8500 0.8500 0.8500 0.8500
1255.762525 0.8500 0.8500 0.8500 0.8500 0.8510
1260.770886 0.8540 0.8550 0.8560 0.8560 0.8580
1265.779246 0.8580 0.8580 0.8580 0.8580 0.8580
1270.787607 0.8580 0.8580 0.8580 0.8580 0.8580
1275.795968 0.8580 0.8580 0.8590 0.8590 0.8580
1280.804329 0.8580 0.8580 0.8580 0.8580 0.8580
1285.812690 0.8580 0.8580 0.8590 0.8590 0.8590
1290.821050 0.8590 0.8590 0.8590 0.8600 0.8600
1295.829411 0.8600 0.8590 0.8590 0.8580 0.8580
1300.837772 0.8580 0.8580 0.8580 0.8580 0.8580
1305.846133 0.8580 0.8560 0.8550 0.8530 0.8510
1310.854494 0.8460 0.8440 0.8430 0.8410 0.8410
1315.862855 0.8400 0.8400 0.8400 0.8410 0.8410
1320.871215 0.8410 0.8410 0.8400 0.8400 0.8400
1325.879576 0.8390 0.8380 0.8360 0.8360 0.8340
1330.887937 0.8340 0.8340 0.8330 0.8330 0.8300
1335.896298 0.8280 0.8210 0.8200 0.8190 0.8180
1340.904659 0.8050 0.8010 0.7990 0.7950 0.7940
1345.913019 0.7800 0.7750 0.7740 0.7600 0.7470
1350.921380 0.7309 0.7130 0.6960 0.6810 0.6650
1355.929741 0.6400 0.5870 0.5570 0.5210 0.4851
1360.938102 0.4068 0.3318 0.2648 0.1789 0.1080
1365.946463 0.1050 0.1080 0.1300 0.1889 0.2369
1370.954824 0.3262 0.3891 0.4451 0.5001 0.5660
1375.963184 0.5940 0.6200 0.6360 0.6560 0.6650
1380.971545 0.6720 0.6790 0.6920 0.6990 0.7020
1385.979906 0.7070 0.7080 0.7080 0.7080 0.7090
1390.988267 0.7090 0.7090 0.7160 0.7230 0.7290
1395.996628 0.7340 0.7390 0.7420 0.7430 0.7430
1401.004989 0.7420 0.7400 0.7390 0.7330 0.7310
1406.013349 0.7290 0.7280 0.7280 0.7280 0.7290
1411.021710 0.7370 0.7390 0.7420 0.7430 0.7440
1416.030071 0.7440 0.7430 0.7430 0.7420 0.7400
1421.038432 0.7320 0.7290 0.7220 0.7160 0.7110
1426.046793 0.7080 0.7040 0.6920 0.6810 0.6760
1431.055153 0.6690 0.6610 0.6430 0.6180 0.5910
1436.063514 0.5760 0.5560 0.5410 0.5250 0.4961
1441.071875 0.4599 0.4339 0.4019 0.3740 0.3509
1446.080236 0.3170 0.2730 0.2550 0.2290 0.2060
1451.088597 0.1990 0.1991 0.2352 0.3051 0.3780
1456.096958 0.4150 0.4350 0.4530 0.4680 0.4960
1461.105318 0.5290 0.5400 0.5370 0.5350 0.5210
1466.113679 0.4910 0.4580 0.4540 0.4540 0.4889
1471.122040 0.5611 0.5870 0.6031 0.6310 0.6500
1476.130401 0.6610 0.6770 0.6940 0.7080 0.7240
1481.138762 0.7381 0.7580 0.7650 0.7690 0.7750
1486.147122 0.7890 0.7940 0.7950 0.7950 0.7990
1491.155483 0.8010 0.8040 0.8130 0.8150 0.8190
1496.163844 0.8200 0.8230 0.8250 0.8250 0.8260
1501.172205 0.8280 0.8290 0.8290 0.8300 0.8300
1506.180566 0.8300 0.8330 0.8330 0.8330 0.8330
1511.188927 0.8340 0.8340 0.8340 0.8350 0.8350
1516.197287 0.8350 0.8350 0.8350 0.8350 0.8390
1521.205648 0.8400 0.8430 0.8430 0.8480 0.8490
1526.214009 0.8490 0.8530 0.8540 0.8560 0.8580
1531.222370 0.8580 0.8580 0.8590 0.8580 0.8580
1536.230731 0.8580 0.8580 0.8590 0.8610 0.8610
1541.239091 0.8610 0.8610 0.8630 0.8640 0.8640
1546.247452 0.8630 0.8610 0.8600 0.8600 0.8600
1551.255813 0.8600 0.8600 0.8640 0.8640 0.8610
1556.264174 0.8600 0.8600 0.8630 0.8660 0.8660
1561.272535 0.8670 0.8670 0.8670 0.8670 0.8670
1566.280896 0.8660 0.8610 0.8610 0.8690 0.8690
1571.289256 0.8670 0.8660 0.8630 0.8630 0.8650
1576.297617 0.8650 0.8650 0.8650 0.8650 0.8650
1581.305978 0.8650 0.8650 0.8650 0.8660 0.8660
1586.314339 0.8650 0.8640 0.8640 0.8640 0.8630
1591.322700 0.8610 0.8610 0.8610 0.8610 0.8610
1596.331060 0.8610 0.8610 0.8600 0.8600 0.8600
1601.339421 0.8590 0.8590 0.8590 0.8590 0.8600
1606.347782 0.8600 0.8600 0.8600 0.8600 0.8600
1611.356143 0.8600 0.8590 0.8580 0.8580 0.8560
1616.364504 0.8580 0.8560 0.8560 0.8560 0.8550
1621.372865 0.8560 0.8580 0.8560 0.8560 0.8560
1626.381225 0.8580 0.8590 0.8600 0.8600 0.8600
1631.389586 0.8590 0.8580 0.8550 0.8560 0.8580
1636.397947 0.8590 0.8590 0.8590 0.8590 0.8580
1641.406308 0.8580 0.8580 0.8550 0.8560 0.8560
1646.414669 0.8560 0.8560 0.8550 0.8550 0.8550
1651.423029 0.8550 0.8550 0.8560 0.8560 0.8560
1656.431390 0.8560 0.8560 0.8560 0.8560 0.8550
1661.439751 0.8550 0.8560 0.8560 0.8550 0.8530
1666.448112 0.8510 0.8500 0.8490 0.8480 0.8460
1671.456473 0.8460 0.8450 0.8450 0.8490 0.8460
1676.464834 0.8440 0.8430 0.8410 0.8400 0.8390
1681.473194 0.8390 0.8390 0.8400 0.8400 0.8400
1686.481555 0.8400 0.8390 0.8390 0.8390 0.8390
1691.489916 0.8380 0.8380 0.8360 0.8360 0.8360
1696.498277 0.8360 0.8360 0.8360 0.8360 0.8360
1701.506638 0.8360 0.8360 0.8360 0.8360 0.8380
1706.514998 0.8380 0.8380 0.8360 0.8340 0.8340
1711.523359 0.8340 0.8340 0.8340 0.8350 0.8360
1716.531720 0.8360 0.8360 0.8360 0.8360 0.8360
1721.540081 0.8360 0.8380 0.8360 0.8360 0.8360
1726.548442 0.8360 0.8360 0.8360 0.8380 0.8390
1731.556803 0.8390 0.8400 0.8430 0.8440 0.8450
1736.565163 0.8460 0.8460 0.8480 0.8490 0.8500
1741.573524 0.8500 0.8500 0.8500 0.8500 0.8500
1746.581885 0.8500 0.8500 0.8510 0.8530 0.8560
1751.590246 0.8560 0.8550 0.8550 0.8550 0.8550
1756.598607 0.8550 0.8560 0.8560 0.8560 0.8560
1761.606968 0.8580 0.8580 0.8580 0.8580 0.8580
1766.615328 0.8580 0.8580 0.8580 0.8580 0.8580
1771.623689 0.8580 0.8580 0.8580 0.8580 0.8580
1776.632050 0.8580 0.8580 0.8580 0.8590 0.8590
1781.640411 0.8600 0.8600 0.8610 0.8630 0.8630
1786.648772 0.8640 0.8640 0.8640 0.8640 0.8640
1791.657132 0.8640 0.8650 0.8650 0.8650 0.8640
1796.665493 0.8640 0.8640 0.8640 0.8630 0.8630
1801.673854 0.8630 0.8650 0.8670 0.8690 0.8670
1806.682215 0.8660 0.8650 0.8650 0.8650 0.8650
1811.690576 0.8650 0.8650 0.8650 0.8640 0.8640
1816.698937 0.8650 0.8650 0.8640 0.8640 0.8640
1821.707297 0.8640 0.8640 0.8630 0.8630 0.8630
1826.715658 0.8630 0.8610 0.8610 0.8610 0.8610
1831.724019 0.8610 0.8610 0.8610 0.8610 0.8590
1836.732380 0.8590 0.8580 0.8580 0.8560 0.8550
1841.740741 0.8530 0.8510 0.8500 0.8490 0.8450
1846.749101 0.8440 0.8430 0.8380 0.8310 0.8250
1851.757462 0.8230 0.8200 0.8190 0.8190 0.8200
1856.765823 0.8200 0.8260 0.8330 0.8360 0.8390
1861.774184 0.8400 0.8480 0.8530 0.8550 0.8560
1866.782545 0.8580 0.8580 0.8580 0.8580 0.8580
1871.790906 0.8580 0.8580 0.8580 0.8580 0.8580
1876.799266 0.8580 0.8580 0.8580 0.8560 0.8560
1881.807627 0.8580 0.8590 0.8610 0.8610 0.8630
1886.815988 0.8640 0.8650 0.8650 0.8650 0.8650
1891.824349 0.8650 0.8650 0.8650 0.8650 0.8650
1896.832710 0.8660 0.8660 0.8670 0.8690 0.8700
1901.841070 0.8650 0.8650 0.8650 0.8650 0.8650
1906.849431 0.8650 0.8650 0.8650 0.8650 0.8650
1911.857792 0.8650 0.8650 0.8640 0.8640 0.8640
1916.866153 0.8640 0.8640 0.8650 0.8650 0.8650
1921.874514 0.8650 0.8640 0.8640 0.8640 0.8640
1926.882875 0.8630 0.8630 0.8630 0.8640 0.8640
1931.891235 0.8640 0.8640 0.8640 0.8640 0.8640
1936.899596 0.8640 0.8640 0.8640 0.8640 0.8640
1941.907957 0.8640 0.8640 0.8640 0.8650 0.8640
1946.916318 0.8630 0.8630 0.8630 0.8630 0.8630
1951.924679 0.8630 0.8630 0.8630 0.8640 0.8640
1956.933039 0.8640 0.8650 0.8650 0.8650 0.8660
1961.941400 0.8690 0.8690 0.8690 0.8690 0.8690
1966.949761 0.8700 0.8700 0.8700 0.8700 0.8700
1971.958122 0.8700 0.8700 0.8700 0.8700 0.8710
1976.966483 0.8700 0.8700 0.8700 0.8700 0.8700
1981.974844 0.8700 0.8700 0.8700 0.8700 0.8700
1986.983204 0.8690 0.8690 0.8690 0.8690 0.8700
1991.991565 0.8700 0.8700 0.8700 0.8700 0.8710
1996.999926 0.8700 0.8700 0.8700 0.8710 0.8710
2002.008287 0.8710 0.8700 0.8690 0.8690 0.8690
2007.016648 0.8690 0.8690 0.8690 0.8690 0.8690
2012.025008 0.8690 0.8690 0.8690 0.8690 0.8690
2017.033369 0.8690 0.8690 0.8690 0.8690 0.8690
2022.041730 0.8690 0.8690 0.8690 0.8690 0.8690
2027.050091 0.8690 0.8690 0.8690 0.8690 0.8690
2032.058452 0.8690 0.8690 0.8690 0.8680 0.8670
2037.066813 0.8670 0.8670 0.8665 0.8660 0.8660
2042.075173 0.8660 0.8665 0.8670 0.8670 0.8670
2047.083534 0.8670 0.8670 0.8670 0.8670 0.8670
2052.091895 0.8670 0.8670 0.8670 0.8670 0.8670
2057.100256 0.8670 0.8670 0.8670 0.8670 0.8670
2062.108617 0.8671 0.8686 0.8700 0.8700 0.8700
2067.116978 0.8695 0.8690 0.8690 0.8690 0.8690
2072.125338 0.8690 0.8690 0.8690 0.8690 0.8690
2077.133699 0.8690 0.8690 0.8690 0.8690 0.8695
2082.142060 0.8700 0.8700 0.8700 0.8695 0.8690
2087.150421 0.8690 0.8690 0.8690 0.8690 0.8690
2092.158782 0.8690 0.8690 0.8690 0.8695 0.8700
2097.167142 0.8695 0.8690 0.8690 0.8690 0.8690
2102.175503 0.8689 0.8679 0.8670 0.8670 0.8670
2107.183864 0.8670 0.8670 0.8665 0.8660 0.8660
2112.192225 0.8660 0.8660 0.8660 0.8660 0.8660
2117.200586 0.8660 0.8660 0.8660 0.8660 0.8655
2122.208947 0.8650 0.8650 0.8650 0.8650 0.8650
2127.217307 0.8650 0.8650 0.8645 0.8640 0.8640
2132.225668 0.8639 0.8624 0.8609 0.8599 0.8590
2137.234029 0.8585 0.8579 0.8564 0.8548 0.8528
2142.242390 0.8509 0.8499 0.8489 0.8474 0.8460
2147.250751 0.8460 0.8461 0.8471 0.8480 0.8485
2152.259111 0.8490 0.8495 0.8500 0.8505 0.8510
2157.267472 0.8510 0.8507 0.8471 0.8434 0.8384
2162.275833 0.8334 0.8279 0.8227 0.8202 0.8187
2167.284194 0.8247 0.8310 0.8405 0.8493 0.8518
2172.292555 0.8542 0.8562 0.8581 0.8591 0.8602
2177.300916 0.8617 0.8631 0.8636 0.8640 0.8640
2182.309276 0.8640 0.8640 0.8640 0.8640 0.8641
2187.317637 0.8646 0.8650 0.8650 0.8649 0.8644
2192.325998 0.8640 0.8640 0.8641 0.8646 0.8651
2197.334359 0.8661 0.8672 0.8687 0.8700 0.8700
2202.342720 0.8698 0.8683 0.8671 0.8681 0.8690
2207.351080 0.8690 0.8690 0.8690 0.8690 0.8690
2212.359441 0.8690 0.8690 0.8690 0.8690 0.8690
2217.367802 0.8690 0.8690 0.8690 0.8688 0.8678
2222.376163 0.8670 0.8670 0.8670 0.8670 0.8672
2227.384524 0.8687 0.8700 0.8700 0.8698 0.8683
2232.392885 0.8669 0.8664 0.8660 0.8660 0.8659
2237.401245 0.8654 0.8649 0.8644 0.8639 0.8634
2242.409606 0.8628 0.8618 0.8610 0.8610 0.8610
2247.417967 0.8610 0.8610 0.8610 0.8609 0.8604
2252.426328 0.8597 0.8577 0.8558 0.8543 0.8528
2257.434689 0.8518 0.8509 0.8504 0.8494 0.8459
2262.443049 0.8427 0.8412 0.8400 0.8400 0.8408
2267.451410 0.8453 0.8494 0.8514 0.8533 0.8548
2272.459771 0.8563 0.8578 0.8590 0.8590 0.8591
2277.468132 0.8596 0.8603 0.8618 0.8630 0.8630
2282.476493 0.8623 0.8588 0.8557 0.8542 0.8526
