##TITLE=1-BUTENE, 3,3-DIMETHYL-
##JCAMP-DX=4.24
##DATA TYPE=INFRARED SPECTRUM
##CLASS=COBLENTZ III
##ORIGIN=DOW CORNING CORP.
##OWNER=COBLENTZ SOCIETY
Collection (C) 2018 copyright by the U.S. Secretary of Commerce
on behalf of the United States of America. All rights reserved.
##DATE=1965/09/10
##NAMES=3,3-dimethyl-1-butene
##CAS REGISTRY NO=558-37-2
##MOLFORM=C6 H12
##SOURCE REFERENCE=COBLENTZ NO. 4270
##$NIST SOURCE=COBLENTZ
##$NIST IMAGE=cob4270
##SPECTROMETER/DATA SYSTEM=PERKIN-ELMER 521 (GRATING)
##INSTRUMENT PARAMETERS=FILTERS AT 3150, 2500, 2000, 1150, 700, 410; GRATING CHANGES AT 2000, 630 CM^-^1
##STATE=SOLUTION (10% IN CCl4 FOR 3800-1300, 10% IN CS2 FOR 1300-650, AND 10% IN CCl4 FOR 650-250 CM^-^1) VERSUS SOLVENT
##PATH LENGTH=0.011, 0.011, AND 0.010 CM (CsBr CELL)
##SAMPLING PROCEDURE=TRANSMISSION
##RESOLUTION=4
##DATA PROCESSING=DIGITIZED BY NIST FROM HARD COPY (FROM TWO SEGMENTS)
##XUNITS=1/CM
##YUNITS=TRANSMITTANCE
##XFACTOR=1.000000
##YFACTOR=1
##DELTAX=1.023018
##FIRSTX=250.639
##LASTX=3800.51
##FIRSTY=0.979
##MAXX=3800.51
##MINX=250.639
##MAXY=0.953
##MINY=0
##NPOINTS=3471
##XYDATA=(X++(Y..Y))
250.639000 0.9790 0.9770 0.9770 0.9760 0.9750
255.754091 0.9650 0.9580 0.9550 0.9540 0.9540
260.869181 0.9530 0.9530 0.9530 0.9530 0.9530
265.984272 0.9510 0.9510 0.9510 0.9490 0.9470
271.099363 0.9470 0.9470 0.9470 0.9470 0.9460
276.214453 0.9440 0.9440 0.9430 0.9420 0.9400
281.329544 0.9390 0.9360 0.9350 0.9330 0.9320
286.444635 0.9310 0.9310 0.9310 0.9310 0.9320
291.559725 0.9320 0.9320 0.9320 0.9310 0.9290
296.674816 0.9290 0.9290 0.9280 0.9280 0.9270
301.789906 0.9270 0.9250 0.9240 0.9220 0.9220
306.904997 0.9210 0.9210 0.9210 0.9210 0.9210
312.020088 0.9220 0.9240 0.9240 0.9270 0.9280
317.135178 0.9290 0.9310 0.9310 0.9310 0.9290
322.250269 0.9290 0.9280 0.9270 0.9250 0.9240
327.365360 0.9240 0.9240 0.9250 0.9270 0.9280
332.480450 0.9280 0.9290 0.9290 0.9290 0.9310
337.595541 0.9310 0.9310 0.9290 0.9290 0.9280
342.710632 0.9280 0.9280 0.9270 0.9270 0.9270
347.825722 0.9270 0.9250 0.9250 0.9240 0.9240
352.940813 0.9240 0.9250 0.9270 0.9270 0.9270
358.055904 0.9270 0.9270 0.9270 0.9250 0.9250
363.170994 0.9250 0.9250 0.9250 0.9270 0.9270
368.286085 0.9280 0.9280 0.9270 0.9270 0.9250
373.401175 0.9240 0.9220 0.9210 0.9170 0.9110
378.516266 0.9090 0.9100 0.9160 0.9210 0.9240
383.631357 0.9250 0.9270 0.9310 0.9320 0.9330
388.746447 0.9330 0.9350 0.9350 0.9350 0.9330
393.861538 0.9330 0.9320 0.9320 0.9310 0.9290
398.976629 0.9290 0.9290 0.9310 0.9310 0.9320
404.091719 0.9320 0.9330 0.9330 0.9350 0.9360
409.206810 0.9380 0.9390 0.9390 0.9390 0.9400
414.321901 0.9400 0.9420 0.9420 0.9420 0.9420
419.436991 0.9430 0.9430 0.9430 0.9440 0.9460
424.552082 0.9460 0.9470 0.9470 0.9470 0.9490
429.667173 0.9490 0.9500 0.9500 0.9510 0.9510
434.782263 0.9530 0.9530 0.9530 0.9530 0.9530
439.897354 0.9510 0.9510 0.9490 0.9490 0.9470
445.012444 0.9440 0.9420 0.9390 0.9360 0.9350
450.127535 0.9330 0.9330 0.9320 0.9320 0.9310
455.242626 0.9290 0.9280 0.9280 0.9280 0.9270
460.357716 0.9270 0.9270 0.9250 0.9250 0.9250
465.472807 0.9240 0.9240 0.9220 0.9220 0.9210
470.587898 0.9200 0.9200 0.9180 0.9170 0.9170
475.702988 0.9170 0.9170 0.9170 0.9180 0.9180
480.818079 0.9180 0.9180 0.9200 0.9200 0.9200
485.933170 0.9200 0.9200 0.9200 0.9200 0.9200
491.048260 0.9180 0.9180 0.9170 0.9170 0.9170
496.163351 0.9170 0.9160 0.9160 0.9160 0.9140
501.278442 0.9140 0.9140 0.9140 0.9140 0.9140
506.393532 0.9130 0.9110 0.9110 0.9090 0.9090
511.508623 0.9070 0.9070 0.9060 0.9050 0.9050
516.623713 0.9050 0.9050 0.9060 0.9060 0.9060
521.738804 0.9070 0.9070 0.9090 0.9090 0.9100
526.853895 0.9100 0.9110 0.9110 0.9110 0.9110
531.968985 0.9130 0.9130 0.9130 0.9130 0.9140
537.084076 0.9140 0.9140 0.9140 0.9140 0.9140
542.199167 0.9140 0.9140 0.9140 0.9140 0.9140
547.314257 0.9140 0.9140 0.9160 0.9160 0.9170
552.429348 0.9170 0.9170 0.9180 0.9180 0.9200
557.544439 0.9200 0.9200 0.9210 0.9210 0.9210
562.659529 0.9210 0.9210 0.9210 0.9210 0.9210
567.774620 0.9220 0.9220 0.9220 0.9220 0.9220
572.889711 0.9220 0.9220 0.9220 0.9240 0.9240
578.004801 0.9240 0.9240 0.9240 0.9240 0.9240
583.119892 0.9240 0.9240 0.9240 0.9240 0.9240
588.234982 0.9240 0.9250 0.9250 0.9250 0.9250
593.350073 0.9250 0.9250 0.9250 0.9250 0.9250
598.465164 0.9250 0.9250 0.9250 0.9250 0.9250
603.580254 0.9250 0.9250 0.9240 0.9240 0.9240
608.695345 0.9220 0.9220 0.9220 0.9220 0.9210
613.810436 0.9210 0.9210 0.9210 0.9180 0.9170
618.925526 0.9160 0.9140 0.9130 0.9090 0.9060
624.040617 0.9030 0.8980 0.8940 0.8910 0.8880
629.155708 0.8850 0.8830 0.8800 0.8770 0.8740
634.270798 0.8720 0.8670 0.8650 0.8620 0.8590
639.385889 0.8560 0.8540 0.8510 0.8480 0.8450
644.500980 0.8430 0.8360 0.8300 0.8260 0.8220
649.616070 0.8180 0.8140 0.8070 0.8010 0.7990
654.731161 0.7920 0.7860 0.7770 0.7680 0.7620
659.846251 0.7550 0.7370 0.7230 0.7080 0.7010
664.961342 0.6970 0.6910 0.6900 0.6870 0.6721
670.076433 0.6570 0.6180 0.5741 0.5550 0.5221
675.191523 0.4622 0.4112 0.3851 0.3571 0.3381
680.306614 0.2900 0.2880 0.3080 0.3210 0.4008
685.421705 0.4618 0.5038 0.5508 0.5918 0.6288
690.536795 0.6600 0.7080 0.7150 0.7330 0.7490
695.651886 0.7600 0.7739 0.7750 0.7770 0.7919
700.766977 0.7970 0.8000 0.8030 0.8060 0.8120
705.882067 0.8120 0.8150 0.8190 0.8210 0.8220
710.997158 0.8220 0.8250 0.8280 0.8300 0.8300
716.112249 0.8320 0.8360 0.8400 0.8410 0.8410
721.227339 0.8450 0.8470 0.8470 0.8470 0.8470
726.342430 0.8470 0.8470 0.8470 0.8470 0.8510
731.457520 0.8520 0.8540 0.8550 0.8550 0.8550
736.572611 0.8550 0.8550 0.8550 0.8560 0.8560
741.687702 0.8590 0.8590 0.8590 0.8590 0.8590
746.802792 0.8590 0.8590 0.8590 0.8590 0.8560
751.917883 0.8560 0.8560 0.8560 0.8580 0.8580
757.032974 0.8580 0.8580 0.8580 0.8560 0.8560
762.148064 0.8550 0.8550 0.8550 0.8550 0.8550
767.263155 0.8560 0.8560 0.8560 0.8550 0.8550
772.378246 0.8540 0.8510 0.8500 0.8500 0.8470
777.493336 0.8450 0.8450 0.8440 0.8440 0.8430
782.608427 0.8430 0.8430 0.8430 0.8410 0.8410
787.723518 0.8410 0.8410 0.8410 0.8410 0.8410
792.838608 0.8410 0.8410 0.8410 0.8410 0.8410
797.953699 0.8410 0.8410 0.8410 0.8430 0.8430
803.068789 0.8410 0.8410 0.8410 0.8410 0.8400
808.183880 0.8400 0.8400 0.8400 0.8400 0.8400
813.298971 0.8400 0.8400 0.8400 0.8400 0.8410
818.414061 0.8440 0.8440 0.8440 0.8450 0.8450
823.529152 0.8450 0.8470 0.8480 0.8520 0.8540
828.644243 0.8540 0.8550 0.8550 0.8560 0.8580
833.759333 0.8590 0.8610 0.8620 0.8630 0.8630
838.874424 0.8630 0.8630 0.8650 0.8650 0.8650
843.989515 0.8650 0.8630 0.8620 0.8610 0.8590
849.104605 0.8580 0.8520 0.8450 0.8360 0.8300
854.219696 0.8250 0.8170 0.8140 0.8120 0.8000
859.334787 0.7960 0.7850 0.7840 0.7780 0.7750
864.449877 0.7660 0.7600 0.7560 0.7510 0.7440
869.564968 0.7241 0.7021 0.6930 0.6830 0.6611
874.680058 0.6170 0.5940 0.5700 0.5470 0.5251
879.795149 0.5250 0.5439 0.5629 0.5958 0.5960
884.910240 0.5840 0.5770 0.5690 0.5610 0.5520
890.025330 0.5360 0.5061 0.4771 0.4262 0.4031
895.140421 0.3780 0.3370 0.2611 0.2500 0.1553
900.255512 0.1042 0.0522 0.0420 0.0112 0.0090
905.370602 0.0090 0.0130 0.0170 0.0220 0.0330
910.485693 0.0380 0.0699 0.0989 0.1298 0.1688
915.600784 0.2100 0.2510 0.2879 0.3229 0.3998
920.715874 0.4359 0.4509 0.4968 0.5030 0.5239
925.830965 0.5480 0.5700 0.5880 0.5920 0.6010
930.946056 0.6180 0.6339 0.6460 0.6500 0.6649
936.061146 0.6720 0.6800 0.6930 0.7010 0.7040
941.176237 0.7080 0.7080 0.7090 0.7110 0.7130
946.291327 0.7160 0.7190 0.7200 0.7220 0.7230
951.406418 0.7270 0.7290 0.7300 0.7300 0.7300
956.521509 0.7290 0.7290 0.7270 0.7260 0.7200
961.636599 0.7190 0.7180 0.7180 0.7160 0.7160
966.751690 0.7130 0.7090 0.7010 0.6980 0.6960
971.866781 0.6910 0.6800 0.6760 0.6710 0.6640
976.981871 0.6530 0.6400 0.6310 0.6160 0.6020
982.096962 0.5771 0.5481 0.5151 0.4712 0.4292
987.212053 0.4010 0.3740 0.3610 0.2751 0.2281
992.327143 0.1363 0.1071 0.1070 0.1269 0.1290
997.442234 0.1620 0.1770 0.1800 0.2769 0.3718
1002.557325 0.4249 0.4748 0.5278 0.5499 0.5719
1007.672415 0.5880 0.6050 0.6130 0.6170 0.6210
1012.787506 0.6210 0.6160 0.6090 0.5742 0.5631
1017.902596 0.5540 0.5440 0.5330 0.5330 0.5470
1023.017687 0.5620 0.5769 0.5919 0.6457 0.6500
1028.132778 0.6650 0.7050 0.7110 0.7150 0.7230
1033.247868 0.7260 0.7330 0.7400 0.7410 0.7440
1038.362959 0.7460 0.7460 0.7460 0.7450 0.7440
1043.478050 0.7440 0.7420 0.7420 0.7420 0.7410
1048.593140 0.7380 0.7330 0.7240 0.7110 0.7080
1053.708231 0.7000 0.6970 0.6940 0.6791 0.6362
1058.823322 0.6320 0.6090 0.5990 0.5870 0.5880
1063.938412 0.5960 0.5980 0.6060 0.6508 0.6759
1069.053503 0.6780 0.7070 0.7200 0.7350 0.7520
1074.168594 0.7590 0.7600 0.7660 0.7680 0.7730
1079.283684 0.7740 0.7750 0.7770 0.7780 0.7790
1084.398775 0.7820 0.7840 0.7850 0.7860 0.7880
1089.513865 0.7890 0.7890 0.7900 0.7920 0.7930
1094.628956 0.7950 0.7960 0.7970 0.7990 0.8000
1099.744047 0.8010 0.8030 0.8030 0.8030 0.8040
1104.859137 0.8040 0.8040 0.8040 0.8060 0.8060
1109.974228 0.8060 0.8060 0.8060 0.8060 0.8060
1115.089319 0.8060 0.8060 0.8060 0.8060 0.8060
1120.204409 0.8060 0.8060 0.8060 0.8060 0.8060
1125.319500 0.8060 0.8060 0.8060 0.8060 0.8060
1130.434591 0.8060 0.8040 0.8030 0.8030 0.8030
1135.549681 0.8040 0.8040 0.8040 0.8040 0.8040
1140.664772 0.8040 0.8030 0.8030 0.8030 0.8030
1145.779863 0.8010 0.7990 0.7990 0.7970 0.7950
1150.894953 0.7950 0.7930 0.7930 0.7920 0.7920
1156.010044 0.7900 0.7890 0.7860 0.7840 0.7810
1161.125135 0.7780 0.7770 0.7640 0.7630 0.7600
1166.240225 0.7590 0.7570 0.7570 0.7560 0.7550
1171.355316 0.7510 0.7480 0.7450 0.7410 0.7350
1176.470406 0.7270 0.7180 0.7090 0.7080 0.7020
1181.585497 0.6970 0.6890 0.6800 0.6780 0.6680
1186.700588 0.6491 0.6390 0.6271 0.6071 0.5633
1191.815678 0.5180 0.4810 0.4590 0.4341 0.4091
1196.930769 0.3970 0.3850 0.3601 0.3351 0.3101
1202.045860 0.3100 0.3250 0.3450 0.3460 0.4039
1207.160950 0.4339 0.4629 0.4929 0.5497 0.5510
1212.276041 0.5900 0.6070 0.6310 0.6460 0.6600
1217.391132 0.6650 0.6790 0.6929 0.7000 0.7090
1222.506222 0.7130 0.7190 0.7260 0.7290 0.7310
1227.621313 0.7340 0.7350 0.7350 0.7370 0.7380
1232.736404 0.7400 0.7400 0.7410 0.7410 0.7420
1237.851494 0.7420 0.7420 0.7420 0.7410 0.7410
1242.966585 0.7400 0.7380 0.7370 0.7350 0.7310
1248.081675 0.7230 0.7150 0.7070 0.7010 0.6940
1253.196766 0.6900 0.6780 0.6710 0.6610 0.6450
1258.311857 0.6291 0.6270 0.5941 0.5920 0.5940
1263.426947 0.6070 0.6170 0.6340 0.6619 0.7019
1268.542038 0.7289 0.7459 0.7480 0.7530 0.7570
1273.657129 0.7630 0.7670 0.7710 0.7770 0.7810
1278.772219 0.7860 0.7900 0.7950 0.8000 0.8040
1283.887310 0.8100 0.8140 0.8180 0.8230 0.8300
1289.002401 0.8320 0.8340 0.8360 0.8370 0.8390
1294.117491 0.8410 0.8430 0.8440 0.8450 0.8470
1299.232582 0.8470 0.8480 0.8480 0.8480 0.8500
1304.347673 0.8500 0.8500 0.8500 0.8500 0.8500
1309.462763 0.8500 0.8500 0.8500 0.8500 0.8500
1314.577854 0.8480 0.8480 0.8480 0.8470 0.8450
1319.692944 0.8450 0.8440 0.8410 0.8410 0.8400
1324.808035 0.8390 0.8360 0.8340 0.8330 0.8280
1329.923126 0.8260 0.8220 0.8190 0.8140 0.8120
1335.038216 0.7950 0.7930 0.7880 0.7850 0.7810
1340.153307 0.7740 0.7481 0.7420 0.7221 0.7081
1345.268398 0.6940 0.6790 0.6670 0.6391 0.5792
1350.383488 0.4714 0.4342 0.3972 0.2627 0.2481
1355.498579 0.1161 0.1160 0.1669 0.2199 0.2719
1360.613670 0.3238 0.4445 0.4958 0.5477 0.5808
1365.728760 0.6170 0.6380 0.6510 0.6560 0.6560
1370.843851 0.6540 0.6470 0.6351 0.6012 0.5960
1375.958942 0.5410 0.5110 0.4730 0.4490 0.4490
1381.074032 0.4969 0.5428 0.5629 0.6197 0.7085
1386.189123 0.7200 0.7310 0.7400 0.7400 0.7380
1391.304213 0.7370 0.7350 0.7340 0.7290 0.7240
1396.419304 0.7200 0.7120 0.7050 0.6980 0.6870
1401.534395 0.6680 0.6600 0.6341 0.6021 0.5761
1406.649485 0.5330 0.4880 0.4421 0.4201 0.3971
1411.764576 0.4359 0.5027 0.5408 0.5589 0.6018
1416.879667 0.6290 0.6390 0.6450 0.6500 0.6540
1421.994757 0.6600 0.6650 0.6789 0.6909 0.6960
1427.109848 0.6970 0.6970 0.6970 0.6960 0.6910
1432.224939 0.6900 0.6830 0.6681 0.6620 0.6580
1437.340029 0.6510 0.6350 0.6270 0.6030 0.5940
1442.455120 0.5880 0.5850 0.5730 0.5621 0.5371
1447.570211 0.5000 0.4710 0.4031 0.3900 0.3780
1452.685301 0.3092 0.2950 0.2870 0.2860 0.2870
1457.800392 0.3010 0.3130 0.3609 0.3999 0.4189
1462.915482 0.4330 0.4360 0.4330 0.4270 0.4051
1468.030573 0.3830 0.2801 0.2261 0.2001 0.1741
1473.145664 0.1740 0.2288 0.2838 0.3367 0.4305
1478.260754 0.5500 0.6010 0.6280 0.6510 0.6749
1483.375845 0.7079 0.7329 0.7449 0.7490 0.7510
1488.490936 0.7590 0.7660 0.7850 0.7950 0.8120
1493.606026 0.8190 0.8220 0.8320 0.8340 0.8400
1498.721117 0.8440 0.8470 0.8500 0.8520 0.8550
1503.836208 0.8590 0.8610 0.8650 0.8690 0.8700
1508.951298 0.8720 0.8720 0.8740 0.8760 0.8780
1514.066389 0.8850 0.8890 0.8890 0.8910 0.8910
1519.181480 0.8920 0.8920 0.8960 0.8980 0.9000
1524.296570 0.9030 0.9070 0.9100 0.9100 0.9100
1529.411661 0.9100 0.9110 0.9110 0.9110 0.9110
1534.526751 0.9110 0.9130 0.9130 0.9130 0.9110
1539.641842 0.9100 0.9100 0.9100 0.9100 0.9090
1544.756933 0.9070 0.9060 0.9060 0.9060 0.9050
1549.872023 0.9030 0.8990 0.8960 0.8950 0.8950
1554.987114 0.8940 0.8920 0.8910 0.8910 0.8890
1560.102205 0.8890 0.8880 0.8850 0.8830 0.8800
1565.217295 0.8780 0.8760 0.8720 0.8690 0.8660
1570.332386 0.8620 0.8590 0.8520 0.8450 0.8400
1575.447477 0.8330 0.8290 0.8250 0.8121 0.8011
1580.562567 0.7900 0.7880 0.7810 0.7780 0.7770
1585.677658 0.7780 0.7810 0.7900 0.7960 0.8030
1590.792749 0.8220 0.8280 0.8340 0.8360 0.8360
1595.907839 0.8360 0.8370 0.8390 0.8400 0.8410
1601.022930 0.8410 0.8410 0.8400 0.8370 0.8360
1606.138020 0.8330 0.8230 0.8220 0.8210 0.8180
1611.253111 0.8120 0.8110 0.8070 0.8060 0.8040
1616.368202 0.8010 0.7970 0.7920 0.7811 0.7671
1621.483292 0.7620 0.7570 0.7420 0.7230 0.7080
1626.598383 0.6930 0.6691 0.6092 0.5333 0.4196
1631.713474 0.3850 0.3490 0.2701 0.2061 0.1522
1636.828564 0.1520 0.2675 0.3048 0.4950 0.5537
1641.943655 0.6430 0.6620 0.7149 0.7419 0.7699
1647.058746 0.7770 0.7790 0.7929 0.7960 0.8059
1652.173836 0.8080 0.8110 0.8140 0.8150 0.8180
1657.288927 0.8190 0.8300 0.8320 0.8330 0.8340
1662.404018 0.8340 0.8340 0.8340 0.8340 0.8330
1667.519108 0.8330 0.8330 0.8330 0.8340 0.8360
1672.634199 0.8370 0.8370 0.8390 0.8390 0.8400
1677.749289 0.8410 0.8430 0.8440 0.8450 0.8510
1682.864380 0.8520 0.8560 0.8580 0.8590 0.8590
1687.979471 0.8610 0.8620 0.8620 0.8620 0.8610
1693.094561 0.8610 0.8610 0.8610 0.8620 0.8620
1698.209652 0.8620 0.8630 0.8630 0.8630 0.8620
1703.324743 0.8610 0.8610 0.8610 0.8620 0.8620
1708.439833 0.8630 0.8630 0.8630 0.8630 0.8620
1713.554924 0.8630 0.8630 0.8630 0.8630 0.8630
1718.670015 0.8650 0.8650 0.8630 0.8630 0.8630
1723.785105 0.8630 0.8630 0.8630 0.8630 0.8630
1728.900196 0.8630 0.8630 0.8630 0.8630 0.8620
1734.015287 0.8620 0.8610 0.8610 0.8610 0.8610
1739.130377 0.8620 0.8620 0.8630 0.8630 0.8650
1744.245468 0.8650 0.8650 0.8630 0.8620 0.8610
1749.360558 0.8590 0.8580 0.8560 0.8560 0.8550
1754.475649 0.8550 0.8550 0.8550 0.8560 0.8560
1759.590740 0.8580 0.8650 0.8660 0.8660 0.8670
1764.705830 0.8670 0.8700 0.8700 0.8700 0.8700
1769.820921 0.8700 0.8700 0.8700 0.8700 0.8700
1774.936012 0.8700 0.8700 0.8700 0.8700 0.8700
1780.051102 0.8700 0.8700 0.8700 0.8700 0.8700
1785.166193 0.8700 0.8690 0.8690 0.8670 0.8670
1790.281284 0.8670 0.8650 0.8650 0.8650 0.8630
1795.396374 0.8620 0.8590 0.8580 0.8560 0.8550
1800.511465 0.8520 0.8500 0.8480 0.8470 0.8450
1805.626556 0.8430 0.8360 0.8320 0.8250 0.8170
1810.741646 0.8140 0.8060 0.7960 0.7920 0.7840
1815.856737 0.7770 0.7630 0.7570 0.7530 0.7520
1820.971827 0.7530 0.7550 0.7560 0.7570 0.7620
1826.086918 0.7660 0.7680 0.7820 0.7930 0.8060
1831.202009 0.8150 0.8210 0.8339 0.8370 0.8430
1836.317099 0.8450 0.8480 0.8520 0.8550 0.8560
1841.432190 0.8610 0.8690 0.8700 0.8700 0.8700
1846.547281 0.8700 0.8720 0.8720 0.8720 0.8730
1851.662371 0.8760 0.8770 0.8770 0.8740 0.8730
1856.777462 0.8730 0.8730 0.8730 0.8730 0.8730
1861.892553 0.8730 0.8730 0.8730 0.8760 0.8760
1867.007643 0.8740 0.8730 0.8730 0.8730 0.8730
1872.122734 0.8730 0.8730 0.8730 0.8730 0.8730
1877.237825 0.8730 0.8730 0.8730 0.8730 0.8730
1882.352915 0.8730 0.8730 0.8730 0.8730 0.8740
1887.468006 0.8740 0.8760 0.8770 0.8770 0.8770
1892.583096 0.8760 0.8760 0.8730 0.8730 0.8730
1897.698187 0.8720 0.8720 0.8720 0.8720 0.8720
1902.813278 0.8720 0.8720 0.8720 0.8720 0.8720
1907.928368 0.8720 0.8720 0.8720 0.8720 0.8720
1913.043459 0.8730 0.8730 0.8730 0.8730 0.8730
1918.158550 0.8730 0.8720 0.8720 0.8730 0.8730
1923.273640 0.8730 0.8740 0.8740 0.8760 0.8760
1928.388731 0.8740 0.8760 0.8770 0.8770 0.8780
1933.503822 0.8800 0.8800 0.8770 0.8760 0.8760
1938.618912 0.8740 0.8730 0.8730 0.8730 0.8740
1943.734003 0.8740 0.8740 0.8740 0.8740 0.8740
1948.849094 0.8740 0.8730 0.8720 0.8720 0.8730
1953.964184 0.8740 0.8780 0.8780 0.8770 0.8740
1959.079275 0.8730 0.8730 0.8740 0.8770 0.8780
1964.194365 0.8780 0.8780 0.8780 0.8770 0.8770
1969.309456 0.8740 0.8740 0.8720 0.8700 0.8690
1974.424547 0.8660 0.8660 0.8650 0.8650 0.8650
1979.539637 0.8650 0.8630 0.8630 0.8650 0.8650
1984.654728 0.8670 0.8670 0.8690 0.8700 0.8700
1989.769819 0.8720 0.8720 0.8730 0.8730 0.8730
1994.884909 0.8730 0.8720 0.8720 0.8720 0.8730
2000.000000 0.8740 0.8750 0.8760 0.8770 0.8780
2005.115091 0.8796 0.8810 0.8821 0.8830 0.8830
2010.230181 0.8830 0.8835 0.8840 0.8840 0.8840
2015.345272 0.8840 0.8839 0.8834 0.8830 0.8830
2020.460363 0.8828 0.8818 0.8809 0.8804 0.8800
2025.575453 0.8800 0.8798 0.8788 0.8782 0.8792
2030.690544 0.8801 0.8806 0.8810 0.8810 0.8813
2035.805635 0.8823 0.8830 0.8830 0.8832 0.8837
2040.920725 0.8840 0.8840 0.8840 0.8840 0.8840
2046.035816 0.8840 0.8840 0.8840 0.8838 0.8833
2051.150906 0.8830 0.8830 0.8830 0.8830 0.8825
2056.265997 0.8815 0.8810 0.8810 0.8810 0.8810
2061.381088 0.8807 0.8802 0.8794 0.8784 0.8780
2066.496178 0.8780 0.8774 0.8764 0.8754 0.8744
2071.611269 0.8737 0.8732 0.8730 0.8730 0.8730
2076.726360 0.8730 0.8733 0.8738 0.8740 0.8740
2081.841450 0.8747 0.8757 0.8760 0.8760 0.8760
2086.956541 0.8760 0.8752 0.8742 0.8740 0.8740
2092.071632 0.8736 0.8731 0.8730 0.8730 0.8730
2097.186722 0.8730 0.8730 0.8730 0.8726 0.8721
2102.301813 0.8720 0.8720 0.8725 0.8730 0.8730
2107.416904 0.8730 0.8730 0.8730 0.8730 0.8730
2112.531994 0.8730 0.8730 0.8730 0.8730 0.8730
2117.647085 0.8730 0.8735 0.8740 0.8740 0.8740
2122.762175 0.8735 0.8730 0.8730 0.8730 0.8730
2127.877266 0.8730 0.8730 0.8730 0.8730 0.8730
2132.992357 0.8730 0.8732 0.8748 0.8760 0.8760
2138.107447 0.8760 0.8760 0.8760 0.8760 0.8760
2143.222538 0.8760 0.8760 0.8760 0.8760 0.8760
2148.337629 0.8757 0.8747 0.8740 0.8740 0.8743
2153.452719 0.8753 0.8760 0.8760 0.8762 0.8767
2158.567810 0.8770 0.8770 0.8770 0.8770 0.8772
2163.682901 0.8777 0.8780 0.8780 0.8780 0.8780
2168.797991 0.8778 0.8773 0.8768 0.8763 0.8760
2173.913082 0.8760 0.8760 0.8760 0.8760 0.8760
2179.028173 0.8760 0.8760 0.8760 0.8760 0.8760
2184.143263 0.8760 0.8754 0.8744 0.8740 0.8740
2189.258354 0.8740 0.8740 0.8737 0.8732 0.8730
2194.373444 0.8730 0.8730 0.8730 0.8741 0.8756
2199.488535 0.8764 0.8769 0.8774 0.8779 0.8788
2204.603626 0.8798 0.8800 0.8800 0.8800 0.8800
2209.718716 0.8792 0.8782 0.8780 0.8780 0.8780
2214.833807 0.8780 0.8780 0.8780 0.8776 0.8771
2219.948898 0.8770 0.8770 0.8765 0.8760 0.8760
2225.063988 0.8760 0.8760 0.8760 0.8750 0.8740
2230.179079 0.8735 0.8730 0.8730 0.8730 0.8730
2235.294170 0.8730 0.8735 0.8740 0.8740 0.8740
2240.409260 0.8740 0.8741 0.8751 0.8760 0.8760
2245.524351 0.8760 0.8760 0.8760 0.8760 0.8760
2250.639442 0.8760 0.8760 0.8760 0.8760 0.8760
2255.754532 0.8758 0.8748 0.8740 0.8740 0.8740
2260.869623 0.8740 0.8740 0.8740 0.8740 0.8740
2265.984713 0.8740 0.8740 0.8743 0.8753 0.8760
2271.099804 0.8760 0.8756 0.8746 0.8740 0.8740
2276.214895 0.8738 0.8733 0.8730 0.8730 0.8728
2281.329985 0.8723 0.8709 0.8683 0.8668 0.8663
2286.445076 0.8657 0.8652 0.8653 0.8658 0.8668
2291.560167 0.8683 0.8693 0.8698 0.8706 0.8716
2296.675257 0.8723 0.8728 0.8733 0.8738 0.8740
2301.790348 0.8740 0.8746 0.8757 0.8763 0.8768
2306.905439 0.8770 0.8770 0.8770 0.8770 0.8774
2312.020529 0.8779 0.8780 0.8780 0.8787 0.8798
