##TITLE=Carbon tetrabromide
##JCAMP-DX=4.24
$$ By DXEDIT 1.05 (RS McDonald)
##DATA TYPE=INFRARED SPECTRUM
##CLASS=COBLENTZ II
##ORIGIN=DOW CHEMICAL COMPANY
##OWNER=COPYRIGHT (C) 1988 by COBLENTZ SOCIETY INC.
Collection (C) 2018 copyright by the U.S. Secretary of Commerce
on behalf of the United States of America. All rights reserved.
##DATE=1969/05/08
##NAMES=tetrabromomethane
##CAS REGISTRY NO=558-13-4
##MOLFORM=C Br4
##SOURCE REFERENCE=COBLENTZ NO. 06048
##$NIST SOURCE=COBLENTZ
##$NIST IMAGE=cob6048
##SPECTROMETER/DATA SYSTEM=DOW KBr FOREPRISM-GRATING
##INSTRUMENT PARAMETERS=BLAZED AT 3.5, 12.0, 20.0 MICRON AND CHANGED AT 5.0, 7.5, 14.9 MICRON
##STATE=SOLUTION (10% CCl4 FOR 3800-1350, 10% CS2 FOR 1350-400 CM^-^1)
$$ 99.99% PRINCETON ORGANICS
##PATH LENGTH=0.011 CM, 0.011 CM
##SAMPLING PROCEDURE=TRANSMISSION
##RESOLUTION=2
##DATA PROCESSING=DIGITIZED BY COBLENTZ SOCIETY (BATCH I) FROM HARD COPY
##XUNITS=1/CM
##YUNITS=TRANSMITTANCE
##XFACTOR=1
##YFACTOR=1
##DELTAX=1
##FIRSTX=3800
##LASTX=398
##FIRSTY=0.8687
##MAXX=3800
##MINX=398
##MAXY=0.9121
##MINY=0
##NPOINTS=3403
##XYDATA=(X++(Y..Y))
3800.000000 0.8687 0.8687 0.8687 0.8687 0.8688
3795.000000 0.8688 0.8688 0.8688 0.8689 0.8689
3790.000000 0.8689 0.8689 0.8690 0.8690 0.8690
3785.000000 0.8690 0.8691 0.8691 0.8691 0.8691
3780.000000 0.8692 0.8692 0.8692 0.8692 0.8693
3775.000000 0.8693 0.8693 0.8693 0.8694 0.8694
3770.000000 0.8694 0.8694 0.8695 0.8695 0.8696
3765.000000 0.8696 0.8696 0.8696 0.8696 0.8695
3760.000000 0.8695 0.8694 0.8694 0.8693 0.8693
3755.000000 0.8692 0.8692 0.8691 0.8691 0.8690
3750.000000 0.8690 0.8689 0.8689 0.8688 0.8688
3745.000000 0.8687 0.8687 0.8686 0.8686 0.8685
3740.000000 0.8685 0.8684 0.8684 0.8683 0.8683
3735.000000 0.8682 0.8682 0.8681 0.8681 0.8680
3730.000000 0.8680 0.8678 0.8678 0.8678 0.8678
3725.000000 0.8677 0.8677 0.8675 0.8675 0.8675
3720.000000 0.8675 0.8674 0.8674 0.8673 0.8673
3715.000000 0.8673 0.8673 0.8671 0.8671 0.8671
3710.000000 0.8671 0.8670 0.8670 0.8668 0.8668
3705.000000 0.8668 0.8668 0.8667 0.8667 0.8666
3700.000000 0.8666 0.8665 0.8665 0.8665 0.8665
3695.000000 0.8664 0.8664 0.8663 0.8663 0.8663
3690.000000 0.8664 0.8664 0.8665 0.8665 0.8666
3685.000000 0.8666 0.8667 0.8667 0.8668 0.8668
3680.000000 0.8668 0.8668 0.8670 0.8671 0.8671
3675.000000 0.8671 0.8673 0.8673 0.8674 0.8674
3670.000000 0.8675 0.8675 0.8675 0.8675 0.8677
3665.000000 0.8677 0.8678 0.8678 0.8680 0.8680
3660.000000 0.8681 0.8681 0.8682 0.8682 0.8683
3655.000000 0.8683 0.8684 0.8684 0.8685 0.8685
3650.000000 0.8686 0.8686 0.8687 0.8688 0.8689
3645.000000 0.8689 0.8690 0.8690 0.8690 0.8690
3640.000000 0.8691 0.8691 0.8692 0.8692 0.8693
3635.000000 0.8693 0.8694 0.8694 0.8694 0.8694
3630.000000 0.8695 0.8695 0.8696 0.8696 0.8697
3625.000000 0.8697 0.8698 0.8698 0.8698 0.8698
3620.000000 0.8699 0.8699 0.8700 0.8700 0.8701
3615.000000 0.8701 0.8702 0.8702 0.8702 0.8702
3610.000000 0.8703 0.8703 0.8704 0.8704 0.8705
3605.000000 0.8705 0.8706 0.8706 0.8706 0.8706
3600.000000 0.8707 0.8707 0.8708 0.8708 0.8709
3595.000000 0.8710 0.8711 0.8712 0.8713 0.8714
3590.000000 0.8715 0.8716 0.8717 0.8718 0.8720
3585.000000 0.8721 0.8721 0.8723 0.8724 0.8725
3580.000000 0.8725 0.8727 0.8728 0.8728 0.8731
3575.000000 0.8732 0.8733 0.8734 0.8735 0.8736
3570.000000 0.8737 0.8738 0.8739 0.8740 0.8741
3565.000000 0.8742 0.8744 0.8745 0.8746 0.8747
3560.000000 0.8748 0.8749 0.8750 0.8751 0.8752
3555.000000 0.8753 0.8755 0.8756 0.8757 0.8757
3550.000000 0.8758 0.8759 0.8760 0.8761 0.8762
3545.000000 0.8763 0.8764 0.8765 0.8766 0.8767
3540.000000 0.8768 0.8768 0.8770 0.8771 0.8771
3535.000000 0.8773 0.8774 0.8775 0.8775 0.8777
3530.000000 0.8778 0.8778 0.8780 0.8781 0.8782
3525.000000 0.8783 0.8784 0.8785 0.8786 0.8786
3520.000000 0.8787 0.8788 0.8789 0.8790 0.8791
3515.000000 0.8792 0.8793 0.8794 0.8795 0.8796
3510.000000 0.8797 0.8798 0.8799 0.8800 0.8801
3505.000000 0.8802 0.8803 0.8804 0.8805 0.8806
3500.000000 0.8807 0.8808 0.8809 0.8810 0.8811
3495.000000 0.8812 0.8813 0.8813 0.8814 0.8815
3490.000000 0.8816 0.8817 0.8818 0.8818 0.8820
3485.000000 0.8820 0.8821 0.8821 0.8823 0.8824
3480.000000 0.8825 0.8825 0.8825 0.8827 0.8828
3475.000000 0.8828 0.8830 0.8831 0.8832 0.8832
3470.000000 0.8833 0.8834 0.8835 0.8836 0.8837
3465.000000 0.8837 0.8838 0.8839 0.8840 0.8841
3460.000000 0.8842 0.8843 0.8844 0.8844 0.8845
3455.000000 0.8846 0.8847 0.8848 0.8849 0.8849
3450.000000 0.8850 0.8851 0.8852 0.8853 0.8854
3445.000000 0.8855 0.8856 0.8856 0.8857 0.8858
3440.000000 0.8859 0.8860 0.8861 0.8861 0.8862
3435.000000 0.8863 0.8864 0.8865 0.8866 0.8866
3430.000000 0.8867 0.8868 0.8868 0.8870 0.8871
3425.000000 0.8871 0.8871 0.8873 0.8874 0.8875
3420.000000 0.8875 0.8875 0.8877 0.8878 0.8878
3415.000000 0.8880 0.8881 0.8881 0.8882 0.8883
3410.000000 0.8884 0.8885 0.8886 0.8886 0.8887
3405.000000 0.8888 0.8889 0.8889 0.8890 0.8891
3400.000000 0.8892 0.8893 0.8894 0.8894 0.8895
3395.000000 0.8896 0.8897 0.8898 0.8899 0.8899
3390.000000 0.8900 0.8900 0.8901 0.8902 0.8903
3385.000000 0.8903 0.8904 0.8904 0.8905 0.8905
3380.000000 0.8906 0.8906 0.8907 0.8908 0.8909
3375.000000 0.8909 0.8910 0.8910 0.8911 0.8911
3370.000000 0.8912 0.8913 0.8914 0.8914 0.8915
3365.000000 0.8915 0.8916 0.8916 0.8917 0.8917
3360.000000 0.8918 0.8918 0.8920 0.8920 0.8921
3355.000000 0.8921 0.8921 0.8921 0.8923 0.8923
3350.000000 0.8924 0.8925 0.8925 0.8925 0.8927
3345.000000 0.8927 0.8928 0.8928 0.8928 0.8928
3340.000000 0.8930 0.8930 0.8931 0.8931 0.8932
3335.000000 0.8932 0.8933 0.8933 0.8933 0.8933
3330.000000 0.8934 0.8934 0.8935 0.8935 0.8936
3325.000000 0.8936 0.8937 0.8937 0.8937 0.8937
3320.000000 0.8938 0.8938 0.8939 0.8939 0.8940
3315.000000 0.8940 0.8941 0.8941 0.8941 0.8941
3310.000000 0.8942 0.8942 0.8943 0.8943 0.8944
3305.000000 0.8944 0.8944 0.8944 0.8945 0.8945
3300.000000 0.8946 0.8946 0.8946 0.8946 0.8946
3295.000000 0.8946 0.8946 0.8946 0.8946 0.8946
3290.000000 0.8946 0.8946 0.8946 0.8946 0.8946
3285.000000 0.8946 0.8946 0.8946 0.8946 0.8946
3280.000000 0.8947 0.8947 0.8947 0.8947 0.8947
3275.000000 0.8947 0.8947 0.8947 0.8947 0.8947
3270.000000 0.8947 0.8947 0.8947 0.8947 0.8947
3265.000000 0.8947 0.8947 0.8947 0.8947 0.8947
3260.000000 0.8947 0.8947 0.8947 0.8947 0.8947
3255.000000 0.8947 0.8947 0.8947 0.8947 0.8947
3250.000000 0.8947 0.8947 0.8947 0.8946 0.8946
3245.000000 0.8945 0.8945 0.8944 0.8943 0.8942
3240.000000 0.8942 0.8941 0.8940 0.8939 0.8939
3235.000000 0.8938 0.8938 0.8937 0.8936 0.8935
3230.000000 0.8935 0.8934 0.8933 0.8932 0.8932
3225.000000 0.8931 0.8930 0.8928 0.8928 0.8928
3220.000000 0.8927 0.8925 0.8925 0.8925 0.8924
3215.000000 0.8923 0.8923 0.8921 0.8921 0.8920
3210.000000 0.8920 0.8918 0.8918 0.8917 0.8917
3205.000000 0.8916 0.8915 0.8914 0.8914 0.8913
3200.000000 0.8912 0.8911 0.8910 0.8909 0.8909
3195.000000 0.8908 0.8907 0.8906 0.8906 0.8905
3190.000000 0.8904 0.8903 0.8902 0.8901 0.8901
3185.000000 0.8900 0.8899 0.8898 0.8897 0.8896
3180.000000 0.8896 0.8895 0.8894 0.8893 0.8892
3175.000000 0.8891 0.8891 0.8890 0.8889 0.8888
3170.000000 0.8888 0.8887 0.8886 0.8885 0.8884
3165.000000 0.8883 0.8883 0.8882 0.8881 0.8880
3160.000000 0.8878 0.8878 0.8878 0.8877 0.8875
3155.000000 0.8875 0.8874 0.8873 0.8873 0.8871
3150.000000 0.8871 0.8871 0.8871 0.8870 0.8870
3145.000000 0.8870 0.8870 0.8868 0.8868 0.8868
3140.000000 0.8868 0.8868 0.8868 0.8868 0.8868
3135.000000 0.8867 0.8867 0.8866 0.8866 0.8866
3130.000000 0.8866 0.8865 0.8865 0.8865 0.8865
3125.000000 0.8864 0.8864 0.8864 0.8864 0.8863
3120.000000 0.8863 0.8862 0.8862 0.8862 0.8862
3115.000000 0.8861 0.8861 0.8861 0.8861 0.8860
3110.000000 0.8860 0.8860 0.8860 0.8859 0.8859
3105.000000 0.8859 0.8859 0.8858 0.8858 0.8857
3100.000000 0.8857 0.8857 0.8857 0.8856 0.8856
3095.000000 0.8856 0.8856 0.8855 0.8855 0.8855
3090.000000 0.8855 0.8854 0.8854 0.8854 0.8854
3085.000000 0.8853 0.8853 0.8854 0.8855 0.8856
3080.000000 0.8857 0.8857 0.8858 0.8859 0.8860
3075.000000 0.8861 0.8862 0.8862 0.8863 0.8864
3070.000000 0.8865 0.8866 0.8867 0.8867 0.8868
3065.000000 0.8868 0.8870 0.8871 0.8871 0.8871
3060.000000 0.8873 0.8874 0.8875 0.8875 0.8877
3055.000000 0.8878 0.8878 0.8878 0.8880 0.8881
3050.000000 0.8882 0.8883 0.8884 0.8884 0.8885
3045.000000 0.8886 0.8887 0.8888 0.8889 0.8889
3040.000000 0.8890 0.8890 0.8891 0.8891 0.8891
3035.000000 0.8891 0.8891 0.8891 0.8891 0.8891
3030.000000 0.8891 0.8891 0.8891 0.8891 0.8891
3025.000000 0.8891 0.8891 0.8891 0.8891 0.8891
3020.000000 0.8891 0.8891 0.8891 0.8891 0.8891
3015.000000 0.8891 0.8891 0.8891 0.8891 0.8891
3010.000000 0.8891 0.8891 0.8891 0.8891 0.8891
3005.000000 0.8891 0.8891 0.8891 0.8891 0.8891
3000.000000 0.8891 0.8891 0.8891 0.8891 0.8891
2995.000000 0.8891 0.8891 0.8891 0.8891 0.8891
2990.000000 0.8891 0.8891 0.8891 0.8891 0.8891
2985.000000 0.8891 0.8891 0.8891 0.8891 0.8891
2980.000000 0.8891 0.8891 0.8891 0.8890 0.8890
2975.000000 0.8890 0.8890 0.8889 0.8889 0.8888
2970.000000 0.8888 0.8888 0.8888 0.8887 0.8887
2965.000000 0.8886 0.8886 0.8886 0.8886 0.8885
2960.000000 0.8885 0.8884 0.8884 0.8883 0.8883
2955.000000 0.8883 0.8883 0.8882 0.8882 0.8881
2950.000000 0.8881 0.8881 0.8881 0.8880 0.8880
2945.000000 0.8878 0.8878 0.8878 0.8878 0.8878
2940.000000 0.8878 0.8877 0.8877 0.8877 0.8877
2935.000000 0.8875 0.8875 0.8875 0.8875 0.8875
2930.000000 0.8875 0.8874 0.8874 0.8873 0.8873
2925.000000 0.8873 0.8873 0.8871 0.8871 0.8871
2920.000000 0.8871 0.8870 0.8870 0.8870 0.8870
2915.000000 0.8868 0.8868 0.8868 0.8868 0.8868
2910.000000 0.8870 0.8870 0.8870 0.8870 0.8870
2905.000000 0.8870 0.8870 0.8870 0.8870 0.8870
2900.000000 0.8870 0.8870 0.8871 0.8871 0.8871
2895.000000 0.8871 0.8871 0.8871 0.8871 0.8871
2890.000000 0.8871 0.8871 0.8871 0.8871 0.8871
2885.000000 0.8871 0.8871 0.8871 0.8871 0.8871
2880.000000 0.8871 0.8871 0.8871 0.8871 0.8873
2875.000000 0.8873 0.8873 0.8873 0.8873 0.8873
2870.000000 0.8873 0.8873 0.8873 0.8873 0.8873
2865.000000 0.8873 0.8874 0.8874 0.8874 0.8874
2860.000000 0.8874 0.8874 0.8874 0.8874 0.8874
2855.000000 0.8874 0.8875 0.8875 0.8875 0.8875
2850.000000 0.8875 0.8875 0.8875 0.8875 0.8875
2845.000000 0.8875 0.8875 0.8875 0.8875 0.8875
2840.000000 0.8875 0.8875 0.8875 0.8875 0.8875
2835.000000 0.8875 0.8875 0.8875 0.8875 0.8875
2830.000000 0.8875 0.8875 0.8875 0.8875 0.8875
2825.000000 0.8875 0.8877 0.8877 0.8877 0.8877
2820.000000 0.8877 0.8877 0.8877 0.8877 0.8877
2815.000000 0.8877 0.8877 0.8877 0.8877 0.8877
2810.000000 0.8877 0.8877 0.8877 0.8877 0.8877
2805.000000 0.8877 0.8877 0.8877 0.8877 0.8877
2800.000000 0.8877 0.8877 0.8878 0.8878 0.8878
2795.000000 0.8878 0.8878 0.8878 0.8878 0.8878
2790.000000 0.8878 0.8878 0.8878 0.8878 0.8878
2785.000000 0.8878 0.8878 0.8878 0.8878 0.8878
2780.000000 0.8878 0.8878 0.8878 0.8878 0.8878
2775.000000 0.8878 0.8878 0.8878 0.8878 0.8878
2770.000000 0.8878 0.8878 0.8878 0.8878 0.8878
2765.000000 0.8878 0.8878 0.8878 0.8878 0.8878
2760.000000 0.8878 0.8878 0.8878 0.8878 0.8878
2755.000000 0.8878 0.8878 0.8878 0.8878 0.8878
2750.000000 0.8878 0.8878 0.8878 0.8878 0.8878
2745.000000 0.8878 0.8878 0.8878 0.8878 0.8878
2740.000000 0.8878 0.8878 0.8878 0.8878 0.8878
2735.000000 0.8878 0.8878 0.8878 0.8878 0.8878
2730.000000 0.8878 0.8878 0.8878 0.8878 0.8878
2725.000000 0.8878 0.8878 0.8878 0.8878 0.8878
2720.000000 0.8878 0.8878 0.8878 0.8878 0.8878
2715.000000 0.8878 0.8878 0.8878 0.8878 0.8878
2710.000000 0.8878 0.8878 0.8878 0.8878 0.8878
2705.000000 0.8878 0.8878 0.8878 0.8878 0.8878
2700.000000 0.8878 0.8878 0.8878 0.8878 0.8878
2695.000000 0.8878 0.8878 0.8878 0.8878 0.8878
2690.000000 0.8880 0.8880 0.8880 0.8880 0.8881
2685.000000 0.8881 0.8881 0.8881 0.8882 0.8882
2680.000000 0.8882 0.8882 0.8883 0.8883 0.8883
2675.000000 0.8883 0.8884 0.8884 0.8884 0.8884
2670.000000 0.8885 0.8885 0.8885 0.8885 0.8886
2665.000000 0.8886 0.8886 0.8886 0.8887 0.8887
2660.000000 0.8887 0.8887 0.8888 0.8888 0.8889
2655.000000 0.8889 0.8889 0.8889 0.8890 0.8890
2650.000000 0.8890 0.8890 0.8891 0.8891 0.8891
2645.000000 0.8891 0.8892 0.8892 0.8892 0.8892
2640.000000 0.8893 0.8893 0.8893 0.8893 0.8894
2635.000000 0.8894 0.8894 0.8894 0.8894 0.8894
2630.000000 0.8894 0.8894 0.8894 0.8894 0.8894
2625.000000 0.8894 0.8894 0.8894 0.8894 0.8894
2620.000000 0.8894 0.8894 0.8894 0.8894 0.8894
2615.000000 0.8894 0.8894 0.8894 0.8894 0.8894
2610.000000 0.8894 0.8894 0.8894 0.8894 0.8895
2605.000000 0.8895 0.8895 0.8895 0.8895 0.8895
2600.000000 0.8895 0.8895 0.8895 0.8895 0.8895
2595.000000 0.8895 0.8895 0.8895 0.8895 0.8895
2590.000000 0.8895 0.8895 0.8895 0.8895 0.8895
2585.000000 0.8895 0.8895 0.8895 0.8895 0.8895
2580.000000 0.8895 0.8895 0.8896 0.8896 0.8896
2575.000000 0.8896 0.8896 0.8896 0.8896 0.8896
2570.000000 0.8896 0.8896 0.8896 0.8896 0.8897
2565.000000 0.8897 0.8897 0.8897 0.8897 0.8897
2560.000000 0.8897 0.8897 0.8897 0.8897 0.8897
2555.000000 0.8897 0.8898 0.8898 0.8898 0.8898
2550.000000 0.8898 0.8898 0.8898 0.8898 0.8898
2545.000000 0.8898 0.8898 0.8898 0.8899 0.8899
2540.000000 0.8899 0.8899 0.8899 0.8899 0.8899
2535.000000 0.8899 0.8899 0.8899 0.8899 0.8899
2530.000000 0.8899 0.8899 0.8899 0.8899 0.8899
2525.000000 0.8899 0.8899 0.8899 0.8899 0.8899
2520.000000 0.8899 0.8898 0.8898 0.8898 0.8898
2515.000000 0.8898 0.8898 0.8898 0.8898 0.8898
2510.000000 0.8898 0.8898 0.8898 0.8898 0.8899
2505.000000 0.8899 0.8899 0.8899 0.8900 0.8900
2500.000000 0.8901 0.8901 0.8902 0.8902 0.8902
2495.000000 0.8902 0.8903 0.8903 0.8904 0.8904
2490.000000 0.8905 0.8905 0.8905 0.8905 0.8906
2485.000000 0.8906 0.8907 0.8907 0.8908 0.8908
2480.000000 0.8909 0.8909 0.8909 0.8909 0.8910
2475.000000 0.8910 0.8910 0.8909 0.8908 0.8907
2470.000000 0.8906 0.8905 0.8904 0.8902 0.8901
2465.000000 0.8900 0.8899 0.8898 0.8897 0.8896
2460.000000 0.8895 0.8894 0.8893 0.8892 0.8892
2455.000000 0.8891 0.8890 0.8889 0.8889 0.8888
2450.000000 0.8887 0.8886 0.8885 0.8884 0.8884
2445.000000 0.8883 0.8882 0.8881 0.8880 0.8878
2440.000000 0.8878 0.8878 0.8877 0.8875 0.8875
2435.000000 0.8875 0.8874 0.8873 0.8871 0.8871
2430.000000 0.8871 0.8871 0.8871 0.8871 0.8871
2425.000000 0.8871 0.8871 0.8871 0.8873 0.8873
2420.000000 0.8873 0.8873 0.8873 0.8873 0.8873
2415.000000 0.8873 0.8874 0.8874 0.8874 0.8874
2410.000000 0.8874 0.8874 0.8874 0.8874 0.8875
2405.000000 0.8875 0.8875 0.8875 0.8875 0.8875
2400.000000 0.8875 0.8875 0.8875 0.8875 0.8875
2395.000000 0.8875 0.8875 0.8875 0.8875 0.8875
2390.000000 0.8877 0.8877 0.8878 0.8878 0.8880
2385.000000 0.8880 0.8881 0.8881 0.8882 0.8882
2380.000000 0.8883 0.8884 0.8885 0.8885 0.8886
2375.000000 0.8886 0.8887 0.8887 0.8888 0.8889
2370.000000 0.8890 0.8890 0.8891 0.8891 0.8892
2365.000000 0.8892 0.8893 0.8894 0.8895 0.8895
2360.000000 0.8896 0.8896 0.8897 0.8897 0.8898
2355.000000 0.8898 0.8898 0.8898 0.8899 0.8899
2350.000000 0.8899 0.8899 0.8900 0.8900 0.8901
2345.000000 0.8901 0.8901 0.8901 0.8902 0.8902
2340.000000 0.8902 0.8902 0.8903 0.8903 0.8904
2335.000000 0.8904 0.8904 0.8904 0.8905 0.8905
2330.000000 0.8905 0.8905 0.8906 0.8906 0.8906
2325.000000 0.8906 0.8906 0.8906 0.8906 0.8906
2320.000000 0.8906 0.8906 0.8906 0.8905 0.8905
2315.000000 0.8905 0.8905 0.8905 0.8905 0.8905
2310.000000 0.8905 0.8905 0.8905 0.8905 0.8905
2305.000000 0.8905 0.8905 0.8905 0.8905 0.8905
2300.000000 0.8905 0.8904 0.8904 0.8904 0.8904
2295.000000 0.8904 0.8904 0.8904 0.8904 0.8904
2290.000000 0.8904 0.8904 0.8904 0.8904 0.8904
2285.000000 0.8904 0.8904 0.8904 0.8904 0.8903
2280.000000 0.8903 0.8903 0.8903 0.8903 0.8903
2275.000000 0.8903 0.8903 0.8903 0.8903 0.8903
2270.000000 0.8903 0.8903 0.8903 0.8903 0.8903
2265.000000 0.8903 0.8903 0.8902 0.8902 0.8902
2260.000000 0.8902 0.8902 0.8902 0.8902 0.8902
2255.000000 0.8901 0.8901 0.8901 0.8901 0.8901
2250.000000 0.8901 0.8900 0.8900 0.8900 0.8900
2245.000000 0.8899 0.8899 0.8899 0.8899 0.8899
2240.000000 0.8899 0.8898 0.8898 0.8898 0.8898
2235.000000 0.8898 0.8898 0.8897 0.8897 0.8897
2230.000000 0.8897 0.8896 0.8895 0.8894 0.8894
2225.000000 0.8893 0.8893 0.8892 0.8892 0.8891
2220.000000 0.8890 0.8889 0.8889 0.8888 0.8888
2215.000000 0.8887 0.8887 0.8886 0.8885 0.8885
2210.000000 0.8885 0.8885 0.8886 0.8886 0.8887
2205.000000 0.8887 0.8887 0.8888 0.8889 0.8892
2200.000000 0.8895 0.8898 0.8902 0.8905 0.8908
2195.000000 0.8911 0.8914 0.8917 0.8921 0.8928
2190.000000 0.8937 0.8944 0.8952 0.8952 0.8952
2185.000000 0.8941 0.8931 0.8920 0.8910 0.8894
2180.000000 0.8878 0.8862 0.8846 0.8851 0.8857
2175.000000 0.8862 0.8868 0.8873 0.8878 0.8880
2170.000000 0.8882 0.8883 0.8885 0.8886 0.8888
2165.000000 0.8888 0.8889 0.8889 0.8889 0.8889
2160.000000 0.8889 0.8889 0.8889 0.8889 0.8889
2155.000000 0.8889 0.8889 0.8889 0.8889 0.8889
2150.000000 0.8889 0.8889 0.8889 0.8888 0.8888
2145.000000 0.8887 0.8886 0.8885 0.8885 0.8884
2140.000000 0.8884 0.8883 0.8882 0.8881 0.8881
2135.000000 0.8880 0.8878 0.8878 0.8878 0.8877
2130.000000 0.8877 0.8875 0.8875 0.8874 0.8874
2125.000000 0.8873 0.8873 0.8871 0.8871 0.8870
2120.000000 0.8870 0.8868 0.8868 0.8868 0.8868
2115.000000 0.8868 0.8868 0.8868 0.8868 0.8868
2110.000000 0.8868 0.8868 0.8868 0.8868 0.8868
2105.000000 0.8868 0.8868 0.8868 0.8868 0.8868
2100.000000 0.8868 0.8867 0.8867 0.8867 0.8867
2095.000000 0.8867 0.8867 0.8867 0.8867 0.8867
2090.000000 0.8867 0.8867 0.8867 0.8867 0.8867
2085.000000 0.8867 0.8867 0.8866 0.8866 0.8865
2080.000000 0.8865 0.8865 0.8865 0.8864 0.8864
2075.000000 0.8864 0.8864 0.8863 0.8863 0.8862
2070.000000 0.8862 0.8862 0.8862 0.8861 0.8861
2065.000000 0.8861 0.8861 0.8860 0.8860 0.8860
2060.000000 0.8860 0.8859 0.8859 0.8858 0.8858
2055.000000 0.8858 0.8858 0.8858 0.8858 0.8858
2050.000000 0.8858 0.8858 0.8858 0.8858 0.8858
2045.000000 0.8858 0.8858 0.8858 0.8858 0.8858
2040.000000 0.8858 0.8858 0.8858 0.8858 0.8858
2035.000000 0.8858 0.8859 0.8859 0.8859 0.8859
2030.000000 0.8859 0.8859 0.8859 0.8859 0.8859
2025.000000 0.8859 0.8859 0.8859 0.8859 0.8859
2020.000000 0.8859 0.8859 0.8860 0.8860 0.8860
2015.000000 0.8860 0.8861 0.8861 0.8861 0.8861
2010.000000 0.8862 0.8862 0.8862 0.8862 0.8863
2005.000000 0.8863 0.8863 0.8863 0.8864 0.8864
2000.000000 0.8865 0.8866 0.8870 0.8875 0.8878
1995.000000 0.8884 0.8888 0.8893 0.8897 0.8902
1990.000000 0.8906 0.8911 0.8915 0.8918 0.8924
1985.000000 0.8928 0.8933 0.8935 0.8937 0.8938
1980.000000 0.8940 0.8942 0.8943 0.8945 0.8947
1975.000000 0.8948 0.8950 0.8951 0.8952 0.8953
1970.000000 0.8954 0.8956 0.8957 0.8958 0.8959
1965.000000 0.8960 0.8961 0.8962 0.8963 0.8964
1960.000000 0.8965 0.8966 0.8967 0.8968 0.8968
1955.000000 0.8970 0.8971 0.8971 0.8971 0.8973
1950.000000 0.8974 0.8975 0.8975 0.8975 0.8977
1945.000000 0.8977 0.8978 0.8978 0.8978 0.8980
1940.000000 0.8981 0.8982 0.8982 0.8983 0.8984
1935.000000 0.8984 0.8985 0.8986 0.8987 0.8987
1930.000000 0.8988 0.8989 0.8989 0.8989 0.8989
1925.000000 0.8989 0.8988 0.8988 0.8987 0.8987
1920.000000 0.8987 0.8986 0.8986 0.8985 0.8985
1915.000000 0.8985 0.8984 0.8984 0.8983 0.8983
1910.000000 0.8982 0.8982 0.8982 0.8981 0.8981
1905.000000 0.8980 0.8980 0.8980 0.8980 0.8978
1900.000000 0.8978 0.8978 0.8978 0.8978 0.8978
1895.000000 0.8978 0.8978 0.8978 0.8978 0.8978
1890.000000 0.8978 0.8978 0.8978 0.8978 0.8978
1885.000000 0.8978 0.8977 0.8977 0.8977 0.8977
1880.000000 0.8977 0.8977 0.8977 0.8977 0.8977
1875.000000 0.8978 0.8978 0.8981 0.8982 0.8984
1870.000000 0.8985 0.8987 0.8988 0.8989 0.8991
1865.000000 0.8992 0.8994 0.8995 0.8996 0.8998
1860.000000 0.8999 0.9001 0.9002 0.9004 0.9005
1855.000000 0.9006 0.9007 0.9008 0.9008 0.9008
1850.000000 0.9009 0.9009 0.9009 0.9009 0.9010
1845.000000 0.9010 0.9010 0.9011 0.9011 0.9011
1840.000000 0.9011 0.9012 0.9012 0.9012 0.9013
1835.000000 0.9013 0.9013 0.9013 0.9014 0.9014
1830.000000 0.9014 0.9015 0.9015 0.9015 0.9015
1825.000000 0.9016 0.9016 0.9016 0.9017 0.9017
1820.000000 0.9017 0.9017 0.9018 0.9018 0.9018
1815.000000 0.9018 0.9020 0.9020 0.9021 0.9021
1810.000000 0.9021 0.9021 0.9023 0.9023 0.9024
1805.000000 0.9024 0.9025 0.9025 0.9028 0.9028
1800.000000 0.9030 0.9031 0.9032 0.9033 0.9034
1795.000000 0.9035 0.9036 0.9037 0.9038 0.9040
