##TITLE=ALLYLISOTHIOCYANATE
##JCAMP-DX=4.24
##DATA TYPE=INFRARED SPECTRUM
##CLASS=COBLENTZ III
##ORIGIN=WESTERN REGIONAL RES. USDA
##OWNER=COBLENTZ SOCIETY
Collection (C) 2018 copyright by the U.S. Secretary of Commerce
on behalf of the United States of America. All rights reserved.
##DATE=1964/05/18
##NAMES=3-isothiocyanato-1-propene
##CAS REGISTRY NO=57-06-7
##MOLFORM=C4 H5 N S
##SOURCE REFERENCE=COBLENTZ NO. 6188
##$NIST SOURCE=COBLENTZ
##$NIST IMAGE=cob6188
##SPECTROMETER/DATA SYSTEM=BECKMAN IR-7 (GRATING)
##INSTRUMENT PARAMETERS=GRATING CHANGES AT 3000, 2200, 1150 CM^-^1
##STATE=SOLUTION (10% IN CCl4 FOR 4000-1330 CM^-^1, 10% IN CS2 FOR 1330-600 CM^-^1)
##PATH LENGTH=0.011 CM, 0.010 CM
$$SPECTRAL CONTAMINATION DUE TO CCl4 AROUND 1550 CM^-^1
##SAMPLING PROCEDURE=TRANSMISSION
##RESOLUTION=4
##DATA PROCESSING=DIGITIZED BY NIST FROM HARD COPY (FROM TWO SEGMENTS)
##XUNITS=1/CM
##YUNITS=TRANSMITTANCE
##XFACTOR=1.000000
##YFACTOR=1
##DELTAX=0.649051
##FIRSTX=600.649
##LASTX=4023.74
##FIRSTY=0.703
##MAXX=4023.74
##MINX=600.649
##MAXY=0.886
##MINY=0.024
##NPOINTS=5275
##XYDATA=(X++(Y..Y))
600.649000 0.7030 0.7030 0.7020 0.7020 0.7020
603.894253 0.7010 0.7010 0.7010 0.7010 0.7010
607.139506 0.7020 0.7030 0.7030 0.7050 0.7050
610.384759 0.7060 0.7060 0.7070 0.7090 0.7100
613.630012 0.7110 0.7120 0.7120 0.7130 0.7130
616.875265 0.7140 0.7140 0.7140 0.7150 0.7160
620.120518 0.7160 0.7160 0.7160 0.7170 0.7170
623.365771 0.7180 0.7180 0.7180 0.7180 0.7180
626.611024 0.7180 0.7180 0.7180 0.7180 0.7180
629.856277 0.7180 0.7180 0.7180 0.7180 0.7180
633.101530 0.7180 0.7180 0.7180 0.7180 0.7170
636.346783 0.7170 0.7160 0.7160 0.7150 0.7140
639.592036 0.7130 0.7120 0.7110 0.7100 0.7090
642.837289 0.7070 0.7050 0.7030 0.7020 0.7000
646.082542 0.6980 0.6960 0.6940 0.6920 0.6900
649.327795 0.6870 0.6850 0.6840 0.6820 0.6800
652.573048 0.6770 0.6760 0.6760 0.6760 0.6800
655.818301 0.6810 0.6850 0.6870 0.6900 0.6920
659.063554 0.6930 0.6940 0.6950 0.6980 0.6980
662.308807 0.6990 0.6990 0.6990 0.6990 0.6980
665.554061 0.6980 0.6980 0.6970 0.6960 0.6940
668.799314 0.6890 0.6830 0.6780 0.6730 0.6690
672.044567 0.6650 0.6620 0.6580 0.6550 0.6520
675.289820 0.6490 0.6470 0.6440 0.6420 0.6410
678.535073 0.6380 0.6350 0.6310 0.6280 0.6240
681.780326 0.6190 0.6140 0.6090 0.6030 0.5980
685.025579 0.5930 0.5870 0.5810 0.5750 0.5690
688.270832 0.5620 0.5560 0.5490 0.5430 0.5370
691.516085 0.5320 0.5260 0.5220 0.5170 0.5160
694.761338 0.5140 0.5110 0.5090 0.5040 0.5000
698.006591 0.5000 0.4980 0.4960 0.4940 0.4930
701.251844 0.4910 0.4900 0.4860 0.4860 0.4830
704.497097 0.4800 0.4760 0.4730 0.4700 0.4660
707.742350 0.4630 0.4590 0.4560 0.4530 0.4490
710.987603 0.4460 0.4430 0.4390 0.4360 0.4320
714.232856 0.4290 0.4250 0.4210 0.4180 0.4170
717.478109 0.4160 0.4170 0.4200 0.4250 0.4300
720.723362 0.4340 0.4390 0.4430 0.4480 0.4520
723.968615 0.4560 0.4600 0.4640 0.4680 0.4730
727.213868 0.4770 0.4820 0.4860 0.4910 0.4970
730.459121 0.5020 0.5080 0.5200 0.5270 0.5350
733.704374 0.5430 0.5510 0.5580 0.5650 0.5720
736.949627 0.5780 0.5850 0.5910 0.5970 0.6030
740.194880 0.6090 0.6150 0.6210 0.6260 0.6310
743.440133 0.6370 0.6470 0.6520 0.6570 0.6620
746.685386 0.6670 0.6720 0.6780 0.6840 0.6890
749.930639 0.6930 0.6970 0.7000 0.7030 0.7050
753.175892 0.7080 0.7110 0.7140 0.7170 0.7200
756.421145 0.7240 0.7280 0.7320 0.7350 0.7390
759.666398 0.7410 0.7430 0.7460 0.7470 0.7490
762.911651 0.7500 0.7520 0.7530 0.7530 0.7540
766.156904 0.7550 0.7550 0.7560 0.7570 0.7570
769.402157 0.7570 0.7580 0.7590 0.7590 0.7610
772.647410 0.7610 0.7630 0.7630 0.7640 0.7640
775.892663 0.7640 0.7650 0.7650 0.7660 0.7660
779.137916 0.7660 0.7660 0.7660 0.7660 0.7660
782.383169 0.7660 0.7650 0.7650 0.7650 0.7640
785.628422 0.7640 0.7640 0.7640 0.7640 0.7640
788.873675 0.7640 0.7640 0.7640 0.7650 0.7650
792.118929 0.7650 0.7650 0.7650 0.7660 0.7660
795.364182 0.7660 0.7670 0.7680 0.7690 0.7700
798.609435 0.7720 0.7720 0.7730 0.7730 0.7730
801.854688 0.7730 0.7730 0.7730 0.7730 0.7730
805.099941 0.7730 0.7730 0.7740 0.7740 0.7740
808.345194 0.7740 0.7740 0.7740 0.7750 0.7750
811.590447 0.7750 0.7750 0.7760 0.7760 0.7770
814.835700 0.7770 0.7770 0.7770 0.7770 0.7780
818.080953 0.7780 0.7770 0.7770 0.7770 0.7770
821.326206 0.7770 0.7770 0.7770 0.7770 0.7770
824.571459 0.7760 0.7760 0.7750 0.7750 0.7740
827.816712 0.7730 0.7710 0.7710 0.7710 0.7670
831.061965 0.7650 0.7640 0.7640 0.7630 0.7610
834.307218 0.7590 0.7570 0.7510 0.7450 0.7400
837.552471 0.7340 0.7300 0.7250 0.7200 0.7150
840.797724 0.7100 0.7060 0.7010 0.6960 0.6920
844.042977 0.6870 0.6820 0.6760 0.6710 0.6650
847.288230 0.6580 0.6530 0.6470 0.6450 0.6420
850.533483 0.6390 0.6380 0.6370 0.6370 0.6370
853.778736 0.6370 0.6370 0.6370 0.6380 0.6390
857.023989 0.6390 0.6440 0.6460 0.6470 0.6480
860.269242 0.6490 0.6510 0.6530 0.6550 0.6560
863.514495 0.6570 0.6570 0.6580 0.6580 0.6580
866.759748 0.6580 0.6580 0.6590 0.6590 0.6600
870.005001 0.6600 0.6600 0.6610 0.6610 0.6620
873.250254 0.6640 0.6660 0.6670 0.6690 0.6710
876.495507 0.6750 0.6760 0.6770 0.6780 0.6780
879.740760 0.6790 0.6800 0.6800 0.6820 0.6830
882.986013 0.6840 0.6850 0.6850 0.6860 0.6860
886.231266 0.6860 0.6860 0.6860 0.6850 0.6840
889.476519 0.6830 0.6810 0.6780 0.6770 0.6750
892.721772 0.6730 0.6700 0.6670 0.6560 0.6460
895.967025 0.6370 0.6170 0.5980 0.5790 0.5611
899.212278 0.5450 0.5310 0.5190 0.5150 0.5100
902.457531 0.4910 0.4810 0.4760 0.4750 0.4740
905.702784 0.4720 0.4650 0.4480 0.4360 0.4270
908.948037 0.4200 0.4130 0.4050 0.3930 0.3840
912.193290 0.3750 0.3500 0.3160 0.2850 0.2530
915.438544 0.1891 0.1820 0.1690 0.1471 0.1360
918.683797 0.1239 0.0800 0.0790 0.0790 0.0800
921.929050 0.0870 0.0960 0.1160 0.1330 0.1370
925.174303 0.1380 0.1400 0.1430 0.1460 0.1470
928.419556 0.1520 0.1610 0.1799 0.1969 0.2139
931.664809 0.2310 0.2620 0.2780 0.2930 0.3080
934.910062 0.3240 0.3410 0.3590 0.3959 0.4159
938.155315 0.4370 0.4570 0.4740 0.4900 0.5170
941.400568 0.5290 0.5420 0.5550 0.5680 0.5760
944.645821 0.5800 0.5940 0.6060 0.6120 0.6190
947.891074 0.6230 0.6280 0.6280 0.6310 0.6340
951.136327 0.6350 0.6350 0.6360 0.6360 0.6360
954.381580 0.6350 0.6340 0.6290 0.6240 0.6190
957.626833 0.6150 0.6120 0.6080 0.6050 0.6030
960.872086 0.6000 0.5970 0.5960 0.5940 0.5930
964.117339 0.5920 0.5900 0.5900 0.5890 0.5790
967.362592 0.5710 0.5630 0.5550 0.5470 0.5370
970.607845 0.5260 0.5180 0.5110 0.4930 0.4710
973.853098 0.4440 0.4110 0.3781 0.3461 0.3051
977.098351 0.2800 0.2640 0.2560 0.2470 0.2290
980.343604 0.2120 0.1950 0.1770 0.1760 0.1770
983.588857 0.1940 0.2110 0.2280 0.2450 0.2600
986.834110 0.2980 0.3329 0.3929 0.4199 0.4449
990.079363 0.4680 0.4900 0.5330 0.5540 0.5770
993.324616 0.5900 0.6120 0.6190 0.6200 0.6260
996.569869 0.6330 0.6450 0.6490 0.6500 0.6560
999.815122 0.6600 0.6640 0.6680 0.6720 0.6750
1003.060375 0.6780 0.6800 0.6820 0.6850 0.6910
1006.305628 0.6930 0.6950 0.6960 0.6960 0.6970
1009.550881 0.6980 0.6980 0.6980 0.6990 0.7000
1012.796134 0.7000 0.7000 0.7000 0.7000 0.6990
1016.041387 0.6990 0.6980 0.6980 0.6960 0.6950
1019.286640 0.6940 0.6920 0.6900 0.6870 0.6850
1022.531893 0.6820 0.6800 0.6760 0.6730 0.6690
1025.777146 0.6610 0.6570 0.6550 0.6540 0.6540
1029.022399 0.6550 0.6550 0.6570 0.6640 0.6710
1032.267652 0.6780 0.6840 0.6890 0.6940 0.6960
1035.512905 0.7020 0.7070 0.7100 0.7130 0.7150
1038.758158 0.7150 0.7170 0.7180 0.7190 0.7210
1042.003412 0.7230 0.7240 0.7250 0.7270 0.7280
1045.248665 0.7290 0.7300 0.7300 0.7300 0.7300
1048.493918 0.7310 0.7310 0.7310 0.7320 0.7320
1051.739171 0.7310 0.7310 0.7310 0.7310 0.7300
1054.984424 0.7300 0.7280 0.7280 0.7280 0.7280
1058.229677 0.7280 0.7270 0.7270 0.7270 0.7270
1061.474930 0.7270 0.7260 0.7260 0.7250 0.7240
1064.720183 0.7230 0.7210 0.7200 0.7190 0.7190
1067.965436 0.7180 0.7180 0.7180 0.7180 0.7180
1071.210689 0.7180 0.7180 0.7170 0.7170 0.7160
1074.455942 0.7160 0.7130 0.7110 0.7090 0.7060
1077.701195 0.7050 0.7050 0.7040 0.7030 0.7030
1080.946448 0.7030 0.7010 0.7010 0.7010 0.7000
1084.191701 0.7000 0.6990 0.7000 0.7000 0.7010
1087.436954 0.7020 0.7040 0.7070 0.7090 0.7110
1090.682207 0.7120 0.7140 0.7150 0.7160 0.7180
1093.927460 0.7190 0.7210 0.7220 0.7230 0.7230
1097.172713 0.7230 0.7240 0.7240 0.7240 0.7240
1100.417966 0.7240 0.7240 0.7240 0.7230 0.7230
1103.663219 0.7230 0.7220 0.7210 0.7210 0.7190
1106.908472 0.7180 0.7170 0.7170 0.7160 0.7150
1110.153725 0.7140 0.7120 0.7110 0.7090 0.7080
1113.398978 0.7070 0.7050 0.7040 0.7000 0.6960
1116.644231 0.6930 0.6900 0.6870 0.6850 0.6830
1119.889484 0.6810 0.6790 0.6780 0.6760 0.6740
1123.134737 0.6730 0.6720 0.6710 0.6710 0.6720
1126.379990 0.6730 0.6730 0.6740 0.6740 0.6730
1129.625243 0.6730 0.6720 0.6710 0.6690 0.6680
1132.870496 0.6670 0.6670 0.6690 0.6710 0.6830
1136.115749 0.6910 0.6980 0.7030 0.7070 0.7100
1139.361002 0.7140 0.7170 0.7200 0.7240 0.7250
1142.606255 0.7250 0.7260 0.7270 0.7280 0.7300
1145.851508 0.7310 0.7330 0.7360 0.7370 0.7370
1149.096761 0.7380 0.7380 0.7390 0.7390 0.7390
1152.342014 0.7390 0.7400 0.7410 0.7420 0.7420
1155.587267 0.7420 0.7430 0.7430 0.7430 0.7430
1158.832520 0.7440 0.7440 0.7440 0.7450 0.7450
1162.077773 0.7450 0.7450 0.7450 0.7450 0.7450
1165.323026 0.7450 0.7450 0.7450 0.7450 0.7450
1168.568280 0.7450 0.7450 0.7450 0.7450 0.7450
1171.813533 0.7450 0.7450 0.7450 0.7450 0.7450
1175.058786 0.7450 0.7450 0.7450 0.7450 0.7450
1178.304039 0.7450 0.7450 0.7450 0.7450 0.7450
1181.549292 0.7440 0.7440 0.7440 0.7440 0.7440
1184.794545 0.7430 0.7430 0.7430 0.7430 0.7430
1188.039798 0.7420 0.7420 0.7410 0.7410 0.7410
1191.285051 0.7410 0.7400 0.7400 0.7390 0.7390
1194.530304 0.7390 0.7390 0.7390 0.7390 0.7390
1197.775557 0.7390 0.7390 0.7390 0.7390 0.7400
1201.020810 0.7400 0.7400 0.7400 0.7400 0.7400
1204.266063 0.7410 0.7410 0.7410 0.7410 0.7410
1207.511316 0.7410 0.7400 0.7400 0.7390 0.7390
1210.756569 0.7370 0.7360 0.7340 0.7320 0.7300
1214.001822 0.7270 0.7250 0.7220 0.7200 0.7180
1217.247075 0.7170 0.7140 0.7130 0.7110 0.7100
1220.492328 0.7090 0.7070 0.7050 0.7030 0.7000
1223.737581 0.6980 0.6960 0.6940 0.6920 0.6900
1226.982834 0.6890 0.6900 0.6920 0.6930 0.6950
1230.228087 0.6960 0.6960 0.6960 0.6960 0.6970
1233.473340 0.6970 0.6980 0.6980 0.6980 0.6970
1236.718593 0.6970 0.6970 0.6960 0.6940 0.6940
1239.963846 0.6940 0.6940 0.6940 0.6950 0.6960
1243.209099 0.6990 0.7010 0.7040 0.7050 0.7050
1246.454352 0.7050 0.7060 0.7070 0.7070 0.7070
1249.699605 0.7080 0.7090 0.7100 0.7100 0.7090
1252.944858 0.7100 0.7100 0.7100 0.7090 0.7090
1256.190111 0.7090 0.7090 0.7080 0.7070 0.7060
1259.435364 0.7050 0.7050 0.7030 0.7030 0.7030
1262.680617 0.7020 0.7010 0.7000 0.6980 0.6970
1265.925870 0.6950 0.6930 0.6930 0.6920 0.6920
1269.171123 0.6910 0.6900 0.6890 0.6850 0.6800
1272.416376 0.6730 0.6670 0.6600 0.6520 0.6430
1275.661629 0.6380 0.6330 0.6210 0.6080 0.5930
1278.906882 0.5760 0.5560 0.5350 0.5230 0.5110
1282.152135 0.4839 0.4540 0.4500 0.4480 0.4500
1285.397388 0.4560 0.4810 0.5559 0.5760 0.5880
1288.642641 0.5960 0.6020 0.6090 0.6210 0.6270
1291.887895 0.6270 0.6280 0.6280 0.6290 0.6300
1295.133148 0.6290 0.6280 0.6250 0.6180 0.6120
1298.378401 0.6060 0.6010 0.5970 0.5920 0.5870
1301.623654 0.5800 0.5720 0.5630 0.5520 0.5390
1304.868907 0.5220 0.5110 0.4990 0.4791 0.4601
1308.114160 0.4430 0.4260 0.4090 0.3890 0.3780
1311.359413 0.3670 0.3410 0.3110 0.2751 0.2511
1314.604666 0.2270 0.2080 0.2040 0.1790 0.1550
1317.849919 0.1300 0.1290 0.1300 0.1430 0.1560
1321.095172 0.1700 0.1830 0.2100 0.2110 0.2140
1324.340425 0.2260 0.2640 0.2810 0.2970 0.3120
1327.585678 0.3290 0.3460 0.3660 0.3930 0.3970
1330.830931 0.3970 0.3970 0.3960 0.3691 0.3421
1334.076184 0.3069 0.2720 0.2380 0.2240 0.2190
1337.321437 0.1960 0.1520 0.1071 0.1050 0.1289
1340.566690 0.1520 0.1810 0.1900 0.2590 0.3070
1343.811943 0.3939 0.5218 0.5699 0.6099 0.6658
1347.057196 0.6840 0.6960 0.7050 0.7110 0.7150
1350.302449 0.7180 0.7200 0.7240 0.7300 0.7380
1353.547702 0.7500 0.7570 0.7590 0.7610 0.7610
1356.792955 0.7650 0.7710 0.7710 0.7720 0.7730
1360.038208 0.7750 0.7750 0.7760 0.7780 0.7790
1363.283461 0.7800 0.7810 0.7820 0.7840 0.7840
1366.528714 0.7860 0.7860 0.7870 0.7870 0.7870
1369.773967 0.7880 0.7880 0.7880 0.7880 0.7880
1373.019220 0.7880 0.7880 0.7890 0.7890 0.7880
1376.264473 0.7880 0.7880 0.7880 0.7870 0.7870
1379.509726 0.7860 0.7860 0.7850 0.7840 0.7820
1382.754979 0.7800 0.7780 0.7770 0.7770 0.7740
1386.000232 0.7730 0.7710 0.7690 0.7640 0.7610
1389.245485 0.7550 0.7500 0.7400 0.7360 0.7340
1392.490738 0.7240 0.7140 0.7040 0.6940 0.6840
1395.735991 0.6750 0.6710 0.6610 0.6490 0.6370
1398.981244 0.6019 0.5399 0.4790 0.4660 0.4390
1402.226497 0.4120 0.3860 0.3730 0.3600 0.3351
1405.471750 0.3350 0.3510 0.3660 0.3980 0.4290
1408.717003 0.4290 0.4290 0.3801 0.3321 0.3091
1411.962256 0.2870 0.2650 0.2540 0.2440 0.2230
1415.207509 0.2230 0.2879 0.5467 0.5999 0.6060
1418.452763 0.6070 0.6080 0.6090 0.6100 0.6100
1421.698016 0.6100 0.6100 0.6090 0.6050 0.5831
1424.943269 0.5650 0.5470 0.5290 0.5110 0.4660
1428.188522 0.4210 0.3950 0.3840 0.3730 0.3371
1431.433775 0.3319 0.3110 0.2900 0.2690 0.2590
1434.679028 0.2490 0.2280 0.2260 0.2270 0.2679
1437.924281 0.3031 0.3361 0.4000 0.4310 0.4610
1441.169534 0.5170 0.5440 0.5700 0.5950 0.6189
1444.414787 0.6641 0.6850 0.7060 0.7250 0.7340
1447.660040 0.7420 0.7490 0.7560 0.7630 0.7740
1450.905293 0.7790 0.7830 0.7870 0.7900 0.7930
1454.150546 0.7960 0.7980 0.8000 0.8020 0.8030
1457.395799 0.8040 0.8050 0.8060 0.8060 0.8060
1460.641052 0.8060 0.8060 0.8060 0.8050 0.8030
1463.886305 0.8020 0.8020 0.8020 0.8020 0.8020
1467.131558 0.8010 0.8010 0.8010 0.8010 0.8010
1470.376811 0.8010 0.8010 0.8010 0.8010 0.8020
1473.622064 0.8020 0.8020 0.8020 0.8020 0.8010
1476.867317 0.8000 0.8000 0.8000 0.7990 0.7980
1480.112570 0.7970 0.7950 0.7930 0.7920 0.7900
1483.357823 0.7880 0.7860 0.7850 0.7830 0.7810
1486.603076 0.7790 0.7790 0.7770 0.7750 0.7750
1489.848329 0.7720 0.7710 0.7700 0.7680 0.7680
1493.093582 0.7580 0.7540 0.7460 0.7390 0.7330
1496.338835 0.7280 0.7240 0.7210 0.7180 0.7160
1499.584088 0.7130 0.7110 0.7090 0.7070 0.7050
1502.829341 0.7020 0.6990 0.6950 0.6910 0.6850
1506.074594 0.6790 0.6780 0.6750 0.6730 0.6710
1509.319847 0.6690 0.6660 0.6640 0.6620 0.6590
1512.565100 0.6570 0.6540 0.6510 0.6490 0.6470
1515.810353 0.6440 0.6440 0.6420 0.6400 0.6390
1519.055606 0.6370 0.6350 0.6330 0.6300 0.6260
1522.300859 0.6220 0.6180 0.6140 0.6080 0.6040
1525.546112 0.5980 0.5930 0.5870 0.5810 0.5760
1528.791365 0.5690 0.5630 0.5570 0.5510 0.5450
1532.036618 0.5380 0.5330 0.5260 0.5200 0.5150
1535.281871 0.5120 0.5090 0.5040 0.4990 0.4930
1538.527124 0.4880 0.4860 0.4800 0.4790 0.4770
1541.772377 0.4750 0.4720 0.4700 0.4680 0.4670
1545.017631 0.4660 0.4660 0.4660 0.4670 0.4680
1548.262884 0.4720 0.4750 0.4770 0.4810 0.4840
1551.508137 0.4870 0.4900 0.4930 0.4970 0.5060
1554.753390 0.5220 0.5290 0.5370 0.5410 0.5440
1557.998643 0.5490 0.5610 0.5620 0.5680 0.5730
1561.243896 0.5740 0.5790 0.5870 0.5880 0.5890
1564.489149 0.5970 0.5980 0.6010 0.6040 0.6080
1567.734402 0.6130 0.6150 0.6190 0.6200 0.6220
1570.979655 0.6220 0.6240 0.6240 0.6260 0.6260
1574.224908 0.6280 0.6300 0.6310 0.6330 0.6340
1577.470161 0.6360 0.6370 0.6390 0.6430 0.6450
1580.715414 0.6480 0.6500 0.6530 0.6620 0.6690
1583.960667 0.6760 0.6820 0.6870 0.6910 0.6950
1587.205920 0.6990 0.7030 0.7060 0.7090 0.7120
1590.451173 0.7160 0.7200 0.7240 0.7280 0.7340
1593.696426 0.7400 0.7460 0.7540 0.7630 0.7750
1596.941679 0.7800 0.7860 0.7910 0.7950 0.7990
1600.186932 0.8030 0.8060 0.8090 0.8120 0.8150
1603.432185 0.8170 0.8200 0.8220 0.8240 0.8250
1606.677438 0.8270 0.8280 0.8290 0.8310 0.8320
1609.922691 0.8330 0.8340 0.8360 0.8370 0.8380
1613.167944 0.8400 0.8410 0.8430 0.8440 0.8450
1616.413197 0.8450 0.8450 0.8460 0.8470 0.8470
1619.658450 0.8470 0.8480 0.8480 0.8490 0.8490
1622.903703 0.8490 0.8490 0.8480 0.8480 0.8470
1626.148956 0.8470 0.8460 0.8450 0.8450 0.8420
1629.394209 0.8390 0.8330 0.8290 0.8250 0.8200
1632.639462 0.8160 0.8130 0.8060 0.8000 0.7880
1635.884715 0.7750 0.7630 0.7390 0.6961 0.6850
1639.129968 0.6689 0.6469 0.6270 0.6070 0.5920
1642.375221 0.5760 0.5610 0.5460 0.5310 0.5170
1645.620474 0.5172 0.6021 0.6541 0.7161 0.7940
1648.865727 0.8160 0.8290 0.8370 0.8400 0.8420
1652.110980 0.8430 0.8480 0.8580 0.8600 0.8610
1655.356233 0.8610 0.8620 0.8620 0.8620 0.8620
1658.601486 0.8630 0.8630 0.8630 0.8630 0.8630
1661.846739 0.8640 0.8650 0.8660 0.8670 0.8680
1665.091992 0.8690 0.8700 0.8700 0.8700 0.8710
1668.337245 0.8710 0.8720 0.8720 0.8720 0.8710
1671.582499 0.8710 0.8700 0.8700 0.8690 0.8690
1674.827752 0.8690 0.8680 0.8680 0.8680 0.8680
1678.073005 0.8680 0.8680 0.8680 0.8680 0.8680
1681.318258 0.8680 0.8680 0.8680 0.8680 0.8680
1684.563511 0.8690 0.8690 0.8690 0.8700 0.8700
1687.808764 0.8700 0.8700 0.8710 0.8720 0.8720
1691.054017 0.8720 0.8730 0.8730 0.8730 0.8730
1694.299270 0.8730 0.8730 0.8730 0.8730 0.8720
1697.544523 0.8730 0.8730 0.8740 0.8740 0.8740
1700.789776 0.8740 0.8750 0.8750 0.8750 0.8750
1704.035029 0.8750 0.8750 0.8750 0.8750 0.8760
1707.280282 0.8760 0.8760 0.8760 0.8770 0.8770
1710.525535 0.8770 0.8770 0.8770 0.8770 0.8770
1713.770788 0.8760 0.8760 0.8760 0.8750 0.8750
1717.016041 0.8750 0.8740 0.8750 0.8750 0.8740
1720.261294 0.8730 0.8730 0.8720 0.8720 0.8720
1723.506547 0.8720 0.8720 0.8720 0.8720 0.8730
1726.751800 0.8730 0.8740 0.8740 0.8730 0.8730
1729.997053 0.8730 0.8730 0.8740 0.8740 0.8740
1733.242306 0.8740 0.8740 0.8740 0.8740 0.8740
1736.487559 0.8740 0.8740 0.8740 0.8740 0.8740
1739.732812 0.8730 0.8730 0.8740 0.8740 0.8740
1742.978065 0.8750 0.8750 0.8750 0.8750 0.8750
1746.223318 0.8740 0.8740 0.8740 0.8740 0.8740
1749.468571 0.8740 0.8740 0.8740 0.8730 0.8730
1752.713824 0.8720 0.8720 0.8710 0.8700 0.8700
1755.959077 0.8700 0.8680 0.8670 0.8660 0.8650
1759.204330 0.8640 0.8630 0.8630 0.8630 0.8640
1762.449583 0.8650 0.8650 0.8660 0.8670 0.8680
1765.694836 0.8680 0.8690 0.8700 0.8700 0.8700
1768.940089 0.8700 0.8710 0.8710 0.8710 0.8710
1772.185342 0.8720 0.8720 0.8720 0.8720 0.8720
1775.430595 0.8720 0.8720 0.8720 0.8720 0.8720
1778.675848 0.8710 0.8700 0.8690 0.8680 0.8680
1781.921101 0.8680 0.8680 0.8680 0.8680 0.8680
1785.166354 0.8680 0.8680 0.8680 0.8670 0.8670
1788.411607 0.8670 0.8670 0.8670 0.8650 0.8650
1791.656860 0.8630 0.8630 0.8630 0.8620 0.8620
1794.902114 0.8630 0.8630 0.8650 0.8650 0.8670
1798.147367 0.8670 0.8680 0.8680 0.8680 0.8680
1801.392620 0.8680 0.8690 0.8690 0.8690 0.8690
1804.637873 0.8690 0.8690 0.8690 0.8690 0.8690
1807.883126 0.8680 0.8680 0.8680 0.8680 0.8680
1811.128379 0.8680 0.8680 0.8670 0.8670 0.8670
1814.373632 0.8670 0.8660 0.8650 0.8640 0.8630
1817.618885 0.8630 0.8620 0.8610 0.8610 0.8610
1820.864138 0.8600 0.8590 0.8590 0.8590 0.8580
1824.109391 0.8580 0.8560 0.8540 0.8540 0.8530
1827.354644 0.8520 0.8520 0.8520 0.8510 0.8500
1830.599897 0.8490 0.8490 0.8480 0.8470 0.8450
1833.845150 0.8420 0.8400 0.8380 0.8360 0.8360
1837.090403 0.8340 0.8340 0.8330 0.8320 0.8310
1840.335656 0.8290 0.8260 0.8220 0.8150 0.8110
1843.580909 0.8100 0.8080 0.8060 0.8050 0.8030
1846.826162 0.8020 0.8010 0.8000 0.8000 0.7990
1850.071415 0.7980 0.7980 0.7970 0.7970 0.7970
1853.316668 0.7970 0.7970 0.7980 0.7980 0.7990
1856.561921 0.8000 0.8000 0.8000 0.8000 0.8000
1859.807174 0.8000 0.8000 0.8000 0.7990 0.7990
1863.052427 0.7980 0.7980 0.7980 0.7970 0.7940
1866.297680 0.7920 0.7890 0.7890 0.7890 0.7890
1869.542933 0.7900 0.7930 0.7970 0.8000 0.8020
1872.788186 0.8060 0.8070 0.8100 0.8110 0.8130
1876.033439 0.8130 0.8140 0.8150 0.8160 0.8160
1879.278692 0.8160 0.8170 0.8180 0.8180 0.8200
1882.523945 0.8200 0.8210 0.8220 0.8220 0.8220
1885.769198 0.8230 0.8230 0.8230 0.8230 0.8230
1889.014451 0.8230 0.8230 0.8220 0.8220 0.8220
1892.259704 0.8220 0.8210 0.8200 0.8190 0.8180
1895.504957 0.8180 0.8180 0.8170 0.8170 0.8160
1898.750210 0.8160 0.8150 0.8130 0.8110 0.8100
1901.995463 0.8070 0.8060 0.8030 0.8020 0.8020
1905.240716 0.8010 0.8000 0.7980 0.7970 0.7960
1908.485969 0.7950 0.7950 0.7940 0.7930 0.7910
