##TITLE=PROPENE, 1-CHLORO- (ABOUT 90% TRANS)
$$ ABOUT 90% TRANS ISOMER
##JCAMP-DX=4.24
$$ By DXEDIT 1.05 (RS McDonald)
##DATA TYPE=INFRARED SPECTRUM
##CLASS=COBLENTZ III
##ORIGIN=DOW CHEMICAL COMPANY
##OWNER=COBLENTZ SOC.
Collection (C) 2018 copyright by the U.S. Secretary of Commerce
on behalf of the United States of America. All rights reserved.
##DATE=1968/10/27
##NAMES=(1E)-1-chloro-1-propene
##CAS REGISTRY NO=590-21-6
##MOLFORM=C3 H5 Cl
##SOURCE REFERENCE=COBLENTZ NO. 05694
##$NIST SOURCE=COBLENTZ
##$NIST IMAGE=cob5694
##SPECTROMETER/DATA SYSTEM=DOW KBr FOREPRISM-GRATING
##INSTRUMENT PARAMETERS=BLAZED AT 3.5, 12.0, 20.0 MICRON AND CHANGED AT 5.0, 7.5, 14.9 MICRON
##STATE=SOLUTION (10% CCl4 FOR 2.6-7.5, 10% CS2 FOR 7.5-22 MICRON)
##PATH LENGTH=0.011 CM, 0.011 CM
$$SPECTRAL CONTAMINATION DUE TO CS2 AROUND 850 AND CCl4 AROUND 1550 CM^-^1
##SAMPLING PROCEDURE=TRANSMISSION
##RESOLUTION=2
##DATA PROCESSING=DIGITIZED BY COBLENTZ SOCIETY (BATCH I) FROM HARD COPY
##XUNITS=1/CM
##YUNITS=TRANSMITTANCE
##XLABEL=Wavenumbers (cm-1)
##YLABEL=% Transmission
##XFACTOR=1
##YFACTOR=1
##DELTAX=1
##FIRSTX=3816
##LASTX=451
##FIRSTY=0.8941
##MAXX=3816
##MINX=451
##MAXY=0.9223
##MINY=0.0108
##NPOINTS=3366
##XYDATA=(X++(Y..Y))
3816.000000 0.8941 0.8940 0.8940 0.8938 0.8936
3811.000000 0.8934 0.8932 0.8930 0.8928 0.8925
3806.000000 0.8924 0.8921 0.8920 0.8918 0.8916
3801.000000 0.8914 0.8912 0.8910 0.8908 0.8906
3796.000000 0.8904 0.8903 0.8902 0.8906 0.8910
3791.000000 0.8914 0.8918 0.8921 0.8925 0.8930
3786.000000 0.8934 0.8938 0.8942 0.8946 0.8950
3781.000000 0.8953 0.8957 0.8960 0.8963 0.8966
3776.000000 0.8970 0.8973 0.8977 0.8980 0.8984
3771.000000 0.8987 0.8991 0.8994 0.8997 0.8997
3766.000000 0.8998 0.8998 0.8998 0.8998 0.8998
3761.000000 0.8998 0.8998 0.8998 0.8998 0.8998
3756.000000 0.8998 0.8998 0.8998 0.8994 0.8990
3751.000000 0.8984 0.8978 0.8973 0.8968 0.8962
3746.000000 0.8957 0.8951 0.8946 0.8940 0.8935
3741.000000 0.8928 0.8924 0.8920 0.8917 0.8915
3736.000000 0.8914 0.8912 0.8910 0.8908 0.8907
3731.000000 0.8905 0.8903 0.8901 0.8900 0.8898
3726.000000 0.8896 0.8894 0.8893 0.8891 0.8889
3721.000000 0.8887 0.8886 0.8885 0.8884 0.8888
3716.000000 0.8892 0.8896 0.8900 0.8904 0.8908
3711.000000 0.8912 0.8916 0.8918 0.8923 0.8927
3706.000000 0.8931 0.8935 0.8939 0.8943 0.8947
3701.000000 0.8947 0.8947 0.8946 0.8945 0.8943
3696.000000 0.8942 0.8941 0.8940 0.8938 0.8937
3691.000000 0.8934 0.8932 0.8930 0.8928 0.8925
3686.000000 0.8923 0.8921 0.8921 0.8921 0.8923
3681.000000 0.8924 0.8925 0.8925 0.8927 0.8927
3676.000000 0.8928 0.8928 0.8930 0.8931 0.8932
3671.000000 0.8933 0.8934 0.8935 0.8936 0.8936
3666.000000 0.8936 0.8935 0.8935 0.8934 0.8934
3661.000000 0.8933 0.8933 0.8935 0.8938 0.8940
3656.000000 0.8943 0.8946 0.8949 0.8951 0.8954
3651.000000 0.8955 0.8957 0.8958 0.8959 0.8960
3646.000000 0.8961 0.8962 0.8964 0.8965 0.8966
3641.000000 0.8967 0.8968 0.8968 0.8971 0.8971
3636.000000 0.8973 0.8974 0.8975 0.8975 0.8978
3631.000000 0.8978 0.8980 0.8981 0.8983 0.8984
3626.000000 0.8985 0.8986 0.8987 0.8988 0.8990
3621.000000 0.8990 0.8991 0.8991 0.8991 0.8990
3616.000000 0.8990 0.8990 0.8990 0.8990 0.8990
3611.000000 0.8990 0.8990 0.8989 0.8989 0.8989
3606.000000 0.8989 0.8989 0.8989 0.8988 0.8988
3601.000000 0.8988 0.8988 0.8988 0.8988 0.8987
3596.000000 0.8987 0.8987 0.8987 0.8987 0.8987
3591.000000 0.8987 0.8987 0.8986 0.8986 0.8986
3586.000000 0.8986 0.8986 0.8987 0.8987 0.8988
3581.000000 0.8988 0.8989 0.8989 0.8990 0.8990
3576.000000 0.8991 0.8991 0.8992 0.8992 0.8993
3571.000000 0.8993 0.8994 0.8994 0.8995 0.8995
3566.000000 0.8996 0.8996 0.8997 0.8997 0.8998
3561.000000 0.8998 0.8998 0.8999 0.9000 0.9001
3556.000000 0.9003 0.9004 0.9005 0.9006 0.9008
3551.000000 0.9009 0.9010 0.9011 0.9013 0.9014
3546.000000 0.9015 0.9016 0.9018 0.9018 0.9020
3541.000000 0.9021 0.9023 0.9024 0.9025 0.9025
3536.000000 0.9028 0.9028 0.9030 0.9031 0.9032
3531.000000 0.9033 0.9035 0.9036 0.9037 0.9038
3526.000000 0.9039 0.9040 0.9041 0.9042 0.9043
3521.000000 0.9044 0.9045 0.9046 0.9048 0.9049
3516.000000 0.9050 0.9051 0.9052 0.9053 0.9054
3511.000000 0.9055 0.9056 0.9057 0.9058 0.9059
3506.000000 0.9060 0.9061 0.9063 0.9064 0.9065
3501.000000 0.9066 0.9067 0.9068 0.9068 0.9070
3496.000000 0.9071 0.9071 0.9073 0.9074 0.9075
3491.000000 0.9075 0.9078 0.9078 0.9080 0.9081
3486.000000 0.9082 0.9083 0.9085 0.9086 0.9087
3481.000000 0.9088 0.9089 0.9090 0.9092 0.9093
3476.000000 0.9094 0.9095 0.9096 0.9097 0.9099
3471.000000 0.9100 0.9101 0.9102 0.9103 0.9104
3466.000000 0.9106 0.9107 0.9108 0.9109 0.9110
3461.000000 0.9111 0.9113 0.9115 0.9117 0.9118
3456.000000 0.9121 0.9123 0.9125 0.9128 0.9131
3451.000000 0.9133 0.9135 0.9137 0.9140 0.9142
3446.000000 0.9145 0.9147 0.9150 0.9152 0.9154
3441.000000 0.9156 0.9159 0.9161 0.9164 0.9166
3436.000000 0.9168 0.9171 0.9175 0.9178 0.9182
3431.000000 0.9185 0.9189 0.9192 0.9195 0.9198
3426.000000 0.9202 0.9204 0.9206 0.9207 0.9208
3421.000000 0.9209 0.9210 0.9211 0.9213 0.9214
3416.000000 0.9215 0.9216 0.9217 0.9218 0.9220
3411.000000 0.9221 0.9221 0.9223 0.9223 0.9223
3406.000000 0.9223 0.9221 0.9221 0.9221 0.9221
3401.000000 0.9220 0.9218 0.9218 0.9218 0.9217
3396.000000 0.9217 0.9215 0.9213 0.9211 0.9210
3391.000000 0.9208 0.9206 0.9204 0.9202 0.9200
3386.000000 0.9199 0.9197 0.9195 0.9193 0.9192
3381.000000 0.9190 0.9188 0.9186 0.9184 0.9182
3376.000000 0.9181 0.9178 0.9178 0.9175 0.9175
3371.000000 0.9173 0.9171 0.9168 0.9168 0.9166
3366.000000 0.9165 0.9163 0.9162 0.9160 0.9158
3361.000000 0.9156 0.9155 0.9153 0.9152 0.9151
3356.000000 0.9150 0.9149 0.9149 0.9148 0.9148
3351.000000 0.9147 0.9146 0.9145 0.9145 0.9144
3346.000000 0.9144 0.9143 0.9142 0.9141 0.9141
3341.000000 0.9140 0.9140 0.9139 0.9138 0.9137
3336.000000 0.9137 0.9136 0.9136 0.9135 0.9135
3331.000000 0.9134 0.9134 0.9134 0.9134 0.9133
3326.000000 0.9133 0.9132 0.9132 0.9131 0.9131
3321.000000 0.9131 0.9131 0.9130 0.9130 0.9128
3316.000000 0.9128 0.9128 0.9128 0.9125 0.9125
3311.000000 0.9121 0.9120 0.9117 0.9114 0.9111
3306.000000 0.9109 0.9106 0.9103 0.9100 0.9098
3301.000000 0.9095 0.9093 0.9090 0.9088 0.9083
3296.000000 0.9078 0.9070 0.9062 0.9053 0.9045
3291.000000 0.9040 0.9035 0.9031 0.9028 0.9024
3286.000000 0.9020 0.9016 0.9013 0.9011 0.9009
3281.000000 0.9007 0.9006 0.9004 0.9003 0.9001
3276.000000 0.9000 0.8998 0.8997 0.8995 0.8994
3271.000000 0.8992 0.8991 0.8990 0.8989 0.8987
3266.000000 0.8986 0.8985 0.8984 0.8982 0.8981
3261.000000 0.8978 0.8978 0.8977 0.8975 0.8974
3256.000000 0.8973 0.8971 0.8971 0.8968 0.8968
3251.000000 0.8967 0.8967 0.8967 0.8968 0.8968
3246.000000 0.8970 0.8971 0.8971 0.8973 0.8974
3241.000000 0.8974 0.8975 0.8975 0.8977 0.8978
3236.000000 0.8978 0.8978 0.8980 0.8981 0.8982
3231.000000 0.8983 0.8984 0.8984 0.8985 0.8986
3226.000000 0.8987 0.8988 0.8989 0.8990 0.8991
3221.000000 0.8992 0.8993 0.8994 0.8995 0.8996
3216.000000 0.8997 0.8998 0.8999 0.8999 0.9000
3211.000000 0.9001 0.9001 0.9001 0.9001 0.8999
3206.000000 0.8997 0.8995 0.8993 0.8991 0.8990
3201.000000 0.8988 0.8986 0.8984 0.8982 0.8980
3196.000000 0.8978 0.8975 0.8974 0.8971 0.8970
3191.000000 0.8968 0.8966 0.8964 0.8962 0.8960
3186.000000 0.8958 0.8956 0.8954 0.8952 0.8950
3181.000000 0.8947 0.8945 0.8943 0.8941 0.8939
3176.000000 0.8937 0.8934 0.8932 0.8930 0.8928
3171.000000 0.8925 0.8924 0.8921 0.8918 0.8916
3166.000000 0.8914 0.8911 0.8909 0.8906 0.8904
3161.000000 0.8901 0.8899 0.8896 0.8893 0.8890
3156.000000 0.8888 0.8885 0.8882 0.8878 0.8874
3151.000000 0.8868 0.8865 0.8861 0.8857 0.8853
3146.000000 0.8849 0.8844 0.8840 0.8836 0.8832
3141.000000 0.8828 0.8824 0.8818 0.8815 0.8811
3136.000000 0.8807 0.8803 0.8799 0.8794 0.8790
3131.000000 0.8785 0.8780 0.8775 0.8770 0.8765
3126.000000 0.8761 0.8756 0.8777 0.8747 0.8744
3121.000000 0.8740 0.8737 0.8734 0.8731 0.8727
3116.000000 0.8724 0.8718 0.8715 0.8711 0.8707
3111.000000 0.8703 0.8699 0.8693 0.8688 0.8668
3106.000000 0.8650 0.8625 0.8603 0.8577 0.8552
3101.000000 0.8525 0.8500 0.8467 0.8435 0.8402
3096.000000 0.8368 0.8353 0.8337 0.8320 0.8304
3091.000000 0.8288 0.8271 0.8256 0.8240 0.8193
3086.000000 0.8146 0.8115 0.8084 0.8053 0.8021
3081.000000 0.7962 0.7904 0.7843 0.7783 0.7718
3076.000000 0.7655 0.7465 0.7278 0.6818 0.6360
3071.000000 0.5902 0.5444 0.5060 0.4666 0.4676
3066.000000 0.4675 0.4674 0.4673 0.4871 0.5070
3061.000000 0.5296 0.5523 0.5750 0.5977 0.6203
3056.000000 0.6430 0.6657 0.6884 0.7111 0.7338
3051.000000 0.7508 0.7678 0.7684 0.7698 0.7695
3046.000000 0.7701 0.7701 0.7701 0.7637 0.7574
3041.000000 0.7505 0.7437 0.7368 0.7299 0.7245
3036.000000 0.7192 0.7169 0.7101 0.7134 0.7119
3031.000000 0.7121 0.7124 0.7149 0.7175 0.7200
3026.000000 0.7225 0.7251 0.7276 0.7301 0.7328
3021.000000 0.7349 0.7369 0.7389 0.7408 0.7425
3016.000000 0.7445 0.7462 0.7482 0.7501 0.7519
3011.000000 0.7539 0.7558 0.7578 0.7600 0.7621
3006.000000 0.7642 0.7662 0.7787 0.7707 0.7731
3001.000000 0.7728 0.7725 0.7721 0.7718 0.7714
2996.000000 0.7711 0.7678 0.7647 0.7487 0.7326
2991.000000 0.7191 0.7055 0.6918 0.6783 0.6647
2986.000000 0.6511 0.6374 0.6238 0.6102 0.5966
2981.000000 0.5830 0.5694 0.5558 0.5422 0.5285
2976.000000 0.5149 0.5023 0.4898 0.4894 0.4877
2971.000000 0.4888 0.4885 0.4902 0.4920 0.4951
2966.000000 0.4982 0.5008 0.5034 0.5031 0.5028
2961.000000 0.5028 0.5028 0.5019 0.5017 0.4953
2956.000000 0.4890 0.4819 0.4748 0.4676 0.4462
2951.000000 0.4553 0.4502 0.4505 0.4509 0.4524
2946.000000 0.4539 0.4645 0.4752 0.4962 0.5175
2941.000000 0.5386 0.5598 0.5809 0.6020 0.6127
2936.000000 0.6235 0.6250 0.6266 0.6270 0.6342
2931.000000 0.6277 0.6280 0.6164 0.6049 0.5347
2926.000000 0.4646 0.3944 0.3242 0.2863 0.2484
2921.000000 0.2478 0.2472 0.2787 0.3102 0.3554
2916.000000 0.4007 0.4459 0.4910 0.5362 0.5816
2911.000000 0.6268 0.6721 0.7007 0.7293 0.7346
2906.000000 0.7399 0.7447 0.7495 0.7546 0.7597
2901.000000 0.7648 0.7699 0.7771 0.7845 0.7869
2896.000000 0.7896 0.7906 0.7926 0.7915 0.7915
2891.000000 0.7915 0.7915 0.7882 0.7848 0.7810
2886.000000 0.7772 0.7736 0.7699 0.7539 0.6336
2881.000000 0.6922 0.6467 0.6407 0.6347 0.6347
2876.000000 0.6348 0.6415 0.6483 0.6601 0.6719
2871.000000 0.6838 0.6957 0.7064 0.7171 0.7171
2866.000000 0.7181 0.7157 0.7143 0.6898 0.6654
2861.000000 0.6408 0.6164 0.5919 0.5674 0.5429
2856.000000 0.5184 0.5072 0.4952 0.4962 0.4965
2851.000000 0.5388 0.5810 0.6661 0.7512 0.7749
2846.000000 0.7986 0.8031 0.8075 0.8118 0.8160
2841.000000 0.8201 0.8242 0.8282 0.8323 0.8362
2836.000000 0.8402 0.8430 0.8459 0.8466 0.8474
2831.000000 0.8477 0.8481 0.8484 0.8488 0.8489
2826.000000 0.8490 0.8491 0.8492 0.8493 0.8494
2821.000000 0.8497 0.8500 0.8510 0.8520 0.8530
2816.000000 0.8540 0.8550 0.8560 0.8570 0.8580
2811.000000 0.8591 0.8602 0.8613 0.8625 0.8636
2806.000000 0.8647 0.8658 0.8670 0.8678 0.8688
2801.000000 0.8696 0.8705 0.8713 0.8721 0.8730
2796.000000 0.8739 0.8747 0.8756 0.8763 0.8771
2791.000000 0.8775 0.8781 0.8786 0.8791 0.8795
2786.000000 0.8800 0.8805 0.8810 0.8815 0.8817
2781.000000 0.8821 0.8824 0.8824 0.8825 0.8825
2776.000000 0.8825 0.8825 0.8825 0.8825 0.8825
2771.000000 0.8825 0.8823 0.8821 0.8818 0.8817
2766.000000 0.8815 0.8813 0.8811 0.8809 0.8807
2761.000000 0.8805 0.8804 0.8802 0.8800 0.8798
2756.000000 0.8796 0.8794 0.8792 0.8785 0.8778
2751.000000 0.8768 0.8759 0.8749 0.8739 0.8721
2746.000000 0.8703 0.8678 0.8653 0.8615 0.8577
2741.000000 0.8542 0.8508 0.8484 0.8461 0.8436
2736.000000 0.8411 0.8371 0.8307 0.8323 0.8312
2731.000000 0.8320 0.8328 0.8390 0.8452 0.8530
2726.000000 0.8609 0.8637 0.8666 0.8688 0.8711
2721.000000 0.8728 0.8747 0.8762 0.8778 0.8784
2716.000000 0.8791 0.8797 0.8803 0.8809 0.8816
2711.000000 0.8820 0.8824 0.8825 0.8828 0.8831
2706.000000 0.8834 0.8836 0.8839 0.8839 0.8840
2701.000000 0.8841 0.8842 0.8843 0.8844 0.8845
2696.000000 0.8846 0.8847 0.8848 0.8848 0.8848
2691.000000 0.8848 0.8849 0.8849 0.8849 0.8849
2686.000000 0.8850 0.8850 0.8850 0.8850 0.8850
2681.000000 0.8850 0.8851 0.8852 0.8853 0.8855
2676.000000 0.8857 0.8858 0.8860 0.8862 0.8864
2671.000000 0.8866 0.8868 0.8870 0.8871 0.8873
2666.000000 0.8875 0.8877 0.8878 0.8880 0.8882
2661.000000 0.8882 0.8883 0.8883 0.8884 0.8884
2656.000000 0.8885 0.8885 0.8886 0.8887 0.8888
2651.000000 0.8888 0.8889 0.8889 0.8890 0.8890
2646.000000 0.8891 0.8891 0.8892 0.8893 0.8894
2641.000000 0.8894 0.8895 0.8896 0.8897 0.8898
2636.000000 0.8899 0.8899 0.8900 0.8901 0.8902
2631.000000 0.8903 0.8904 0.8904 0.8905 0.8906
2626.000000 0.8907 0.8908 0.8909 0.8909 0.8910
2621.000000 0.8911 0.8912 0.8913 0.8914 0.8914
2616.000000 0.8915 0.8916 0.8917 0.8918 0.8918
2611.000000 0.8918 0.8920 0.8921 0.8921 0.8923
2606.000000 0.8924 0.8924 0.8925 0.8925 0.8927
2601.000000 0.8928 0.8928 0.8928 0.8930 0.8931
2596.000000 0.8932 0.8933 0.8934 0.8934 0.8935
2591.000000 0.8936 0.8937 0.8938 0.8939 0.8939
2586.000000 0.8940 0.8941 0.8942 0.8943 0.8944
2581.000000 0.8944 0.8944 0.8942 0.8941 0.8940
2576.000000 0.8939 0.8937 0.8936 0.8935 0.8934
2571.000000 0.8933 0.8932 0.8930 0.8928 0.8928
2566.000000 0.8927 0.8925 0.8925 0.8924 0.8923
2561.000000 0.8921 0.8921 0.8921 0.8921 0.8921
2556.000000 0.8921 0.8920 0.8920 0.8920 0.8920
2551.000000 0.8918 0.8918 0.8918 0.8918 0.8914
2546.000000 0.8909 0.8903 0.8897 0.8891 0.8886
2541.000000 0.8880 0.8875 0.8868 0.8863 0.8857
2536.000000 0.8852 0.8847 0.8842 0.8836 0.8831
2531.000000 0.8825 0.8821 0.8818 0.8818 0.8818
2526.000000 0.8821 0.8821 0.8824 0.8828 0.8832
2521.000000 0.8836 0.8840 0.8844 0.8849 0.8853
2516.000000 0.8858 0.8861 0.8865 0.8867 0.8868
2511.000000 0.8870 0.8871 0.8874 0.8875 0.8878
2506.000000 0.8880 0.8881 0.8883 0.8885 0.8887
2501.000000 0.8889 0.8891 0.8892 0.8894 0.8896
2496.000000 0.8898 0.8899 0.8900 0.8901 0.8902
2491.000000 0.8903 0.8904 0.8905 0.8906 0.8907
2486.000000 0.8909 0.8902 0.8895 0.8887 0.8880
2481.000000 0.8871 0.8863 0.8854 0.8845 0.8836
2476.000000 0.8828 0.8820 0.8813 0.8805 0.8798
2471.000000 0.8790 0.8783 0.8775 0.8770 0.8771
2466.000000 0.8773 0.8777 0.8782 0.8789 0.8796
2461.000000 0.8803 0.8811 0.8818 0.8825 0.8832
2456.000000 0.8839 0.8843 0.8847 0.8850 0.8854
2451.000000 0.8857 0.8861 0.8864 0.8868 0.8871
2446.000000 0.8875 0.8878 0.8882 0.8885 0.8889
2441.000000 0.8891 0.8894 0.8895 0.8897 0.8898
2436.000000 0.8899 0.8900 0.8902 0.8903 0.8905
2431.000000 0.8906 0.8908 0.8909 0.8911 0.8912
2426.000000 0.8913 0.8914 0.8916 0.8917 0.8918
2421.000000 0.8918 0.8918 0.8918 0.8918 0.8918
2416.000000 0.8918 0.8918 0.8918 0.8918 0.8918
2411.000000 0.8918 0.8918 0.8918 0.8918 0.8918
2406.000000 0.8918 0.8918 0.8918 0.8918 0.8918
2401.000000 0.8918 0.8918 0.8917 0.8916 0.8914
2396.000000 0.8913 0.8912 0.8911 0.8909 0.8908
2391.000000 0.8906 0.8905 0.8903 0.8902 0.8899
2386.000000 0.8897 0.8894 0.8892 0.8890 0.8888
2381.000000 0.8886 0.8884 0.8882 0.8881 0.8880
2376.000000 0.8878 0.8877 0.8875 0.8874 0.8873
2371.000000 0.8871 0.8871 0.8873 0.8875 0.8875
2366.000000 0.8877 0.8878 0.8878 0.8880 0.8882
2361.000000 0.8884 0.8886 0.8888 0.8890 0.8892
2356.000000 0.8894 0.8896 0.8898 0.8899 0.8901
2351.000000 0.8903 0.8905 0.8907 0.8909 0.8911
2346.000000 0.8913 0.8915 0.8918 0.8920 0.8921
2341.000000 0.8924 0.8925 0.8928 0.8930 0.8930
2336.000000 0.8931 0.8931 0.8932 0.8932 0.8932
2331.000000 0.8923 0.8914 0.8897 0.8881 0.8863
2326.000000 0.8846 0.8813 0.8780 0.8746 0.8713
2321.000000 0.8668 0.8623 0.8617 0.8611 0.8621
2316.000000 0.8634 0.8645 0.8657 0.8668 0.8681
2311.000000 0.8694 0.8708 0.8724 0.8740 0.8755
2306.000000 0.8771 0.8787 0.8803 0.8807 0.8812
2301.000000 0.8809 0.8807 0.8804 0.8802 0.8799
2296.000000 0.8797 0.8795 0.8793 0.8790 0.8788
2291.000000 0.8786 0.8784 0.8781 0.8778 0.8777
2286.000000 0.8775 0.8773 0.8771 0.8768 0.8766
2281.000000 0.8766 0.8766 0.8766 0.8767 0.8768
2276.000000 0.8768 0.8770 0.8771 0.8771 0.8773
2271.000000 0.8773 0.8774 0.8775 0.8775 0.8777
2266.000000 0.8778 0.8778 0.8781 0.8782 0.8784
2261.000000 0.8786 0.8788 0.8790 0.8792 0.8793
2256.000000 0.8795 0.8797 0.8799 0.8801 0.8803
2251.000000 0.8804 0.8806 0.8808 0.8811 0.8813
2246.000000 0.8816 0.8818 0.8821 0.8824 0.8827
2241.000000 0.8830 0.8833 0.8835 0.8838 0.8841
2236.000000 0.8844 0.8846 0.8849 0.8851 0.8854
2231.000000 0.8854 0.8855 0.8855 0.8856 0.8856
2226.000000 0.8857 0.8858 0.8859 0.8859 0.8860
2221.000000 0.8860 0.8861 0.8861 0.8862 0.8862
2216.000000 0.8863 0.8863 0.8864 0.8864 0.8865
2211.000000 0.8865 0.8866 0.8866 0.8867 0.8867
2206.000000 0.8867 0.8866 0.8866 0.8866 0.8866
2201.000000 0.8865 0.8865 0.8865 0.8865 0.8865
2196.000000 0.8865 0.8864 0.8864 0.8864 0.8864
2191.000000 0.8864 0.8864 0.8863 0.8863 0.8863
2186.000000 0.8863 0.8863 0.8863 0.8862 0.8862
2181.000000 0.8862 0.8863 0.8863 0.8863 0.8863
2176.000000 0.8864 0.8864 0.8864 0.8864 0.8864
2171.000000 0.8864 0.8865 0.8865 0.8865 0.8865
2166.000000 0.8866 0.8866 0.8866 0.8866 0.8866
2161.000000 0.8866 0.8867 0.8867 0.8867 0.8867
2156.000000 0.8868 0.8868 0.8868 0.8868 0.8868
2151.000000 0.8868 0.8868 0.8868 0.8868 0.8868
2146.000000 0.8870 0.8870 0.8870 0.8870 0.8870
2141.000000 0.8870 0.8871 0.8871 0.8873 0.8874
2136.000000 0.8875 0.8875 0.8875 0.8877 0.8878
2131.000000 0.8878 0.8880 0.8881 0.8882 0.8882
2126.000000 0.8883 0.8884 0.8885 0.8886 0.8887
2121.000000 0.8887 0.8888 0.8889 0.8890 0.8891
2116.000000 0.8892 0.8892 0.8893 0.8893 0.8894
2111.000000 0.8894 0.8895 0.8896 0.8897 0.8897
2106.000000 0.8898 0.8898 0.8899 0.8899 0.8900
2101.000000 0.8901 0.8902 0.8902 0.8903 0.8903
2096.000000 0.8904 0.8904 0.8905 0.8906 0.8907
2091.000000 0.8907 0.8907 0.8907 0.8907 0.8907
2086.000000 0.8907 0.8907 0.8907 0.8907 0.8907
2081.000000 0.8907 0.8907 0.8907 0.8907 0.8906
2076.000000 0.8906 0.8906 0.8906 0.8906 0.8906
2071.000000 0.8906 0.8906 0.8906 0.8906 0.8906
2066.000000 0.8906 0.8906 0.8906 0.8906 0.8906
2061.000000 0.8906 0.8906 0.8905 0.8904 0.8902
2056.000000 0.8901 0.8900 0.8899 0.8898 0.8897
2051.000000 0.8896 0.8895 0.8895 0.8895 0.8894
2046.000000 0.8894 0.8894 0.8894 0.8894 0.8894
2041.000000 0.8894 0.8894 0.8894 0.8894 0.8894
2036.000000 0.8894 0.8894 0.8895 0.8896 0.8897
2031.000000 0.8898 0.8899 0.8899 0.8900 0.8901
2026.000000 0.8902 0.8903 0.8904 0.8904 0.8905
2021.000000 0.8906 0.8907 0.8907 0.8908 0.8908
2016.000000 0.8909 0.8909 0.8910 0.8910 0.8911
2011.000000 0.8911 0.8912 0.8912 0.8912 0.8912
2006.000000 0.8911 0.8907 0.8904 0.8875 0.8846
2001.000000 0.8717 0.8589 0.8460 0.8332 0.8373
1996.000000 0.8578 0.8667 0.8755 0.8809 0.8833
1991.000000 0.8843 0.8837 0.8830 0.8824 0.8818
1986.000000 0.8812 0.8806 0.8800 0.8794 0.8787
1981.000000 0.8781 0.8774 0.8768 0.8761 0.8754
1976.000000 0.8745 0.8735 0.8725 0.8708 0.8691
1971.000000 0.8674 0.8660 0.8650 0.8639 0.8628
1966.000000 0.8618 0.8608 0.8598 0.8624 0.8662
1961.000000 0.8736 0.8863 0.8989 0.9113 0.8981
1956.000000 0.8828 0.8740 0.8781 0.8808 0.8818
1951.000000 0.8828 0.8840 0.8852 0.8863 0.8857
1946.000000 0.8846 0.8838 0.8832 0.8832 0.8833
1941.000000 0.8834 0.8836 0.8837 0.8838 0.8840
1936.000000 0.8840 0.8839 0.8838 0.8837 0.8836
1931.000000 0.8835 0.8834 0.8834 0.8833 0.8833
1926.000000 0.8834 0.8835 0.8836 0.8837 0.8838
1921.000000 0.8839 0.8840 0.8840 0.8840 0.8836
1916.000000 0.8832 0.8828 0.8824 0.8820 0.8816
1911.000000 0.8812 0.8808 0.8804 0.8800 0.8796
1906.000000 0.8791 0.8787 0.8782 0.8778 0.8774
1901.000000 0.8768 0.8766 0.8767 0.8767 0.8768
1896.000000 0.8768 0.8768 0.8768 0.8768 0.8770
1891.000000 0.8770 0.8770 0.8771 0.8771 0.8771
1886.000000 0.8771 0.8771 0.8771 0.8771 0.8771
1881.000000 0.8771 0.8771 0.8771 0.8771 0.8771
1876.000000 0.8773 0.8774 0.8775 0.8775 0.8775
1871.000000 0.8777 0.8773 0.8768 0.8762 0.8756
1866.000000 0.8751 0.8747 0.8744 0.8740 0.8736
1861.000000 0.8734 0.8733 0.8732 0.8732 0.8731
1856.000000 0.8731 0.8732 0.8734 0.8736 0.8738
1851.000000 0.8740 0.8741 0.8743 0.8745 0.8747
1846.000000 0.8752 0.8759 0.8766 0.8771 0.8771
1841.000000 0.8773 0.8771 0.8770 0.8768 0.8768
1836.000000 0.8768 0.8771 0.8775 0.8778 0.8782
1831.000000 0.8786 0.8788 0.8790 0.8792 0.8793
1826.000000 0.8795 0.8795 0.8795 0.8789 0.8784
