##TITLE=1,4-Pentadiene
##JCAMP-DX=4.24
##DATA TYPE=INFRARED SPECTRUM
##CLASS=COBLENTZ
##ORIGIN=DOW CHEMICAL COMPANY
##OWNER=Copyright (C) 1987 by the Coblentz Society
Collection (C) 2018 copyright by the U.S. Secretary of Commerce
on behalf of the United States of America. All rights reserved.
##DATE=1964
##CAS REGISTRY NO=591-93-5
##MOLFORM=C5 H8
##SOURCE REFERENCE=COBLENTZ NO. 8876
##$NIST SOURCE=COBLENTZ
##$NIST IMAGE=cob8876
##SPECTROMETER/DATA SYSTEM=DOW KBr FOREPRISM-GRATING
##INSTRUMENT PARAMETERS=GRATING CHANGED AT 5.0, 7.5, 15.0 MICRON
##STATE=GAS (100 mmHg, N2 ADDED, TOTAL PRESSURE 600 mmHg)
##PATH LENGTH=5 CM
##SAMPLING PROCEDURE=TRANSMISSION
##RESOLUTION=2
##DATA PROCESSING=DIGITIZED BY COBLENTZ SOCIETY (BATCH II) FROM HARD COPY
##XUNITS=1/CM
##YUNITS=TRANSMITTANCE
##XFACTOR=1.0
##YFACTOR=1
##FIRSTX=460
##LASTX=3772
##FIRSTY=0.7931
##MAXX=3772
##MINX=460
##MAXY=0.8743
##MINY=0.0189
##NPOINTS=3313
##XYDATA=(X++(Y..Y))
460.000000 0.7931 0.7946 0.7961 0.7976 0.7997
465.000000 0.8018 0.8040 0.8066 0.8092 0.8112
470.000000 0.8131 0.8151 0.8165 0.8176 0.8185
475.000000 0.8186 0.8188 0.8189 0.8189 0.8189
480.000000 0.8189 0.8201 0.8187 0.8182 0.8178
485.000000 0.8173 0.8168 0.8163 0.8158 0.8152
490.000000 0.8147 0.8140 0.8130 0.8121 0.8112
495.000000 0.8102 0.8094 0.8086 0.8078 0.8069
500.000000 0.8061 0.8053 0.8043 0.8031 0.8018
505.000000 0.8006 0.7994 0.7981 0.7969 0.7955
510.000000 0.7941 0.7927 0.7913 0.7899 0.7884
515.000000 0.7870 0.7850 0.7831 0.7811 0.7792
520.000000 0.7772 0.7743 0.7714 0.7686 0.7657
525.000000 0.7624 0.7586 0.7548 0.7510 0.7472
530.000000 0.7432 0.7390 0.7348 0.7306 0.7264
535.000000 0.7222 0.7180 0.7138 0.7093 0.7040
540.000000 0.6987 0.6935 0.6882 0.6830 0.6777
545.000000 0.6718 0.6659 0.6600 0.6539 0.6469
550.000000 0.6400 0.6327 0.6252 0.6172 0.6114
555.000000 0.6094 0.6100 0.6110 0.6126 0.6151
560.000000 0.6200 0.6242 0.6266 0.6271 0.6272
565.000000 0.6273 0.6279 0.6291 0.6304 0.6334
570.000000 0.6363 0.6388 0.6412 0.6423 0.6408
575.000000 0.6393 0.6362 0.6327 0.6276 0.6214
580.000000 0.6159 0.6097 0.6023 0.6025 0.6029
585.000000 0.6033 0.6037 0.6030 0.6001 0.5939
590.000000 0.5849 0.5754 0.5744 0.5748 0.5742
595.000000 0.5767 0.5781 0.5805 0.5828 0.5853
600.000000 0.5878 0.5906 0.5933 0.5983 0.6039
605.000000 0.6096 0.6152 0.6205 0.6257 0.6376
610.000000 0.6492 0.6605 0.6723 0.6844 0.6873
615.000000 0.6896 0.6911 0.6925 0.6917 0.6913
620.000000 0.6907 0.6896 0.6881 0.6858 0.6834
625.000000 0.6803 0.6771 0.6736 0.6700 0.6665
630.000000 0.6630 0.6597 0.6564 0.6531 0.6498
635.000000 0.6462 0.6424 0.6386 0.6348 0.6305
640.000000 0.6262 0.6219 0.6177 0.6127 0.6072
645.000000 0.6018 0.5963 0.5907 0.5851 0.5796
650.000000 0.5749 0.5703 0.5657 0.5631 0.5609
655.000000 0.5608 0.5611 0.5594 0.5631 0.5646
660.000000 0.5662 0.5686 0.5710 0.5729 0.5746
665.000000 0.5762 0.5785 0.5810 0.5846 0.5888
670.000000 0.5985 0.6027 0.6075 0.6124 0.6180
675.000000 0.6242 0.6293 0.6359 0.6437 0.6514
680.000000 0.6579 0.6636 0.6692 0.6751 0.6811
685.000000 0.6872 0.6924 0.6975 0.7026 0.7076
690.000000 0.7125 0.7173 0.7222 0.7264 0.7304
695.000000 0.7343 0.7383 0.7423 0.7462 0.7502
700.000000 0.7541 0.7580 0.7619 0.7655 0.7690
705.000000 0.7725 0.7761 0.7796 0.7829 0.7861
710.000000 0.7893 0.7925 0.7957 0.7987 0.8010
715.000000 0.8034 0.8057 0.8080 0.8103 0.8123
720.000000 0.8137 0.8151 0.8165 0.8178 0.8192
725.000000 0.8205 0.8214 0.8222 0.8230 0.8239
730.000000 0.8247 0.8256 0.8264 0.8271 0.8274
735.000000 0.8278 0.8281 0.8284 0.8288 0.8291
740.000000 0.8296 0.8304 0.8313 0.8321 0.8330
745.000000 0.8339 0.8347 0.8354 0.8360 0.8367
750.000000 0.8374 0.8380 0.8387 0.8391 0.8396
755.000000 0.8400 0.8404 0.8408 0.8413 0.8417
760.000000 0.8421 0.8426 0.8430 0.8430 0.8429
765.000000 0.8429 0.8428 0.8428 0.8427 0.8427
770.000000 0.8425 0.8424 0.8422 0.8421 0.8420
775.000000 0.8419 0.8418 0.8416 0.8414 0.8412
780.000000 0.8409 0.8407 0.8405 0.8402 0.8400
785.000000 0.8398 0.8391 0.8385 0.8379 0.8372
790.000000 0.8366 0.8360 0.8353 0.8347 0.8341
795.000000 0.8335 0.8328 0.8322 0.8316 0.8307
800.000000 0.8297 0.8287 0.8277 0.8267 0.8257
805.000000 0.8247 0.8237 0.8227 0.8217 0.8207
810.000000 0.8197 0.8182 0.8166 0.8149 0.8133
815.000000 0.8117 0.8101 0.8085 0.8069 0.8052
820.000000 0.8036 0.8020 0.8003 0.7981 0.7960
825.000000 0.7939 0.7917 0.7896 0.7875 0.7854
830.000000 0.7834 0.7815 0.7809 0.7808 0.7808
835.000000 0.7808 0.7808 0.7805 0.7802 0.7798
840.000000 0.7792 0.7784 0.7776 0.7767 0.7756
845.000000 0.7744 0.7732 0.7720 0.7707 0.7693
850.000000 0.7680 0.7661 0.7640 0.7619 0.7597
855.000000 0.7567 0.7532 0.7495 0.7452 0.7410
860.000000 0.7367 0.7302 0.7235 0.7162 0.7077
865.000000 0.6993 0.6896 0.6794 0.6692 0.6580
870.000000 0.6468 0.6379 0.6304 0.6187 0.5947
875.000000 0.5706 0.5466 0.5225 0.4985 0.4745
880.000000 0.4504 0.4264 0.4023 0.3783 0.3542
885.000000 0.3302 0.3062 0.2821 0.2581 0.2301
890.000000 0.2144 0.1976 0.1770 0.1612 0.1457
895.000000 0.1312 0.1167 0.1035 0.0904 0.0696
900.000000 0.0588 0.0482 0.0381 0.0324 0.0284
905.000000 0.0252 0.0231 0.0219 0.0208 0.0205
910.000000 0.0203 0.0200 0.0204 0.0208 0.0189
915.000000 0.0219 0.0227 0.0235 0.0244 0.0253
920.000000 0.0262 0.0271 0.0280 0.0292 0.0306
925.000000 0.0333 0.0365 0.0410 0.0458 0.0514
930.000000 0.0584 0.0671 0.0765 0.0876 0.1028
935.000000 0.1141 0.1380 0.1549 0.1719 0.1890
940.000000 0.2060 0.2231 0.2401 0.2572 0.2742
945.000000 0.2913 0.3083 0.3254 0.3424 0.3595
950.000000 0.3766 0.4001 0.4163 0.4508 0.4621
955.000000 0.4701 0.4745 0.4773 0.4785 0.4789
960.000000 0.4795 0.4776 0.4760 0.4728 0.4669
965.000000 0.4532 0.4381 0.4230 0.4079 0.3928
970.000000 0.3777 0.3626 0.3475 0.3324 0.3173
975.000000 0.3022 0.2870 0.2719 0.2568 0.2417
980.000000 0.2266 0.2115 0.1964 0.1813 0.1662
985.000000 0.1562 0.1510 0.1472 0.1438 0.1400
990.000000 0.1363 0.1330 0.1279 0.1155 0.1067
995.000000 0.1065 0.1078 0.1060 0.1222 0.1296
1000.000000 0.1366 0.1442 0.1510 0.1590 0.1671
1005.000000 0.1731 0.1799 0.1875 0.2026 0.2598
1010.000000 0.2754 0.2940 0.3130 0.3320 0.3510
1015.000000 0.3700 0.3890 0.4080 0.4270 0.4460
1020.000000 0.4650 0.4840 0.5146 0.5286 0.5465
1025.000000 0.5690 0.5901 0.6069 0.6213 0.6379
1030.000000 0.6480 0.6556 0.6611 0.6618 0.6626
1035.000000 0.6622 0.6622 0.6621 0.6620 0.6619
1040.000000 0.6619 0.6616 0.6614 0.6612 0.6610
1045.000000 0.6607 0.6603 0.6598 0.6583 0.6558
1050.000000 0.6540 0.6524 0.6508 0.6502 0.6506
1055.000000 0.6516 0.6519 0.6527 0.6534 0.6562
1060.000000 0.6592 0.6617 0.6642 0.6677 0.6712
1065.000000 0.6745 0.6778 0.6811 0.6851 0.6892
1070.000000 0.6927 0.6954 0.6976 0.6995 0.7024
1075.000000 0.7063 0.7102 0.7141 0.7179 0.7218
1080.000000 0.7257 0.7296 0.7335 0.7374 0.7413
1085.000000 0.7451 0.7491 0.7543 0.7590 0.7631
1090.000000 0.7672 0.7713 0.7731 0.7769 0.7739
1095.000000 0.7737 0.7734 0.7718 0.7702 0.7687
1100.000000 0.7671 0.7655 0.7627 0.7593 0.7559
1105.000000 0.7523 0.7487 0.7450 0.7411 0.7366
1110.000000 0.7333 0.7306 0.7279 0.7255 0.7250
1115.000000 0.7240 0.7239 0.7241 0.7242 0.7244
1120.000000 0.7247 0.7259 0.7273 0.7288 0.7303
1125.000000 0.7317 0.7332 0.7346 0.7371 0.7396
1130.000000 0.7419 0.7442 0.7456 0.7465 0.7475
1135.000000 0.7469 0.7462 0.7454 0.7450 0.7447
1140.000000 0.7444 0.7444 0.7458 0.7481 0.7503
1145.000000 0.7525 0.7546 0.7562 0.7565 0.7571
1150.000000 0.7581 0.7590 0.7603 0.7627 0.7651
1155.000000 0.7689 0.7725 0.7760 0.7795 0.7830
1160.000000 0.7868 0.7906 0.7944 0.7975 0.8005
1165.000000 0.8036 0.8074 0.8113 0.8151 0.8185
1170.000000 0.8216 0.8236 0.8253 0.8263 0.8271
1175.000000 0.8272 0.8274 0.8275 0.8277 0.8278
1180.000000 0.8278 0.8340 0.8312 0.8334 0.8356
1185.000000 0.8350 0.8343 0.8335 0.8328 0.8317
1190.000000 0.8305 0.8294 0.8286 0.8279 0.8271
1195.000000 0.8263 0.8260 0.8259 0.8259 0.8258
1200.000000 0.8257 0.8255 0.8251 0.8241 0.8225
1205.000000 0.8210 0.8194 0.8169 0.8143 0.8117
1210.000000 0.8091 0.8061 0.8029 0.7997 0.7983
1215.000000 0.7975 0.7996 0.7971 0.7972 0.7973
1220.000000 0.7978 0.7984 0.7988 0.7993 0.7997
1225.000000 0.8001 0.8005 0.8009 0.8013 0.8018
1230.000000 0.8024 0.8029 0.8040 0.8058 0.8077
1235.000000 0.8095 0.8124 0.8156 0.8189 0.8231
1240.000000 0.8257 0.8276 0.8264 0.8265 0.8265
1245.000000 0.8264 0.8261 0.8258 0.8249 0.8237
1250.000000 0.8220 0.8202 0.8185 0.8148 0.8098
1255.000000 0.8036 0.7973 0.7910 0.7844 0.7764
1260.000000 0.7685 0.7602 0.7515 0.7329 0.7236
1265.000000 0.7175 0.7114 0.7057 0.7008 0.6959
1270.000000 0.6935 0.6923 0.6926 0.6960 0.6937
1275.000000 0.6942 0.6943 0.6940 0.6936 0.6835
1280.000000 0.6743 0.6648 0.6600 0.6590 0.6617
1285.000000 0.6665 0.6755 0.6900 0.7044 0.7189
1290.000000 0.7290 0.7349 0.7412 0.7467 0.7500
1295.000000 0.7529 0.7549 0.7569 0.7587 0.7598
1300.000000 0.7610 0.7621 0.7631 0.7641 0.7651
1305.000000 0.7661 0.7672 0.7686 0.7701 0.7716
1310.000000 0.7730 0.7743 0.7756 0.7769 0.7786
1315.000000 0.7807 0.7827 0.7858 0.7898 0.7923
1320.000000 0.7948 0.7965 0.7979 0.7988 0.7991
1325.000000 0.7994 0.7997 0.7998 0.7998 0.7998
1330.000000 0.7995 0.7991 0.7988 0.7980 0.7968
1335.000000 0.7956 0.7944 0.7932 0.7916 0.7896
1340.000000 0.7876 0.7856 0.7833 0.7797 0.7762
1345.000000 0.7727 0.7689 0.7646 0.7603 0.7557
1350.000000 0.7504 0.7450 0.7384 0.7313 0.7245
1355.000000 0.7194 0.7143 0.7092 0.7045 0.6999
1360.000000 0.6953 0.6907 0.6862 0.6817 0.6773
1365.000000 0.6732 0.6706 0.6680 0.6655 0.6652
1370.000000 0.6650 0.6648 0.6650 0.6651 0.6652
1375.000000 0.6653 0.6654 0.6655 0.6656 0.6663
1380.000000 0.6673 0.6692 0.6711 0.6729 0.6741
1385.000000 0.6739 0.6773 0.6729 0.6721 0.6696
1390.000000 0.6668 0.6636 0.6602 0.6567 0.6534
1395.000000 0.6498 0.6456 0.6410 0.6353 0.6282
1400.000000 0.6199 0.6122 0.6044 0.5929 0.5813
1405.000000 0.5641 0.5488 0.5390 0.5293 0.5186
1410.000000 0.5065 0.4973 0.4874 0.4760 0.4710
1415.000000 0.4671 0.4643 0.4615 0.4582 0.4542
1420.000000 0.4486 0.4386 0.4097 0.3960 0.3865
1425.000000 0.3788 0.3752 0.3752 0.3752 0.3794
1430.000000 0.3881 0.3964 0.4028 0.4088 0.4051
1435.000000 0.4033 0.3982 0.3967 0.3974 0.3965
1440.000000 0.4463 0.4489 0.4503 0.4520 0.4539
1445.000000 0.4561 0.4596 0.4644 0.4708 0.5243
1450.000000 0.5512 0.5791 0.6046 0.6198 0.6333
1455.000000 0.6466 0.6597 0.6719 0.6824 0.6889
1460.000000 0.6954 0.7019 0.7084 0.7153 0.7226
1465.000000 0.7300 0.7373 0.7442 0.7512 0.7579
1470.000000 0.7620 0.7661 0.7701 0.7741 0.7774
1475.000000 0.7798 0.7821 0.7843 0.7865 0.7888
1480.000000 0.7903 0.7917 0.7931 0.7945 0.7959
1485.000000 0.7970 0.7982 0.7993 0.8004 0.8013
1490.000000 0.8013 0.8014 0.8015 0.8016 0.8016
1495.000000 0.8017 0.8013 0.8010 0.8007 0.8002
1500.000000 0.7996 0.7991 0.7985 0.7979 0.7975
1505.000000 0.7970 0.7965 0.7960 0.7970 0.7981
1510.000000 0.7993 0.8005 0.8017 0.8031 0.8041
1515.000000 0.8047 0.8051 0.8053 0.8055 0.8057
1520.000000 0.8062 0.8067 0.8072 0.8085 0.8095
1525.000000 0.8105 0.8114 0.8139 0.8132 0.8132
1530.000000 0.8132 0.8132 0.8128 0.8123 0.8118
1535.000000 0.8113 0.8108 0.8104 0.8101 0.8097
1540.000000 0.8094 0.8091 0.8088 0.8086 0.8084
1545.000000 0.8082 0.8080 0.8074 0.8066 0.8055
1550.000000 0.8044 0.8032 0.8021 0.8010 0.7998
1555.000000 0.7987 0.7975 0.7963 0.7952 0.7940
1560.000000 0.7931 0.7921 0.7912 0.7902 0.7893
1565.000000 0.7883 0.7874 0.7865 0.7856 0.7847
1570.000000 0.7838 0.7829 0.7820 0.7811 0.7803
1575.000000 0.7794 0.7786 0.7777 0.7769 0.7760
1580.000000 0.7752 0.7747 0.7750 0.7754 0.7762
1585.000000 0.7771 0.7783 0.7791 0.7793 0.7788
1590.000000 0.7780 0.7772 0.7760 0.7748 0.7733
1595.000000 0.7718 0.7700 0.7677 0.7650 0.7617
1600.000000 0.7584 0.7544 0.7496 0.7436 0.7375
1605.000000 0.7304 0.7230 0.7119 0.7018 0.6927
1610.000000 0.6832 0.6725 0.6620 0.6516 0.6413
1615.000000 0.6317 0.6223 0.6126 0.6002 0.5878
1620.000000 0.5738 0.5593 0.5044 0.4608 0.4171
1625.000000 0.3735 0.3298 0.2862 0.2425 0.2194
1630.000000 0.2004 0.1709 0.1564 0.1500 0.1457
1635.000000 0.1436 0.1416 0.1396 0.1379 0.1364
1640.000000 0.1349 0.1336 0.1327 0.1319 0.1314
1645.000000 0.1310 0.1307 0.1314 0.1323 0.1299
1650.000000 0.1388 0.1679 0.1997 0.2315 0.2633
1655.000000 0.2951 0.3269 0.3587 0.3906 0.4224
1660.000000 0.4542 0.4860 0.5178 0.5407 0.5625
1665.000000 0.5915 0.6166 0.6647 0.6815 0.6959
1670.000000 0.7090 0.7218 0.7335 0.7446 0.7544
1675.000000 0.7643 0.7698 0.7752 0.7806 0.7856
1680.000000 0.7906 0.7943 0.7963 0.7984 0.8004
1685.000000 0.8025 0.8045 0.8063 0.8080 0.8097
1690.000000 0.8114 0.8126 0.8135 0.8145 0.8154
1695.000000 0.8158 0.8162 0.8167 0.8171 0.8178
1700.000000 0.8195 0.8218 0.8229 0.8234 0.8240
1705.000000 0.8245 0.8249 0.8252 0.8258 0.8263
1710.000000 0.8269 0.8275 0.8283 0.8291 0.8299
1715.000000 0.8306 0.8310 0.8314 0.8318 0.8321
1720.000000 0.8325 0.8329 0.8333 0.8336 0.8339
1725.000000 0.8340 0.8341 0.8343 0.8344 0.8345
1730.000000 0.8346 0.8346 0.8346 0.8347 0.8366
1735.000000 0.8346 0.8346 0.8345 0.8344 0.8344
1740.000000 0.8342 0.8339 0.8336 0.8333 0.8330
1745.000000 0.8327 0.8325 0.8322 0.8319 0.8316
1750.000000 0.8313 0.8311 0.8308 0.8305 0.8302
1755.000000 0.8299 0.8296 0.8293 0.8290 0.8287
1760.000000 0.8284 0.8282 0.8280 0.8277 0.8275
1765.000000 0.8272 0.8270 0.8267 0.8265 0.8260
1770.000000 0.8256 0.8251 0.8247 0.8242 0.8238
1775.000000 0.8233 0.8228 0.8224 0.8219 0.8214
1780.000000 0.8209 0.8204 0.8199 0.8191 0.8184
1785.000000 0.8177 0.8169 0.8162 0.8152 0.8141
1790.000000 0.8129 0.8118 0.8107 0.8095 0.8081
1795.000000 0.8068 0.8054 0.8041 0.8027 0.8007
1800.000000 0.7986 0.7964 0.7941 0.7905 0.7869
1805.000000 0.7830 0.7789 0.7747 0.7694 0.7640
1810.000000 0.7585 0.7531 0.7449 0.7362 0.7276
1815.000000 0.7099 0.6946 0.6814 0.6715 0.6615
1820.000000 0.6512 0.6409 0.6315 0.6148 0.5882
1825.000000 0.5704 0.5493 0.5348 0.5295 0.5288
1830.000000 0.5292 0.5313 0.5389 0.5466 0.5557
1835.000000 0.5574 0.5529 0.5485 0.5462 0.5459
1840.000000 0.5459 0.5493 0.5533 0.5607 0.5727
1845.000000 0.5944 0.6142 0.6339 0.6537 0.6734
1850.000000 0.6932 0.7134 0.7416 0.7490 0.7563
1855.000000 0.7679 0.7735 0.7792 0.7848 0.7880
1860.000000 0.7911 0.7943 0.7974 0.8004 0.8033
1865.000000 0.8062 0.8087 0.8108 0.8128 0.8149
1870.000000 0.8170 0.8187 0.8204 0.8221 0.8237
1875.000000 0.8249 0.8260 0.8272 0.8279 0.8286
1880.000000 0.8292 0.8299 0.8303 0.8304 0.8306
1885.000000 0.8307 0.8308 0.8310 0.8309 0.8307
1890.000000 0.8306 0.8304 0.8303 0.8303 0.8303
1895.000000 0.8303 0.8303 0.8303 0.8302 0.8301
1900.000000 0.8300 0.8302 0.8304 0.8307 0.8308
1905.000000 0.8308 0.8309 0.8311 0.8315 0.8321
1910.000000 0.8351 0.8333 0.8338 0.8344 0.8350
1915.000000 0.8355 0.8361 0.8367 0.8374 0.8380
1920.000000 0.8387 0.8393 0.8398 0.8403 0.8407
1925.000000 0.8412 0.8417 0.8421 0.8426 0.8430
1930.000000 0.8435 0.8439 0.8441 0.8441 0.8441
1935.000000 0.8441 0.8440 0.8439 0.8438 0.8434
1940.000000 0.8429 0.8424 0.8419 0.8413 0.8407
1945.000000 0.8401 0.8395 0.8388 0.8382 0.8372
1950.000000 0.8361 0.8350 0.8339 0.8328 0.8317
1955.000000 0.8300 0.8282 0.8264 0.8246 0.8228
1960.000000 0.8208 0.8188 0.8167 0.8147 0.8127
1965.000000 0.8106 0.8077 0.8047 0.8018 0.8001
1970.000000 0.7999 0.7990 0.7995 0.7995 0.8002
1975.000000 0.8008 0.8014 0.8022 0.8031 0.8041
1980.000000 0.8051 0.8062 0.8073 0.8085 0.8094
1985.000000 0.8103 0.8115 0.8135 0.8154 0.8178
1990.000000 0.8205 0.8233 0.8259 0.8286 0.8313
1995.000000 0.8329 0.8338 0.8347 0.8356 0.8366
2000.000000 0.8378 0.8390 0.8402 0.8405 0.8409
2005.000000 0.8412 0.8416 0.8420 0.8424 0.8427
2010.000000 0.8431 0.8435 0.8439 0.8442 0.8446
2015.000000 0.8450 0.8454 0.8457 0.8461 0.8462
2020.000000 0.8464 0.8464 0.8465 0.8465 0.8466
2025.000000 0.8466 0.8467 0.8467 0.8468 0.8468
2030.000000 0.8469 0.8469 0.8470 0.8471 0.8472
2035.000000 0.8472 0.8473 0.8473 0.8473 0.8473
2040.000000 0.8474 0.8474 0.8475 0.8475 0.8475
2045.000000 0.8475 0.8476 0.8477 0.8478 0.8479
2050.000000 0.8480 0.8481 0.8482 0.8483 0.8484
2055.000000 0.8485 0.8486 0.8487 0.8489 0.8490
2060.000000 0.8491 0.8492 0.8493 0.8494 0.8495
2065.000000 0.8496 0.8497 0.8498 0.8499 0.8500
2070.000000 0.8502 0.8503 0.8504 0.8504 0.8505
2075.000000 0.8505 0.8506 0.8506 0.8507 0.8508
2080.000000 0.8509 0.8509 0.8510 0.8510 0.8511
2085.000000 0.8511 0.8512 0.8512 0.8513 0.8513
2090.000000 0.8513 0.8513 0.8513 0.8513 0.8513
2095.000000 0.8513 0.8513 0.8513 0.8513 0.8513
2100.000000 0.8514 0.8514 0.8514 0.8514 0.8514
2105.000000 0.8514 0.8514 0.8514 0.8514 0.8514
2110.000000 0.8514 0.8514 0.8514 0.8514 0.8514
2115.000000 0.8514 0.8514 0.8514 0.8514 0.8514
2120.000000 0.8514 0.8514 0.8514 0.8513 0.8513
2125.000000 0.8512 0.8511 0.8510 0.8510 0.8509
2130.000000 0.8508 0.8507 0.8507 0.8506 0.8505
2135.000000 0.8504 0.8504 0.8504 0.8505 0.8505
2140.000000 0.8506 0.8506 0.8507 0.8508 0.8509
2145.000000 0.8509 0.8510 0.8510 0.8511 0.8510
2150.000000 0.8510 0.8508 0.8506 0.8503 0.8501
2155.000000 0.8499 0.8497 0.8495 0.8493 0.8490
2160.000000 0.8488 0.8486 0.8484 0.8481 0.8478
2165.000000 0.8474 0.8471 0.8467 0.8464 0.8460
2170.000000 0.8457 0.8453 0.8450 0.8446 0.8442
2175.000000 0.8438 0.8435 0.8431 0.8428 0.8424
2180.000000 0.8421 0.8417 0.8414 0.8410 0.8407
2185.000000 0.8404 0.8402 0.8403 0.8404 0.8405
2190.000000 0.8406 0.8408 0.8411 0.8414 0.8417
2195.000000 0.8420 0.8423 0.8427 0.8432 0.8436
2200.000000 0.8441 0.8445 0.8449 0.8453 0.8458
2205.000000 0.8462 0.8467 0.8471 0.8476 0.8480
2210.000000 0.8485 0.8489 0.8493 0.8497 0.8502
2215.000000 0.8506 0.8511 0.8514 0.8517 0.8519
2220.000000 0.8521 0.8523 0.8525 0.8527 0.8529
2225.000000 0.8531 0.8533 0.8534 0.8535 0.8535
2230.000000 0.8535 0.8535 0.8535 0.8535 0.8535
2235.000000 0.8534 0.8533 0.8532 0.8531 0.8530
2240.000000 0.8529 0.8528 0.8528 0.8527 0.8526
2245.000000 0.8525 0.8524 0.8523 0.8522 0.8521
2250.000000 0.8520 0.8519 0.8518 0.8517 0.8516
2255.000000 0.8515 0.8514 0.8512 0.8511 0.8510
2260.000000 0.8509 0.8508 0.8508 0.8507 0.8506
2265.000000 0.8505 0.8504 0.8503 0.8502 0.8501
2270.000000 0.8501 0.8500 0.8499 0.8498 0.8497
2275.000000 0.8496 0.8495 0.8494 0.8493 0.8492
2280.000000 0.8492 0.8491 0.8490 0.8489 0.8489
2285.000000 0.8488 0.8488 0.8487 0.8487 0.8486
2290.000000 0.8486 0.8485 0.8485 0.8484 0.8483
2295.000000 0.8482 0.8482 0.8481 0.8481 0.8480
2300.000000 0.8480 0.8481 0.8482 0.8483 0.8484
2305.000000 0.8485 0.8487 0.8488 0.8490 0.8491
2310.000000 0.8492 0.8495 0.8498 0.8501 0.8505
2315.000000 0.8508 0.8511 0.8514 0.8517 0.8520
2320.000000 0.8524 0.8527 0.8530 0.8533 0.8536
2325.000000 0.8539 0.8542 0.8544 0.8547 0.8550
2330.000000 0.8553 0.8556 0.8559 0.8563 0.8567
2335.000000 0.8571 0.8576 0.8580 0.8584 0.8588
2340.000000 0.8592 0.8597 0.8602 0.8606 0.8610
2345.000000 0.8611 0.8612 0.8612 0.8613 0.8613
2350.000000 0.8613 0.8612 0.8611 0.8609 0.8608
2355.000000 0.8607 0.8606 0.8602 0.8599 0.8595
2360.000000 0.8591 0.8587 0.8584 0.8580 0.8577
2365.000000 0.8574 0.8571 0.8568 0.8565 0.8561
2370.000000 0.8558 0.8555 0.8552 0.8549 0.8546
2375.000000 0.8543 0.8540 0.8537 0.8564 0.8534
2380.000000 0.8534 0.8534 0.8534 0.8534 0.8534
2385.000000 0.8534 0.8535 0.8536 0.8538 0.8539
2390.000000 0.8541 0.8543 0.8545 0.8546 0.8548
2395.000000 0.8549 0.8551 0.8552 0.8554 0.8556
2400.000000 0.8558 0.8560 0.8563 0.8565 0.8568
2405.000000 0.8570 0.8573 0.8573 0.8573 0.8573
2410.000000 0.8573 0.8573 0.8574 0.8574 0.8574
2415.000000 0.8574 0.8574 0.8574 0.8574 0.8574
2420.000000 0.8574 0.8573 0.8573 0.8573 0.8573
2425.000000 0.8572 0.8572 0.8572 0.8572 0.8571
2430.000000 0.8571 0.8571 0.8571 0.8571 0.8571
2435.000000 0.8571 0.8571 0.8571 0.8571 0.8571
2440.000000 0.8571 0.8573 0.8575 0.8579 0.8583
2445.000000 0.8586 0.8590 0.8594 0.8598 0.8600
2450.000000 0.8602 0.8602 0.8602 0.8602 0.8602
2455.000000 0.8602 0.8603 0.8603 0.8603 0.8600
2460.000000 0.8598 0.8596 0.8594 0.8591 0.8589
2465.000000 0.8587 0.8585 0.8582 0.8580 0.8578
2470.000000 0.8576 0.8574 0.8573 0.8571 0.8569
2475.000000 0.8567 0.8565 0.8563 0.8561 0.8559
2480.000000 0.8558 0.8556 0.8554 0.8552 0.8550
2485.000000 0.8548 0.8546 0.8544 0.8542 0.8540
2490.000000 0.8538 0.8536 0.8534 0.8532 0.8530
