##TITLE=1,5-HEXADIENE
##JCAMP-DX=4.24
##DATA TYPE=INFRARED SPECTRUM
##CLASS=COBLENTZ III
##ORIGIN=DOW CHEMICAL COMPANY
##OWNER=COBLENTZ SOC.
Collection (C) 2018 copyright by the U.S. Secretary of Commerce
on behalf of the United States of America. All rights reserved.
##DATE=1967/08/25
##CAS REGISTRY NO=592-42-7
##MOLFORM=C6 H10
##SOURCE REFERENCE=COBLENTZ NO. 06559
##$NIST SOURCE=COBLENTZ
##$NIST IMAGE=cob6559
##SPECTROMETER/DATA SYSTEM=DOW KBr FOREPRISM-GRATING
##INSTRUMENT PARAMETERS=BLAZED AT 3.5, 12.0, 20.0 MICRON AND CHANGED AT 5.0, 7.5, 14.9 MICRON
##STATE=SOLUTION (10% CCl4 FOR 3800-1340, 10% CS2 FOR 1340-400 CM^-^1)
##PATH LENGTH=0.011 CM, 0.010 CM
$$SPECTRAL CONTAMINATIONS DUE TO CS2 AROUND 860, CCl4 AROUND 1550, AND AN UNKNOWN AROUND 400 CM^-^1
##SAMPLING PROCEDURE=TRANSMISSION
##RESOLUTION=2
##DATA PROCESSING=DIGITIZED BY COBLENTZ SOCIETY (BATCH I) FROM HARD COPY
##XUNITS=1/CM
##YUNITS=TRANSMITTANCE
##XLABEL=Wavenumbers (cm-1)
##YLABEL=% Transmission
##XFACTOR=1
##YFACTOR=1
##DELTAX=1
##FIRSTX=388
##LASTX=3800
##FIRSTY=0.2951
##MAXX=3800
##MINX=388
##MAXY=0.8945
##MINY=0.0008
##NPOINTS=3413
##XYDATA=(X++(Y..Y))
388.000000 0.2951 0.2987 0.3026 0.3066 0.3111
393.000000 0.3165 0.3218 0.3271 0.3323 0.3379
398.000000 0.3436 0.3507 0.3578 0.3689 0.3824
403.000000 0.4041 0.4284 0.4528 0.4771 0.5014
408.000000 0.5257 0.5666 0.5838 0.6077 0.6491
413.000000 0.6718 0.6848 0.6938 0.7005 0.7053
418.000000 0.7100 0.7147 0.7193 0.7239 0.7284
423.000000 0.7328 0.7365 0.7404 0.7442 0.7480
428.000000 0.7518 0.7556 0.7595 0.7642 0.7690
433.000000 0.7737 0.7785 0.7819 0.7853 0.7886
438.000000 0.7918 0.7951 0.7984 0.8017 0.8051
443.000000 0.8085 0.8118 0.8151 0.8180 0.8209
448.000000 0.8238 0.8268 0.8297 0.8321 0.8346
453.000000 0.8371 0.8395 0.8420 0.8444 0.8475
458.000000 0.8508 0.8540 0.8573 0.8605 0.8634
463.000000 0.8662 0.8691 0.8718 0.8740 0.8760
468.000000 0.8778 0.8799 0.8818 0.8828 0.8839
473.000000 0.8849 0.8859 0.8868 0.8878 0.8889
478.000000 0.8896 0.8901 0.8906 0.8912 0.8917
483.000000 0.8921 0.8928 0.8930 0.8932 0.8934
488.000000 0.8936 0.8938 0.8940 0.8942 0.8945
493.000000 0.8945 0.8945 0.8944 0.8944 0.8944
498.000000 0.8945 0.8942 0.8940 0.8937 0.8935
503.000000 0.8932 0.8928 0.8927 0.8924 0.8921
508.000000 0.8918 0.8912 0.8907 0.8902 0.8897
513.000000 0.8892 0.8884 0.8871 0.8861 0.8850
518.000000 0.8838 0.8827 0.8813 0.8797 0.8781
523.000000 0.8765 0.8749 0.8734 0.8716 0.8695
528.000000 0.8673 0.8651 0.8630 0.8608 0.8587
533.000000 0.8554 0.8521 0.8487 0.8454 0.8421
538.000000 0.8387 0.8328 0.8271 0.8213 0.8154
543.000000 0.8103 0.8053 0.8004 0.7955 0.7880
548.000000 0.7751 0.7664 0.7583 0.7491 0.7421
553.000000 0.7458 0.7425 0.7430 0.7438 0.7475
558.000000 0.7524 0.7597 0.7721 0.7885 0.8001
563.000000 0.8091 0.8164 0.8235 0.8297 0.8359
568.000000 0.8408 0.8442 0.8447 0.8446 0.8425
573.000000 0.8441 0.8438 0.8431 0.8424 0.8413
578.000000 0.8401 0.8388 0.8375 0.8363 0.8343
583.000000 0.8321 0.8302 0.8281 0.8260 0.8239
588.000000 0.8218 0.8196 0.8158 0.8121 0.8085
593.000000 0.8045 0.8003 0.7961 0.7919 0.7878
598.000000 0.7822 0.7748 0.7672 0.7598 0.7524
603.000000 0.7458 0.7395 0.7330 0.7265 0.7207
608.000000 0.7148 0.7089 0.7047 0.7005 0.6974
613.000000 0.6955 0.6936 0.6919 0.6908 0.6897
618.000000 0.6885 0.6872 0.6861 0.6850 0.6839
623.000000 0.6831 0.6822 0.6815 0.6808 0.6800
628.000000 0.6768 0.6711 0.6624 0.6540 0.6485
633.000000 0.6431 0.6376 0.6322 0.6243 0.6162
638.000000 0.6080 0.5985 0.5884 0.5778 0.5692
643.000000 0.5693 0.5704 0.5718 0.5743 0.5777
648.000000 0.5816 0.5869 0.5944 0.6019 0.6094
653.000000 0.6168 0.6243 0.6318 0.6393 0.6465
658.000000 0.6525 0.6575 0.6614 0.6621 0.6621
663.000000 0.6621 0.6619 0.6619 0.6832 0.6918
668.000000 0.6940 0.6941 0.6941 0.6968 0.7067
673.000000 0.7142 0.7191 0.7238 0.7284 0.7321
678.000000 0.7355 0.7388 0.7421 0.7445 0.7465
683.000000 0.7487 0.7508 0.7528 0.7550 0.7583
688.000000 0.7619 0.7658 0.7715 0.7765 0.7803
693.000000 0.7841 0.7864 0.7887 0.7908 0.7925
698.000000 0.7941 0.7957 0.7972 0.7989 0.8003
703.000000 0.8015 0.8028 0.8042 0.8055 0.8068
708.000000 0.8078 0.8086 0.8094 0.8101 0.8110
713.000000 0.8118 0.8125 0.8134 0.8139 0.8142
718.000000 0.8145 0.8148 0.8151 0.8154 0.8157
723.000000 0.8161 0.8162 0.8164 0.8165 0.8168
728.000000 0.8169 0.8171 0.8172 0.8175 0.8178
733.000000 0.8183 0.8189 0.8194 0.8201 0.8208
738.000000 0.8215 0.8221 0.8228 0.8232 0.8234
743.000000 0.8233 0.8233 0.8228 0.8224 0.8218
748.000000 0.8215 0.8211 0.8207 0.8203 0.8199
753.000000 0.8195 0.8192 0.8188 0.8184 0.8180
758.000000 0.8175 0.8168 0.8160 0.8151 0.8144
763.000000 0.8135 0.8122 0.8111 0.8099 0.8086
768.000000 0.8071 0.8051 0.8031 0.7999 0.7965
773.000000 0.7930 0.7911 0.7893 0.7884 0.7884
778.000000 0.7885 0.7897 0.7912 0.7928 0.7958
783.000000 0.7989 0.8019 0.8041 0.8051 0.8051
788.000000 0.8048 0.8044 0.8039 0.8033 0.8026
793.000000 0.8021 0.8015 0.8008 0.8001 0.7994
798.000000 0.7987 0.7980 0.7972 0.7965 0.7958
803.000000 0.7951 0.7946 0.7939 0.7932 0.7925
808.000000 0.7918 0.7912 0.7906 0.7900 0.7894
813.000000 0.7888 0.7881 0.7875 0.7868 0.7862
818.000000 0.7856 0.7848 0.7840 0.7832 0.7825
823.000000 0.7814 0.7796 0.7778 0.7760 0.7735
828.000000 0.7701 0.7668 0.7619 0.7611 0.7603
833.000000 0.7594 0.7586 0.7578 0.7575 0.7572
838.000000 0.7569 0.7565 0.7561 0.7554 0.7541
843.000000 0.7492 0.7414 0.7321 0.7221 0.7142
848.000000 0.7075 0.7008 0.6933 0.6856 0.6775
853.000000 0.6687 0.6599 0.6528 0.6465 0.6419
858.000000 0.6387 0.6359 0.6359 0.6374 0.6362
863.000000 0.6369 0.6384 0.6407 0.6426 0.6440
868.000000 0.6442 0.6436 0.6436 0.6432 0.6424
873.000000 0.6412 0.6403 0.6387 0.6369 0.6344
878.000000 0.6312 0.6268 0.6222 0.6175 0.6127
883.000000 0.6079 0.6024 0.5965 0.5907 0.5840
888.000000 0.5758 0.5672 0.5551 0.5430 0.5318
893.000000 0.5207 0.5095 0.4959 0.4817 0.4620
898.000000 0.3945 0.3524 0.3103 0.2681 0.2293
903.000000 0.1571 0.1376 0.0559 0.0410 0.0271
908.000000 0.0137 0.0032 0.0034 0.0040 0.0040
913.000000 0.0037 0.0008 0.0015 0.0011 0.0187
918.000000 0.0568 0.0949 0.1330 0.1710 0.2091
923.000000 0.2472 0.2853 0.3147 0.3295 0.3441
928.000000 0.3548 0.3655 0.4064 0.4252 0.4435
933.000000 0.4680 0.4960 0.5400 0.5498 0.5595
938.000000 0.5693 0.5792 0.5892 0.5970 0.6043
943.000000 0.6098 0.6140 0.6180 0.6210 0.6240
948.000000 0.6270 0.6301 0.6332 0.6362 0.6394
953.000000 0.6425 0.6447 0.6469 0.6484 0.6490
958.000000 0.6491 0.6491 0.6475 0.6478 0.6464
963.000000 0.6442 0.6424 0.6407 0.6384 0.6358
968.000000 0.6326 0.6283 0.6241 0.6201 0.6152
973.000000 0.6101 0.6035 0.5927 0.5839 0.5753
978.000000 0.5668 0.5494 0.4768 0.4288 0.3808
983.000000 0.3327 0.2847 0.2366 0.1885 0.1406
988.000000 0.0925 0.0513 0.0516 0.0517 0.0543
993.000000 0.0702 0.1046 0.1392 0.1737 0.2083
998.000000 0.2428 0.2774 0.3119 0.3464 0.3809
1003.000000 0.4114 0.4534 0.4901 0.5192 0.5479
1008.000000 0.5686 0.5809 0.5923 0.6023 0.6162
1013.000000 0.6308 0.6399 0.6449 0.6499 0.6543
1018.000000 0.6584 0.6625 0.6667 0.6705 0.6743
1023.000000 0.6781 0.6818 0.6860 0.6928 0.6995
1028.000000 0.7055 0.7103 0.7134 0.7148 0.7161
1033.000000 0.7175 0.7190 0.7207 0.7225 0.7243
1038.000000 0.7261 0.7278 0.7297 0.7315 0.7332
1043.000000 0.7350 0.7368 0.7386 0.7408 0.7437
1048.000000 0.7465 0.7494 0.7515 0.7533 0.7551
1053.000000 0.7551 0.7547 0.7542 0.7536 0.7530
1058.000000 0.7525 0.7515 0.7503 0.7489 0.7475
1063.000000 0.7455 0.7430 0.7400 0.7368 0.7364
1068.000000 0.7364 0.7357 0.7375 0.7390 0.7410
1073.000000 0.7437 0.7465 0.7494 0.7521 0.7553
1078.000000 0.7586 0.7608 0.7621 0.7631 0.7634
1083.000000 0.7637 0.7640 0.7642 0.7642 0.7643
1088.000000 0.7643 0.7644 0.7644 0.7645 0.7647
1093.000000 0.7656 0.7650 0.7651 0.7653 0.7654
1098.000000 0.7654 0.7653 0.7653 0.7651 0.7651
1103.000000 0.7651 0.7650 0.7641 0.7631 0.7621
1108.000000 0.7611 0.7601 0.7591 0.7580 0.7569
1113.000000 0.7560 0.7549 0.7539 0.7528 0.7522
1118.000000 0.7521 0.7521 0.7519 0.7519 0.7519
1123.000000 0.7526 0.7533 0.7541 0.7554 0.7567
1128.000000 0.7580 0.7593 0.7608 0.7626 0.7644
1133.000000 0.7660 0.7676 0.7693 0.7711 0.7728
1138.000000 0.7746 0.7764 0.7782 0.7800 0.7817
1143.000000 0.7835 0.7853 0.7869 0.7889 0.7901
1148.000000 0.7914 0.7925 0.7938 0.7951 0.7964
1153.000000 0.7976 0.7988 0.7999 0.8010 0.8018
1158.000000 0.8028 0.8036 0.8040 0.8041 0.8041
1163.000000 0.8040 0.8040 0.8038 0.8036 0.8028
1168.000000 0.8022 0.8015 0.8008 0.8001 0.7996
1173.000000 0.7989 0.7981 0.7974 0.7967 0.7960
1178.000000 0.7950 0.7940 0.7930 0.7912 0.7911
1183.000000 0.7910 0.7915 0.7925 0.7934 0.7943
1188.000000 0.7982 0.7948 0.7946 0.7945 0.7941
1193.000000 0.7934 0.7928 0.7921 0.7915 0.7901
1198.000000 0.7888 0.7872 0.7858 0.7839 0.7818
1203.000000 0.7799 0.7780 0.7760 0.7741 0.7698
1208.000000 0.7718 0.7718 0.7721 0.7725 0.7728
1213.000000 0.7736 0.7745 0.7756 0.7775 0.7799
1218.000000 0.7830 0.7860 0.7890 0.7910 0.7924
1223.000000 0.7930 0.7919 0.7908 0.7896 0.7883
1228.000000 0.7868 0.7853 0.7838 0.7819 0.7801
1233.000000 0.7782 0.7758 0.7735 0.7711 0.7689
1238.000000 0.7658 0.7625 0.7591 0.7533 0.7543
1243.000000 0.7540 0.7545 0.7565 0.7594 0.7618
1248.000000 0.7641 0.7665 0.7708 0.7738 0.7765
1253.000000 0.7781 0.7790 0.7790 0.7789 0.7788
1258.000000 0.7787 0.7786 0.7785 0.7783 0.7782
1263.000000 0.7780 0.7775 0.7768 0.7762 0.7757
1268.000000 0.7750 0.7738 0.7725 0.7711 0.7695
1273.000000 0.7672 0.7651 0.7633 0.7615 0.7597
1278.000000 0.7578 0.7561 0.7540 0.7515 0.7490
1283.000000 0.7465 0.7438 0.7401 0.7364 0.7326
1288.000000 0.7281 0.7234 0.7171 0.7099 0.7021
1293.000000 0.7012 0.7042 0.7017 0.7018 0.7021
1298.000000 0.7024 0.7028 0.7064 0.7111 0.7161
1303.000000 0.7191 0.7218 0.7245 0.7262 0.7281
1308.000000 0.7295 0.7307 0.7317 0.7321 0.7325
1313.000000 0.7343 0.7332 0.7330 0.7328 0.7318
1318.000000 0.7298 0.7265 0.7217 0.7121 0.7107
1323.000000 0.7106 0.7106 0.7103 0.7121 0.7153
1328.000000 0.7188 0.7230 0.7275 0.7319 0.7364
1333.000000 0.7411 0.7461 0.7506 0.7775 0.8197
1338.000000 0.8224 0.8236 0.8247 0.8251 0.8252
1343.000000 0.8254 0.8257 0.8259 0.8261 0.8264
1348.000000 0.8267 0.8271 0.8274 0.8278 0.8281
1353.000000 0.8285 0.8288 0.8290 0.8291 0.8293
1358.000000 0.8294 0.8297 0.8299 0.8301 0.8303
1363.000000 0.8304 0.8305 0.8306 0.8307 0.8307
1368.000000 0.8307 0.8306 0.8305 0.8304 0.8303
1373.000000 0.8301 0.8297 0.8294 0.8290 0.8287
1378.000000 0.8282 0.8268 0.8256 0.8234 0.8211
1383.000000 0.8188 0.8162 0.8141 0.8151 0.8165
1388.000000 0.8189 0.8212 0.8218 0.8217 0.8212
1393.000000 0.8196 0.8178 0.8161 0.8143 0.8112
1398.000000 0.8083 0.8054 0.8025 0.7996 0.7958
1403.000000 0.7912 0.7864 0.7803 0.7742 0.7676
1408.000000 0.7594 0.7511 0.7388 0.7238 0.7101
1413.000000 0.6893 0.6624 0.6355 0.6085 0.5816
1418.000000 0.5547 0.5277 0.5008 0.4818 0.4768
1423.000000 0.4768 0.5165 0.5565 0.5965 0.6065
1428.000000 0.6085 0.6079 0.6068 0.5883 0.5675
1433.000000 0.5468 0.5260 0.5053 0.4846 0.4638
1438.000000 0.4431 0.4224 0.4016 0.3809 0.3662
1443.000000 0.3662 0.3662 0.3743 0.3862 0.3982
1448.000000 0.4103 0.4214 0.4204 0.4199 0.4196
1453.000000 0.4197 0.4239 0.4519 0.4800 0.5081
1458.000000 0.5360 0.5642 0.5922 0.6273 0.6436
1463.000000 0.7080 0.7183 0.7261 0.7336 0.7397
1468.000000 0.7458 0.7515 0.7568 0.7621 0.7676
1473.000000 0.7733 0.7781 0.7811 0.7844 0.7869
1478.000000 0.7886 0.7912 0.7911 0.7915 0.7915
1483.000000 0.7914 0.7911 0.7903 0.7896 0.7888
1488.000000 0.7875 0.7861 0.7848 0.7825 0.7805
1493.000000 0.7782 0.7758 0.7734 0.7708 0.7678
1498.000000 0.7649 0.7618 0.7584 0.7547 0.7508
1503.000000 0.7471 0.7435 0.7390 0.7344 0.7298
1508.000000 0.7253 0.7207 0.7161 0.7111 0.7062
1513.000000 0.7015 0.6965 0.6917 0.6868 0.6819
1518.000000 0.6755 0.6689 0.6622 0.6558 0.6500
1523.000000 0.6441 0.6383 0.6324 0.6262 0.6200
1528.000000 0.6138 0.6076 0.6017 0.5972 0.5928
1533.000000 0.5884 0.5839 0.5795 0.5751 0.5706
1538.000000 0.5651 0.5565 0.5480 0.5394 0.5289
1543.000000 0.5183 0.5078 0.4967 0.4856 0.4749
1548.000000 0.4657 0.4565 0.4499 0.4473 0.4473
1553.000000 0.4473 0.4483 0.4502 0.4538 0.4580
1558.000000 0.4627 0.4678 0.4754 0.4843 0.4936
1563.000000 0.5028 0.5120 0.5212 0.5306 0.5409
1568.000000 0.5547 0.5672 0.5751 0.5830 0.5870
1573.000000 0.5908 0.5943 0.5969 0.5995 0.6021
1578.000000 0.6042 0.6059 0.6077 0.6094 0.6109
1583.000000 0.6116 0.6124 0.6131 0.6147 0.6205
1588.000000 0.6260 0.6318 0.6382 0.6446 0.6510
1593.000000 0.6580 0.6651 0.6725 0.6798 0.6871
1598.000000 0.6948 0.7024 0.7100 0.7175 0.7261
1603.000000 0.7365 0.7451 0.7493 0.7531 0.7537
1608.000000 0.7535 0.7549 0.7542 0.7531 0.7522
1613.000000 0.7515 0.7508 0.7500 0.7491 0.7483
1618.000000 0.7478 0.7474 0.7469 0.7465 0.7460
1623.000000 0.7451 0.7441 0.7421 0.7390 0.7332
1628.000000 0.7267 0.7198 0.7130 0.7018 0.6622
1633.000000 0.6094 0.5565 0.5035 0.4506 0.3977
1638.000000 0.3448 0.2919 0.2389 0.1860 0.1331
1643.000000 0.1007 0.1001 0.1034 0.1620 0.2451
1648.000000 0.3282 0.4112 0.4944 0.5775 0.6689
1653.000000 0.6835 0.6976 0.7067 0.7157 0.7246
1658.000000 0.7331 0.7405 0.7478 0.7553 0.7617
1663.000000 0.7671 0.7726 0.7781 0.7836 0.7886
1668.000000 0.7937 0.7987 0.8021 0.8055 0.8089
1673.000000 0.8122 0.8157 0.8191 0.8236 0.8289
1678.000000 0.8342 0.8378 0.8401 0.8423 0.8445
1683.000000 0.8465 0.8481 0.8496 0.8512 0.8528
1688.000000 0.8543 0.8558 0.8573 0.8587 0.8602
1693.000000 0.8617 0.8630 0.8639 0.8648 0.8657
1698.000000 0.8666 0.8675 0.8684 0.8693 0.8698
1703.000000 0.8700 0.8702 0.8704 0.8706 0.8708
1708.000000 0.8710 0.8712 0.8714 0.8716 0.8717
1713.000000 0.8718 0.8718 0.8720 0.8721 0.8723
1718.000000 0.8724 0.8725 0.8725 0.8725 0.8725
1723.000000 0.8725 0.8724 0.8724 0.8723 0.8721
1728.000000 0.8721 0.8721 0.8721 0.8720 0.8718
1733.000000 0.8718 0.8718 0.8718 0.8717 0.8717
1738.000000 0.8716 0.8716 0.8715 0.8715 0.8714
1743.000000 0.8714 0.8714 0.8713 0.8713 0.8712
1748.000000 0.8712 0.8711 0.8711 0.8710 0.8710
1753.000000 0.8709 0.8708 0.8708 0.8707 0.8706
1758.000000 0.8706 0.8705 0.8704 0.8704 0.8703
1763.000000 0.8702 0.8702 0.8701 0.8700 0.8699
1768.000000 0.8698 0.8694 0.8691 0.8687 0.8683
1773.000000 0.8680 0.8675 0.8673 0.8668 0.8665
1778.000000 0.8662 0.8658 0.8655 0.8651 0.8648
1783.000000 0.8640 0.8632 0.8624 0.8616 0.8608
1788.000000 0.8600 0.8589 0.8571 0.8554 0.8536
1793.000000 0.8518 0.8501 0.8484 0.8466 0.8439
1798.000000 0.8411 0.8383 0.8355 0.8327 0.8293
1803.000000 0.8257 0.8221 0.8187 0.8151 0.8115
1808.000000 0.8074 0.8021 0.7968 0.7915 0.7812
1813.000000 0.7696 0.7588 0.7484 0.7381 0.7297
1818.000000 0.7225 0.7155 0.7084 0.7012 0.6925
1823.000000 0.6830 0.6733 0.6638 0.6562 0.6547
1828.000000 0.6546 0.6545 0.6535 0.6598 0.6726
1833.000000 0.6846 0.6964 0.7083 0.7201 0.7319
1838.000000 0.7439 0.7558 0.7675 0.7771 0.7830
1843.000000 0.7893 0.7946 0.7995 0.8032 0.8068
1848.000000 0.8111 0.8154 0.8194 0.8233 0.8271
1853.000000 0.8300 0.8320 0.8340 0.8360 0.8378
1858.000000 0.8395 0.8411 0.8425 0.8442 0.8458
1863.000000 0.8474 0.8489 0.8503 0.8515 0.8527
1868.000000 0.8539 0.8548 0.8555 0.8562 0.8568
1873.000000 0.8575 0.8578 0.8581 0.8584 0.8587
1878.000000 0.8589 0.8589 0.8589 0.8590 0.8590
1883.000000 0.8591 0.8592 0.8593 0.8594 0.8595
1888.000000 0.8596 0.8597 0.8597 0.8598 0.8598
1893.000000 0.8599 0.8599 0.8599 0.8599 0.8598
1898.000000 0.8597 0.8596 0.8595 0.8594 0.8593
1903.000000 0.8593 0.8597 0.8601 0.8605 0.8609
1908.000000 0.8612 0.8616 0.8621 0.8627 0.8633
1913.000000 0.8638 0.8644 0.8659 0.8659 0.8659
1918.000000 0.8662 0.8665 0.8668 0.8671 0.8675
1923.000000 0.8678 0.8681 0.8684 0.8684 0.8684
1928.000000 0.8682 0.8681 0.8680 0.8678 0.8677
1933.000000 0.8675 0.8675 0.8674 0.8673 0.8671
1938.000000 0.8670 0.8668 0.8668 0.8666 0.8665
1943.000000 0.8664 0.8662 0.8661 0.8660 0.8658
1948.000000 0.8657 0.8656 0.8650 0.8643 0.8636
1953.000000 0.8628 0.8621 0.8615 0.8607 0.8599
1958.000000 0.8591 0.8583 0.8575 0.8567 0.8559
1963.000000 0.8549 0.8536 0.8523 0.8510 0.8497
1968.000000 0.8483 0.8470 0.8457 0.8440 0.8421
1973.000000 0.8403 0.8385 0.8367 0.8345 0.8321
1978.000000 0.8300 0.8288 0.8306 0.8278 0.8275
1983.000000 0.8284 0.8305 0.8335 0.8359 0.8382
1988.000000 0.8405 0.8430 0.8449 0.8466 0.8482
1993.000000 0.8497 0.8511 0.8521 0.8527 0.8534
1998.000000 0.8539 0.8544 0.8549 0.8552 0.8555
2003.000000 0.8556 0.8557 0.8558 0.8559 0.8560
2008.000000 0.8561 0.8562 0.8562 0.8562 0.8561
2013.000000 0.8560 0.8560 0.8559 0.8559 0.8558
2018.000000 0.8558 0.8557 0.8557 0.8556 0.8555
2023.000000 0.8554 0.8554 0.8553 0.8553 0.8552
2028.000000 0.8552 0.8551 0.8551 0.8550 0.8550
2033.000000 0.8549 0.8549 0.8548 0.8547 0.8546
2038.000000 0.8546 0.8545 0.8544 0.8543 0.8543
2043.000000 0.8542 0.8541 0.8541 0.8541 0.8541
2048.000000 0.8541 0.8541 0.8542 0.8542 0.8542
2053.000000 0.8544 0.8547 0.8555 0.8564 0.8573
2058.000000 0.8582 0.8590 0.8599 0.8608 0.8617
2063.000000 0.8618 0.8620 0.8621 0.8621 0.8621
2068.000000 0.8623 0.8623 0.8624 0.8624 0.8625
2073.000000 0.8625 0.8625 0.8625 0.8627 0.8627
2078.000000 0.8628 0.8628 0.8628 0.8628 0.8628
2083.000000 0.8628 0.8628 0.8628 0.8628 0.8628
2088.000000 0.8628 0.8628 0.8628 0.8628 0.8628
2093.000000 0.8628 0.8628 0.8628 0.8628 0.8627
2098.000000 0.8627 0.8625 0.8625 0.8625 0.8625
2103.000000 0.8624 0.8624 0.8623 0.8623 0.8621
2108.000000 0.8621 0.8621 0.8621 0.8620 0.8620
2113.000000 0.8618 0.8618 0.8618 0.8618 0.8617
2118.000000 0.8617 0.8616 0.8616 0.8616 0.8616
2123.000000 0.8617 0.8618 0.8618 0.8618 0.8618
2128.000000 0.8620 0.8621 0.8621 0.8621 0.8623
2133.000000 0.8623 0.8624 0.8625 0.8625 0.8625
2138.000000 0.8625 0.8625 0.8624 0.8623 0.8623
2143.000000 0.8621 0.8621 0.8621 0.8621 0.8620
2148.000000 0.8620 0.8618 0.8618 0.8617 0.8616
2153.000000 0.8615 0.8614 0.8612 0.8611 0.8610
2158.000000 0.8609 0.8607 0.8606 0.8604 0.8603
2163.000000 0.8602 0.8601 0.8599 0.8598 0.8597
2168.000000 0.8596 0.8594 0.8593 0.8591 0.8590
2173.000000 0.8589 0.8588 0.8586 0.8585 0.8584
2178.000000 0.8583 0.8581 0.8580 0.8578 0.8578
2183.000000 0.8575 0.8574 0.8571 0.8570 0.8568
2188.000000 0.8566 0.8564 0.8562 0.8560 0.8558
2193.000000 0.8556 0.8554 0.8552 0.8550 0.8548
2198.000000 0.8547 0.8545 0.8543 0.8541 0.8539
2203.000000 0.8537 0.8535 0.8533 0.8531 0.8528
2208.000000 0.8527 0.8525 0.8523 0.8520 0.8517
2213.000000 0.8514 0.8512 0.8509 0.8507 0.8504
2218.000000 0.8502 0.8499 0.8496 0.8493 0.8491
2223.000000 0.8488 0.8486 0.8483 0.8481 0.8478
2228.000000 0.8475 0.8473 0.8470 0.8467 0.8465
2233.000000 0.8462 0.8460 0.8457 0.8455 0.8452
2238.000000 0.8449 0.8446 0.8444 0.8441 0.8439
2243.000000 0.8436 0.8434 0.8431 0.8428 0.8425
2248.000000 0.8424 0.8421 0.8418 0.8416 0.8414
2253.000000 0.8411 0.8409 0.8406 0.8404 0.8401
2258.000000 0.8399 0.8396 0.8394 0.8391 0.8389
2263.000000 0.8386 0.8384 0.8381 0.8378 0.8375
2268.000000 0.8374 0.8371 0.8368 0.8366 0.8364
2273.000000 0.8361 0.8359 0.8356 0.8353 0.8350
2278.000000 0.8348 0.8345 0.8343 0.8341 0.8340
2283.000000 0.8341 0.8341 0.8342 0.8343 0.8347
2288.000000 0.8351 0.8356 0.8361 0.8365 0.8370
2293.000000 0.8374 0.8378 0.8386 0.8394 0.8402
2298.000000 0.8410 0.8418 0.8425 0.8433 0.8441
2303.000000 0.8448 0.8456 0.8463 0.8471 0.8478
2308.000000 0.8487 0.8499 0.8511 0.8523 0.8535
2313.000000 0.8549 0.8563 0.8578 0.8593 0.8601
2318.000000 0.8610 0.8618 0.8627 0.8631 0.8635
2323.000000 0.8636 0.8638 0.8639 0.8641 0.8642
2328.000000 0.8644 0.8645 0.8646 0.8646 0.8646
2333.000000 0.8646 0.8646 0.8646 0.8646 0.8645
2338.000000 0.8645 0.8644 0.8644 0.8643 0.8643
2343.000000 0.8642 0.8642 0.8641 0.8640 0.8639
2348.000000 0.8638 0.8636 0.8635 0.8634 0.8633
2353.000000 0.8631 0.8630 0.8628 0.8627 0.8625
2358.000000 0.8624 0.8621 0.8620 0.8618 0.8616
2363.000000 0.8614 0.8613 0.8611 0.8609 0.8605
2368.000000 0.8601 0.8596 0.8592 0.8587 0.8583
2373.000000 0.8578 0.8575 0.8571 0.8567 0.8563
2378.000000 0.8559 0.8555 0.8552 0.8549 0.8546
2383.000000 0.8543 0.8540 0.8537 0.8534 0.8531
2388.000000 0.8528 0.8525 0.8521 0.8520 0.8518
2393.000000 0.8517 0.8516 0.8514 0.8513 0.8511
2398.000000 0.8510 0.8508 0.8507 0.8505 0.8504
