##TITLE=1,3-CYCLOHEXADIENE
##JCAMP-DX=4.24
##DATA TYPE=INFRARED SPECTRUM
##CLASS=COBLENTZ
##ORIGIN=US INDUSTRIAL CHEMICAL COMPANY, CINCINNATI, OHIO
##OWNER=COBLENTZ SOCIETY
Collection (C) 2018 copyright by the U.S. Secretary of Commerce
on behalf of the United States of America. All rights reserved.
##DATE=Not specified, most likely prior to 1970
##NAMES=1,2-DIHYDROBENZENE
##CAS REGISTRY NO=592-57-4
##MOLFORM=C6 H8
##SOURCE REFERENCE=COBLENTZ NO. 2682
##$NIST SOURCE=COBLENTZ
##$NIST IMAGE=cob2682
##SPECTROMETER/DATA SYSTEM=Not specified, most likely a prism, grating, or hybrid spectrometer.
##STATE=LIQUID
##PATH LENGTH=0.00234 CM
##SAMPLING PROCEDURE=TRANSMISSION
##RESOLUTION=4
##DATA PROCESSING=DIGITIZED BY NIST FROM HARD COPY
##XUNITS=MICROMETERS
##YUNITS=TRANSMITTANCE
##XFACTOR=1.000000
##YFACTOR=1
##DELTAX=000.006651
##FIRSTX=2.027
##LASTX=16.013
##FIRSTY=0.921
##MAXX=16.013
##MINX=2.027
##MAXY=0.928
##MINY=0.063
##NPOINTS=2104
##XYDATA=(X++(Y..Y))
2.027000 0.9210 0.9210 0.9210 0.9230 0.9230
2.060270 0.9230 0.9240 0.9260 0.9260 0.9280
2.093000 0.9280 0.9280 0.9260 0.9240 0.9230
2.126270 0.9210 0.9190 0.9190 0.9180 0.9180
2.160000 0.9180 0.9180 0.9160 0.9140 0.9130
2.193270 0.9090 0.9090 0.9060 0.9040 0.9030
2.226000 0.9010 0.9010 0.8990 0.8990 0.8980
2.259270 0.8980 0.8980 0.8980 0.8960 0.8940
2.293000 0.8940 0.8940 0.8940 0.8960 0.9010
2.326270 0.9040 0.9060 0.9080 0.9110 0.9130
2.359000 0.9160 0.9160 0.9160 0.9140 0.9110
2.392270 0.9080 0.8960 0.8840 0.8830 0.8830
2.426000 0.8830 0.8860 0.8890 0.8890 0.8910
2.459270 0.8930 0.8930 0.8940 0.8960 0.8980
2.492000 0.9010 0.9040 0.9080 0.9080 0.9090
2.525270 0.9110 0.9110 0.9110 0.9130 0.9130
2.559000 0.9130 0.9140 0.9140 0.9160 0.9180
2.592270 0.9180 0.9190 0.9210 0.9210 0.9210
2.625000 0.9230 0.9230 0.9260 0.9260 0.9240
2.658270 0.9240 0.9240 0.9230 0.9210 0.9210
2.692000 0.9190 0.9180 0.9140 0.9130 0.9110
2.725270 0.9060 0.9030 0.8980 0.8930 0.8910
2.758000 0.8890 0.8890 0.8910 0.8960 0.9010
2.791270 0.9040 0.9040 0.9060 0.9080 0.9080
2.825000 0.9080 0.9090 0.9090 0.9090 0.9090
2.858270 0.9080 0.9080 0.9080 0.9060 0.9060
2.891000 0.9060 0.9060 0.9080 0.9090 0.9090
2.924270 0.9110 0.9140 0.9140 0.9110 0.9080
2.958000 0.9080 0.9040 0.9040 0.9040 0.9060
2.991270 0.9060 0.9090 0.9090 0.9080 0.9080
3.024000 0.9060 0.9060 0.9060 0.9060 0.9040
3.057270 0.9010 0.8990 0.8980 0.8960 0.8930
3.091000 0.8890 0.8840 0.8830 0.8810 0.8810
3.124270 0.8890 0.8930 0.8960 0.8940 0.8910
3.157000 0.8830 0.8810 0.8810 0.8780 0.8740
3.190270 0.8690 0.8280 0.7910 0.7610 0.6840
3.224000 0.6610 0.6360 0.4820 0.3280 0.2270
3.257270 0.1660 0.1060 0.1050 0.1080 0.2120
3.290000 0.2670 0.3230 0.4240 0.4740 0.5200
3.323270 0.5600 0.6040 0.6210 0.6240 0.6270
3.357000 0.4570 0.3730 0.3320 0.2900 0.1350
3.390270 0.0650 0.0630 0.0660 0.1380 0.2030
3.423000 0.2780 0.3580 0.3580 0.3130 0.2670
3.456270 0.1730 0.1210 0.1200 0.1210 0.1750
3.490000 0.2220 0.3000 0.3020 0.3000 0.1650
3.523270 0.1010 0.1000 0.1030 0.1800 0.2520
3.556000 0.3320 0.4390 0.5190 0.5950 0.6360
3.589270 0.7470 0.7710 0.7860 0.7940 0.8040
3.623000 0.8130 0.8140 0.8190 0.8290 0.8430
3.656270 0.8540 0.8590 0.8690 0.8780 0.8810
3.689000 0.8880 0.8880 0.8790 0.8490 0.8480
3.722270 0.8490 0.8610 0.8740 0.8880 0.8890
3.756000 0.8890 0.8880 0.8630 0.8490 0.8310
3.789270 0.8160 0.8130 0.8160 0.8390 0.8640
3.822000 0.8890 0.8980 0.8980 0.9010 0.9030
3.855270 0.9030 0.9030 0.9030 0.9030 0.9010
3.889000 0.8990 0.8990 0.9010 0.9010 0.9010
3.922270 0.9080 0.9090 0.9140 0.9140 0.9110
3.955000 0.9080 0.9080 0.9080 0.9080 0.9040
3.988270 0.9030 0.8990 0.8980 0.8980 0.8980
4.022000 0.8980 0.8880 0.8860 0.8880 0.8930
4.055270 0.9010 0.9080 0.9080 0.9080 0.9080
4.088000 0.9110 0.9110 0.9080 0.9010 0.8990
4.121270 0.8960 0.8910 0.8910 0.8980 0.9090
4.155000 0.9090 0.8990 0.8990 0.8990 0.8990
4.188270 0.8990 0.8990 0.9010 0.9080 0.9080
4.221000 0.9090 0.9110 0.9130 0.9130 0.9090
4.254270 0.9090 0.9090 0.9090 0.9090 0.9080
4.288000 0.9040 0.8990 0.8960 0.8930 0.8910
4.321270 0.8910 0.8940 0.8990 0.9010 0.9080
4.354000 0.9080 0.9060 0.9010 0.8980 0.8930
4.387270 0.8910 0.8940 0.8940 0.8980 0.8990
4.421000 0.8990 0.8960 0.8940 0.8960 0.8990
4.454270 0.9060 0.9130 0.9140 0.9130 0.9090
4.487000 0.8990 0.8990 0.8990 0.9030 0.9030
4.520270 0.9010 0.9010 0.8990 0.8960 0.8910
4.554000 0.8880 0.8880 0.8880 0.8880 0.8890
4.587270 0.8980 0.9010 0.9040 0.9060 0.9060
4.620000 0.9060 0.9060 0.9080 0.9080 0.9080
4.653270 0.9080 0.9080 0.9060 0.8990 0.8980
4.687000 0.8980 0.8960 0.8940 0.8930 0.8910
4.720270 0.8910 0.8940 0.8940 0.8980 0.8980
4.753000 0.9030 0.9060 0.9060 0.9060 0.9040
4.786270 0.9030 0.9010 0.9010 0.8990 0.8990
4.820000 0.8980 0.8990 0.9080 0.9090 0.9110
4.853270 0.9110 0.9130 0.9130 0.9130 0.9140
4.886000 0.9140 0.9160 0.9160 0.9160 0.9180
4.919270 0.9180 0.9140 0.9140 0.9130 0.9090
4.953000 0.9030 0.9010 0.9010 0.9010 0.9010
4.986270 0.8990 0.8990 0.8990 0.8990 0.8990
5.019000 0.8980 0.8960 0.8940 0.8910 0.8880
5.052270 0.8860 0.8830 0.8790 0.8740 0.8730
5.086000 0.8730 0.8730 0.8760 0.8810 0.8910
5.119270 0.8930 0.8930 0.8940 0.8960 0.8980
5.152000 0.8990 0.8990 0.8940 0.8940 0.8910
5.185270 0.8880 0.8830 0.8780 0.8690 0.8610
5.219000 0.8580 0.8560 0.8530 0.8530 0.8510
5.252270 0.8480 0.8460 0.8460 0.8460 0.8460
5.286000 0.8490 0.8580 0.8630 0.8680 0.8780
5.319270 0.8780 0.8790 0.8840 0.8890 0.8930
5.352000 0.8980 0.8990 0.8990 0.9030 0.9040
5.385270 0.9080 0.9080 0.9090 0.9110 0.9130
5.419000 0.9130 0.9090 0.9090 0.9080 0.9080
5.452270 0.9040 0.9030 0.8990 0.8990 0.8980
5.485000 0.8960 0.8960 0.8930 0.8930 0.8930
5.518270 0.8940 0.8940 0.8980 0.8990 0.9010
5.552000 0.9030 0.9030 0.9030 0.9010 0.9010
5.585270 0.9010 0.9010 0.8990 0.8990 0.8990
5.618000 0.8990 0.8910 0.8860 0.8860 0.8880
5.651270 0.8890 0.8910 0.8930 0.8980 0.8980
5.685000 0.8940 0.8910 0.8890 0.8880 0.8860
5.718270 0.8830 0.8790 0.8780 0.8730 0.8690
5.751000 0.8680 0.8680 0.8660 0.8610 0.8580
5.784270 0.8460 0.8330 0.8240 0.8040 0.7990
5.818000 0.7890 0.7660 0.7340 0.7070 0.6910
5.851270 0.6810 0.6710 0.6670 0.6670 0.6660
5.884000 0.6710 0.6770 0.6870 0.6990 0.7170
5.917270 0.7410 0.7510 0.7590 0.7690 0.7790
5.951000 0.7890 0.8010 0.8030 0.8080 0.8090
5.984270 0.8110 0.8180 0.8310 0.8430 0.8490
6.017000 0.8580 0.8680 0.8780 0.8780 0.8730
6.050270 0.8560 0.8540 0.8540 0.8540 0.8560
6.084000 0.8590 0.8660 0.8660 0.8660 0.8590
6.117270 0.8530 0.8510 0.8510 0.8510 0.8480
6.150000 0.8410 0.8340 0.8210 0.8040 0.7890
6.183270 0.7740 0.7540 0.7410 0.7270 0.7260
6.217000 0.7260 0.7290 0.7440 0.7640 0.7840
6.250270 0.7970 0.8060 0.8180 0.8280 0.8280
6.283000 0.8210 0.7760 0.7640 0.7620 0.7640
6.316270 0.7690 0.8030 0.8340 0.8440 0.8610
6.350000 0.8790 0.8890 0.8940 0.8990 0.9010
6.383270 0.8990 0.8960 0.8910 0.8890 0.8890
6.416000 0.8910 0.8980 0.8990 0.9030 0.9080
6.449270 0.9080 0.9060 0.8990 0.8980 0.8960
6.483000 0.8940 0.8940 0.8930 0.8930 0.8910
6.516270 0.8910 0.8910 0.8880 0.8880 0.8880
6.549000 0.8860 0.8860 0.8840 0.8810 0.8790
6.582270 0.8790 0.8790 0.8780 0.8760 0.8660
6.616000 0.8590 0.8580 0.8590 0.8590 0.8610
6.649270 0.8630 0.8630 0.8610 0.8610 0.8660
6.682000 0.8680 0.8640 0.8580 0.8560 0.8510
6.715270 0.8510 0.8360 0.8260 0.8230 0.8210
6.749000 0.8190 0.8190 0.8180 0.8160 0.8080
6.782270 0.8040 0.8030 0.7990 0.7870 0.7790
6.815000 0.7770 0.7760 0.7690 0.7440 0.7270
6.848270 0.7090 0.6940 0.6820 0.6740 0.6660
6.882000 0.6520 0.6240 0.5890 0.5470 0.5170
6.915270 0.4470 0.3950 0.3570 0.3400 0.3400
6.948000 0.3480 0.3730 0.3730 0.3400 0.3050
6.981270 0.2680 0.2680 0.3070 0.3700 0.3950
7.015000 0.4300 0.4700 0.5040 0.5250 0.5300
7.048270 0.5300 0.5250 0.5000 0.4920 0.4890
7.081000 0.4890 0.5000 0.5150 0.5520 0.6020
7.114270 0.6240 0.6460 0.6840 0.7010 0.7140
7.148000 0.7260 0.7340 0.7390 0.7460 0.7460
7.181270 0.7470 0.7490 0.7510 0.7490 0.7490
7.214000 0.7460 0.7270 0.6970 0.6770 0.6470
7.247270 0.6170 0.4770 0.4500 0.4190 0.4170
7.281000 0.4190 0.5070 0.5700 0.6320 0.7270
7.314270 0.7460 0.7590 0.7690 0.7810 0.7910
7.347000 0.7970 0.8040 0.8090 0.8160 0.8160
7.380270 0.8180 0.8180 0.8190 0.8230 0.8260
7.414000 0.8260 0.8260 0.8260 0.8260 0.8260
7.447270 0.8260 0.8260 0.8190 0.8160 0.8090
7.480000 0.8030 0.7820 0.7590 0.7360 0.7110
7.513270 0.6860 0.6820 0.6860 0.7010 0.7160
7.547000 0.7310 0.7490 0.7510 0.7590 0.7660
7.580270 0.7740 0.7790 0.7860 0.7890 0.7890
7.613000 0.7910 0.7990 0.8030 0.8080 0.8110
7.646270 0.8180 0.8230 0.8280 0.8280 0.8310
7.680000 0.8330 0.8340 0.8340 0.8360 0.8380
7.713270 0.8380 0.8410 0.8410 0.8430 0.8480
7.746000 0.8480 0.8490 0.8510 0.8530 0.8540
7.779270 0.8560 0.8580 0.8580 0.8590 0.8590
7.813000 0.8590 0.8590 0.8610 0.8630 0.8630
7.846270 0.8610 0.8580 0.8540 0.8540 0.8510
7.879000 0.8490 0.8460 0.8410 0.8330 0.8290
7.912270 0.8290 0.8280 0.8280 0.8240 0.8140
7.946000 0.8080 0.7970 0.7860 0.7790 0.7720
7.979270 0.7690 0.7540 0.7410 0.7190 0.6910
8.012000 0.6760 0.6590 0.6060 0.5500 0.5220
8.045270 0.4390 0.4100 0.4100 0.4190 0.4490
8.079000 0.4800 0.5300 0.5720 0.6090 0.6370
8.112270 0.6620 0.7060 0.7240 0.7440 0.7490
8.145000 0.7570 0.7660 0.7690 0.7740 0.7770
8.178270 0.7810 0.7860 0.7870 0.7910 0.7940
8.212000 0.7960 0.7990 0.8010 0.8040 0.8080
8.245270 0.8130 0.8180 0.8230 0.8260 0.8260
8.278000 0.8260 0.8260 0.8280 0.8290 0.8290
8.311270 0.8290 0.8290 0.8290 0.8280 0.8240
8.345000 0.8210 0.8210 0.8180 0.8160 0.8140
8.378270 0.8140 0.8130 0.8130 0.8130 0.8080
8.411000 0.8030 0.7990 0.7890 0.7740 0.7670
8.444270 0.7570 0.7460 0.7390 0.7140 0.6910
8.478000 0.6670 0.6560 0.6440 0.6220 0.6140
8.511270 0.5990 0.5970 0.5870 0.5790 0.5700
8.544000 0.5440 0.5040 0.4790 0.4520 0.4190
8.577270 0.3980 0.3980 0.4090 0.4250 0.4550
8.611000 0.4820 0.5140 0.5420 0.5640 0.5850
8.644270 0.6110 0.6340 0.6520 0.6820 0.6910
8.677000 0.7010 0.7070 0.7110 0.7170 0.7220
8.710270 0.7320 0.7360 0.7410 0.7490 0.7520
8.744000 0.7590 0.7610 0.7620 0.7620 0.7670
8.777270 0.7690 0.7720 0.7760 0.7790 0.7870
8.810000 0.7970 0.8010 0.8080 0.8110 0.8160
8.843270 0.8180 0.8210 0.8230 0.8240 0.8260
8.877000 0.8260 0.8280 0.8290 0.8290 0.8310
8.910270 0.8330 0.8330 0.8340 0.8360 0.8390
8.943000 0.8390 0.8430 0.8440 0.8440 0.8460
8.976270 0.8460 0.8480 0.8480 0.8480 0.8490
9.010000 0.8510 0.8510 0.8530 0.8530 0.8510
9.043270 0.8510 0.8480 0.8480 0.8460 0.8460
9.076000 0.8460 0.8440 0.8410 0.8390 0.8380
9.109270 0.8330 0.8310 0.8290 0.8280 0.8260
9.143000 0.8240 0.8210 0.8180 0.8160 0.8110
9.176270 0.8080 0.8080 0.8060 0.8030 0.7990
9.210000 0.7970 0.7940 0.7890 0.7870 0.7870
9.243270 0.7860 0.7820 0.7810 0.7810 0.7790
9.276000 0.7790 0.7770 0.7770 0.7770 0.7760
9.309270 0.7710 0.7710 0.7670 0.7670 0.7660
9.343000 0.7610 0.7590 0.7520 0.7440 0.7360
9.376270 0.7290 0.7220 0.7020 0.6860 0.6740
9.409000 0.6620 0.6310 0.6040 0.5840 0.5700
9.442270 0.5690 0.5690 0.5790 0.6020 0.6170
9.476000 0.6320 0.6420 0.6610 0.6820 0.7020
9.509270 0.7110 0.7160 0.7170 0.7240 0.7270
9.542000 0.7290 0.7290 0.7310 0.7310 0.7310
9.575270 0.7360 0.7360 0.7360 0.7370 0.7390
9.609000 0.7390 0.7390 0.7390 0.7390 0.7410
9.642270 0.7420 0.7470 0.7510 0.7510 0.7520
9.675000 0.7520 0.7520 0.7510 0.7490 0.7470
9.708270 0.7460 0.7460 0.7410 0.7370 0.7320
9.742000 0.7270 0.7190 0.7110 0.6970 0.6820
9.775270 0.6690 0.6660 0.6620 0.6570 0.6390
9.808000 0.6290 0.6290 0.6310 0.6340 0.6420
9.841270 0.6490 0.6540 0.6890 0.6990 0.7020
9.875000 0.7090 0.7120 0.7170 0.7210 0.7270
9.908270 0.7340 0.7370 0.7390 0.7410 0.7420
9.941000 0.7460 0.7470 0.7470 0.7470 0.7470
9.974270 0.7410 0.7390 0.7260 0.7110 0.6920
10.008000 0.6740 0.6640 0.6540 0.6420 0.6270
10.041270 0.6170 0.6060 0.6040 0.6040 0.6070
10.074000 0.6210 0.6370 0.6440 0.6610 0.6890
10.107270 0.7010 0.7070 0.7160 0.7160 0.7190
10.141000 0.7240 0.7270 0.7320 0.7340 0.7340
10.174270 0.7360 0.7370 0.7370 0.7410 0.7440
10.207000 0.7440 0.7460 0.7460 0.7460 0.7470
10.240270 0.7490 0.7520 0.7570 0.7610 0.7610
10.274000 0.7610 0.7620 0.7620 0.7640 0.7660
10.307270 0.7660 0.7660 0.7660 0.7640 0.7610
10.340000 0.7590 0.7570 0.7560 0.7540 0.7520
10.373270 0.7490 0.7460 0.7460 0.7420 0.7370
10.407000 0.7320 0.7290 0.7220 0.7190 0.7170
10.440270 0.7140 0.7090 0.7060 0.6970 0.6910
10.473000 0.6890 0.6860 0.6810 0.6720 0.6690
10.506270 0.6660 0.6610 0.6540 0.6490 0.6390
10.540000 0.6290 0.6190 0.6040 0.5870 0.5640
10.573270 0.5490 0.5320 0.5240 0.5150 0.5090
10.606000 0.5070 0.5070 0.5100 0.5290 0.5390
10.639270 0.5490 0.5590 0.5840 0.6040 0.6120
10.673000 0.6170 0.6270 0.6340 0.6440 0.6540
10.706270 0.6610 0.6620 0.6620 0.6640 0.6640
10.739000 0.6620 0.6540 0.6370 0.6170 0.6040
10.772270 0.5790 0.5490 0.5190 0.4990 0.4200
10.806000 0.3750 0.3300 0.2950 0.2670 0.2450
10.839270 0.2350 0.2320 0.2320 0.2380 0.2630
10.872000 0.2930 0.3200 0.3850 0.4220 0.4590
10.905270 0.4940 0.5270 0.5440 0.5640 0.5940
10.939000 0.6140 0.6240 0.6510 0.6840 0.6940
10.972270 0.7110 0.7170 0.7260 0.7340 0.7420
11.005000 0.7510 0.7590 0.7670 0.7710 0.7740
11.038270 0.7790 0.7810 0.7870 0.7910 0.7920
11.072000 0.8010 0.8010 0.8030 0.8040 0.8080
11.105270 0.8110 0.8140 0.8180 0.8190 0.8190
11.138000 0.8210 0.8230 0.8240 0.8260 0.8260
11.171270 0.8280 0.8280 0.8290 0.8310 0.8310
11.205000 0.8330 0.8340 0.8340 0.8340 0.8340
11.238270 0.8340 0.8360 0.8360 0.8380 0.8380
11.271000 0.8380 0.8380 0.8390 0.8390 0.8390
11.304270 0.8410 0.8410 0.8410 0.8410 0.8380
11.338000 0.8330 0.8330 0.8290 0.8280 0.8280
11.371270 0.8240 0.8210 0.8190 0.8180 0.8160
11.404000 0.8140 0.8140 0.8160 0.8180 0.8190
11.437270 0.8230 0.8260 0.8280 0.8310 0.8330
11.471000 0.8340 0.8380 0.8380 0.8390 0.8390
11.504270 0.8410 0.8410 0.8410 0.8410 0.8410
11.537000 0.8410 0.8410 0.8410 0.8390 0.8390
11.570270 0.8390 0.8390 0.8380 0.8380 0.8330
11.604000 0.8290 0.8280 0.8260 0.8240 0.8230
11.637270 0.8210 0.8190 0.8190 0.8190 0.8190
11.670000 0.8180 0.8180 0.8130 0.8130 0.8110
11.703270 0.8060 0.7990 0.7970 0.7910 0.7890
11.737000 0.7860 0.7760 0.7540 0.7370 0.7320
11.770270 0.7290 0.7190 0.7160 0.7140 0.7160
11.803000 0.7210 0.7310 0.7340 0.7390 0.7510
11.836270 0.7540 0.7620 0.7740 0.7810 0.7890
11.870000 0.7910 0.7920 0.7990 0.7990 0.8060
11.903270 0.8080 0.8110 0.8160 0.8180 0.8210
11.936000 0.8240 0.8280 0.8310 0.8330 0.8330
11.969270 0.8330 0.8340 0.8340 0.8340 0.8380
12.003000 0.8430 0.8510 0.8540 0.8560 0.8560
12.036270 0.8560 0.8560 0.8560 0.8560 0.8540
12.069000 0.8540 0.8540 0.8540 0.8540 0.8540
12.102270 0.8540 0.8540 0.8530 0.8510 0.8510
12.136000 0.8490 0.8490 0.8490 0.8480 0.8480
12.169270 0.8490 0.8510 0.8530 0.8530 0.8530
12.202000 0.8510 0.8490 0.8490 0.8480 0.8480
12.235270 0.8480 0.8460 0.8440 0.8430 0.8410
12.269000 0.8410 0.8390 0.8380 0.8380 0.8380
12.302270 0.8380 0.8360 0.8340 0.8310 0.8290
12.335000 0.8280 0.8280 0.8260 0.8210 0.8190
12.368270 0.8190 0.8180 0.8180 0.8160 0.8130
12.402000 0.8110 0.8090 0.8090 0.8090 0.8080
12.435270 0.8080 0.8060 0.8040 0.8040 0.8010
12.468000 0.8010 0.8010 0.8010 0.8010 0.8010
12.501270 0.7990 0.7990 0.7990 0.7970 0.7970
12.535000 0.7960 0.7960 0.7960 0.7970 0.7970
12.568270 0.7970 0.7940 0.7920 0.7910 0.7890
12.601000 0.7870 0.7820 0.7810 0.7770 0.7720
12.634270 0.7690 0.7690 0.7660 0.7620 0.7590
12.668000 0.7570 0.7570 0.7570 0.7570 0.7570
12.701270 0.7590 0.7610 0.7640 0.7660 0.7670
12.734000 0.7670 0.7670 0.7670 0.7670 0.7670
12.767270 0.7670 0.7670 0.7660 0.7660 0.7660
12.801000 0.7660 0.7660 0.7640 0.7620 0.7620
12.834270 0.7610 0.7610 0.7590 0.7570 0.7570
12.867000 0.7570 0.7560 0.7510 0.7490 0.7440
12.900270 0.7390 0.7360 0.7310 0.7290 0.7270
12.934000 0.7220 0.7220 0.7190 0.7090 0.7070
12.967270 0.7060 0.7020 0.6990 0.6920 0.6890
13.000000 0.6770 0.6690 0.6670 0.6640 0.6560
13.033270 0.6490 0.6460 0.6370 0.6290 0.6260
13.067000 0.6140 0.6070 0.5990 0.5900 0.5870
13.100270 0.5720 0.5600 0.5520 0.5440 0.5350
13.133000 0.5250 0.5120 0.5020 0.4870 0.4720
13.166270 0.4600 0.4520 0.4350 0.4270 0.4120
13.200000 0.3970 0.3820 0.3700 0.3620 0.3480
13.233270 0.3380 0.3280 0.3130 0.2950 0.2800
13.267000 0.2550 0.2380 0.2180 0.2050 0.1950
13.300270 0.1750 0.1580 0.1480 0.1350 0.1280
13.333000 0.1180 0.1100 0.1060 0.1030 0.1050
13.366270 0.1110 0.1180 0.1280 0.1380 0.1510
13.400000 0.1760 0.2020 0.2320 0.2600 0.2800
13.433270 0.3080 0.3300 0.3730 0.4140 0.4320
13.466000 0.4500 0.4670 0.4900 0.5050 0.5220
13.499270 0.5390 0.5570 0.5720 0.5870 0.5990
13.533000 0.6090 0.6210 0.6290 0.6340 0.6490
13.566270 0.6590 0.6720 0.6810 0.6890 0.6940
13.599000 0.6970 0.7020 0.7060 0.7070 0.7090
13.632270 0.7120 0.7170 0.7220 0.7290 0.7320
13.666000 0.7340 0.7360 0.7370 0.7370 0.7390
13.699270 0.7410 0.7470 0.7490 0.7490 0.7510
13.732000 0.7510 0.7510 0.7510 0.7510 0.7510
13.765270 0.7520 0.7520 0.7560 0.7560 0.7570
13.799000 0.7590 0.7590 0.7570 0.7410 0.7390
13.832270 0.7370 0.7360 0.7340 0.7320 0.7290
13.865000 0.7270 0.7260 0.7260 0.7260 0.7260
13.898270 0.7270 0.7270 0.7270 0.7270 0.7290
13.932000 0.7340 0.7360 0.7370 0.7370 0.7370
13.965270 0.7390 0.7410 0.7420 0.7460 0.7470
13.998000 0.7490 0.7520 0.7560 0.7570 0.7570
14.031270 0.7590 0.7610 0.7610 0.7610 0.7610
14.065000 0.7590 0.7590 0.7590 0.7590 0.7590
14.098270 0.7590 0.7590 0.7540 0.7520 0.7490
14.131000 0.7470 0.7470 0.7460 0.7460 0.7440
14.164270 0.7440 0.7440 0.7440 0.7440 0.7420
14.198000 0.7420 0.7420 0.7420 0.7420 0.7420
14.231270 0.7410 0.7390 0.7370 0.7360 0.7340
14.264000 0.7310 0.7270 0.7270 0.7220 0.7210
14.297270 0.7190 0.7170 0.7160 0.7110 0.7070
14.331000 0.7020 0.7010 0.6990 0.6990 0.6960
14.364270 0.6940 0.6910 0.6870 0.6810 0.6770
14.397000 0.6760 0.6720 0.6670 0.6670 0.6660
14.430270 0.6610 0.6570 0.6510 0.6460 0.6390
14.464000 0.6320 0.6290 0.6240 0.6170 0.6090
14.497270 0.6040 0.6010 0.5900 0.5790 0.5770
14.530000 0.5720 0.5640 0.5570 0.5570 0.5490
14.563270 0.5470 0.5370 0.5370 0.5290 0.5200
14.597000 0.5150 0.5020 0.4890 0.4740 0.4720
14.630270 0.4670 0.4590 0.4470 0.4400 0.4270
14.663000 0.4150 0.4070 0.4020 0.3980 0.3900
14.696270 0.3800 0.3680 0.3580 0.3450 0.3380
14.730000 0.3330 0.3280 0.3180 0.3120 0.3000
14.763270 0.2930 0.2830 0.2780 0.2680 0.2630
14.796000 0.2580 0.2530 0.2480 0.2400 0.2370
14.829270 0.2330 0.2280 0.2270 0.2270 0.2220
14.863000 0.2180 0.2150 0.2100 0.2070 0.2000
14.896270 0.1980 0.1900 0.1830 0.1780 0.1750
14.929000 0.1710 0.1660 0.1580 0.1560 0.1560
14.962270 0.1550 0.1510 0.1500 0.1480 0.1450
14.996000 0.1380 0.1280 0.1150 0.1100 0.1030
15.029270 0.1000 0.0930 0.0900 0.0860 0.0810
15.062000 0.0780 0.0750 0.0730 0.0730 0.0710
15.095270 0.0710 0.0700 0.0700 0.0700 0.0680
15.129000 0.0660 0.0660 0.0660 0.0680 0.0680
15.162270 0.0680 0.0680 0.0700 0.0710 0.0710
15.195000 0.0730 0.0730 0.0760 0.0780 0.0800
15.228270 0.0810 0.0810 0.0860 0.0880 0.0900
15.262000 0.0900 0.0910 0.0910 0.0930 0.0980
15.295270 0.0980 0.1000 0.1000 0.1010 0.1010
15.328000 0.1030 0.1030 0.1050 0.1050 0.1050
15.361270 0.1060 0.1060 0.1080 0.1150 0.1160
15.395000 0.1180 0.1200 0.1250 0.1310 0.1380
15.428270 0.1410 0.1480 0.1510 0.1560 0.1600
15.461000 0.1680 0.1700 0.1710 0.1780 0.1880
15.494270 0.1980 0.2070 0.2100 0.2220 0.2350
15.528000 0.2400 0.2500 0.2600 0.2680 0.2800
15.561270 0.2950 0.3070 0.3130 0.3150 0.3200
15.594000 0.3280 0.3300 0.3580 0.3780 0.3830
15.627270 0.3900 0.3970 0.4000 0.4040 0.4220
15.661000 0.4370 0.4440 0.4550 0.4620 0.4690
15.694270 0.4740 0.4820 0.4900 0.4990 0.5040
15.727000 0.5070 0.5190 0.5270 0.5350 0.5390
15.760270 0.5470 0.5540 0.5600 0.5670 0.5720
15.794000 0.5790 0.5840 0.5870 0.5920 0.5990
15.827270 0.6010 0.6020 0.6040 0.6070 0.6110
15.860000 0.6170 0.6270 0.6320 0.6340 0.6370
15.893270 0.6370 0.6410 0.6470 0.6490 0.6510
15.927000 0.6570 0.6590 0.6610 0.6610 0.6620
15.960270 0.6710 0.6720 0.6760 0.6790 0.6810
15.993000 0.6820 0.6820 0.6810 0.6820
##END=
