##TITLE=2,2-DICHLOROPROPANE
##JCAMP-DX=4.24
##DATA TYPE=INFRARED SPECTRUM
##CLASS=COBLENTZ
##ORIGIN=W.T. BOLLETER
##OWNER=COBLENTZ SOCIETY
Collection (C) 2018 copyright by the U.S. Secretary of Commerce
on behalf of the United States of America. All rights reserved.
##DATE=Not specified, most likely prior to 1970
##CAS REGISTRY NO=594-20-7
##MOLFORM=C3 H6 Cl2
##SOURCE REFERENCE=COBLENTZ NO. 4481
##$NIST SOURCE=COBLENTZ
##$NIST IMAGE=cob4481
##SPECTROMETER/DATA SYSTEM=Not specified, most likely a prism, grating, or hybrid spectrometer.
##PATH LENGTH=0.0025 CM
##SAMPLING PROCEDURE=TRANSMISSION
##RESOLUTION=4
##DATA PROCESSING=DIGITIZED BY NIST FROM HARD COPY
##XUNITS=MICROMETERS
##YUNITS=TRANSMITTANCE
##XFACTOR=1.000000
##YFACTOR=1
##DELTAX=000.017505
##FIRSTX=14.578
##LASTX=38.0001
##FIRSTY=0.729
##MAXX=38.0001
##MINX=14.578
##MAXY=0.943
##MINY=0.032
##NPOINTS=1339
##XYDATA=(X++(Y..Y))
14.578000 0.7290 0.7180 0.7060 0.6920 0.6770
14.665593 0.6700 0.6610 0.6440 0.6310 0.6150
14.753000 0.5810 0.5650 0.5400 0.5260 0.5030
14.840593 0.4850 0.4550 0.4340 0.4090 0.3730
14.928000 0.3500 0.3360 0.3220 0.2980 0.2680
15.015593 0.2380 0.2080 0.1760 0.1530 0.1330
15.103000 0.1100 0.1010 0.0900 0.0600 0.0510
15.190593 0.0440 0.0420 0.0400 0.0370 0.0370
15.278000 0.0350 0.0330 0.0330 0.0320 0.0320
15.365593 0.0320 0.0320 0.0320 0.0330 0.0330
15.453000 0.0350 0.0390 0.0400 0.0440 0.0480
15.540593 0.0550 0.0580 0.0640 0.0810 0.1030
15.628000 0.1150 0.1380 0.1540 0.1770 0.2040
15.715593 0.2310 0.2630 0.2900 0.3270 0.3790
15.803000 0.4020 0.4340 0.4590 0.4910 0.5100
15.890593 0.5330 0.5530 0.5780 0.6010 0.6190
15.978000 0.6330 0.6510 0.6610 0.6830 0.6950
16.065593 0.7110 0.7200 0.7310 0.7400 0.7500
16.153000 0.7520 0.7580 0.7630 0.7660 0.7750
16.240593 0.7790 0.7820 0.7910 0.7980 0.8000
16.328000 0.8020 0.8090 0.8140 0.8200 0.8230
16.415593 0.8270 0.8300 0.8360 0.8390 0.8430
16.503000 0.8480 0.8500 0.8520 0.8540 0.8550
16.590593 0.8550 0.8570 0.8590 0.8610 0.8620
16.678000 0.8620 0.8620 0.8620 0.8640 0.8640
16.765593 0.8640 0.8640 0.8640 0.8620 0.8620
16.853000 0.8610 0.8590 0.8590 0.8570 0.8550
16.940593 0.8550 0.8520 0.8500 0.8460 0.8450
17.028000 0.8380 0.8360 0.8340 0.8290 0.8230
17.115593 0.8180 0.8130 0.8060 0.8020 0.8000
17.204000 0.7930 0.7840 0.7790 0.7660 0.7630
17.291593 0.7540 0.7500 0.7340 0.7220 0.7170
17.379000 0.7090 0.7010 0.6810 0.6700 0.6610
17.466593 0.6530 0.6420 0.6290 0.6150 0.5990
17.554000 0.5740 0.5530 0.5480 0.5280 0.5080
17.641593 0.5000 0.4780 0.4660 0.4510 0.4270
17.729000 0.4090 0.3930 0.3610 0.3480 0.3380
17.816593 0.3270 0.3020 0.2900 0.2740 0.2590
17.904000 0.2490 0.2450 0.2360 0.2340 0.2360
17.991593 0.2430 0.2580 0.2700 0.2840 0.3040
18.079000 0.3140 0.3290 0.3800 0.3910 0.4190
18.166593 0.4500 0.4640 0.4920 0.5170 0.5330
18.254000 0.5580 0.5810 0.6010 0.6190 0.6350
18.341593 0.6530 0.6770 0.6970 0.7080 0.7240
18.429000 0.7380 0.7490 0.7580 0.7720 0.7740
18.516593 0.7820 0.8000 0.8040 0.8070 0.8130
18.604000 0.8220 0.8300 0.8360 0.8410 0.8460
18.691593 0.8520 0.8550 0.8590 0.8640 0.8680
18.779000 0.8710 0.8750 0.8770 0.8790 0.8800
18.866593 0.8860 0.8910 0.8930 0.8950 0.8960
18.954000 0.8980 0.8980 0.9000 0.9020 0.9030
19.041593 0.9030 0.9070 0.9070 0.9090 0.9110
19.129000 0.9110 0.9110 0.9120 0.9140 0.9140
19.216593 0.9160 0.9160 0.9180 0.9180 0.9190
19.304000 0.9190 0.9190 0.9210 0.9210 0.9210
19.391593 0.9230 0.9230 0.9230 0.9230 0.9230
19.479000 0.9250 0.9250 0.9250 0.9250 0.9250
19.566593 0.9250 0.9250 0.9250 0.9250 0.9250
19.654000 0.9250 0.9270 0.9270 0.9270 0.9270
19.741593 0.9270 0.9270 0.9270 0.9270 0.9270
19.829000 0.9270 0.9270 0.9280 0.9280 0.9280
19.916593 0.9280 0.9280 0.9280 0.9300 0.9300
20.004000 0.9300 0.9300 0.9320 0.9320 0.9320
20.091593 0.9320 0.9340 0.9340 0.9340 0.9340
20.179000 0.9340 0.9340 0.9350 0.9350 0.9350
20.266593 0.9370 0.9350 0.9350 0.9350 0.9350
20.354000 0.9370 0.9370 0.9370 0.9370 0.9370
20.441593 0.9370 0.9390 0.9410 0.9410 0.9410
20.530000 0.9410 0.9410 0.9410 0.9390 0.9390
20.617593 0.9390 0.9390 0.9410 0.9410 0.9410
20.705000 0.9410 0.9410 0.9410 0.9410 0.9410
20.792593 0.9410 0.9410 0.9410 0.9390 0.9390
20.880000 0.9410 0.9410 0.9410 0.9430 0.9430
20.967593 0.9430 0.9430 0.9410 0.9390 0.9390
21.055000 0.9390 0.9370 0.9370 0.9370 0.9390
21.142593 0.9390 0.9370 0.9350 0.9350 0.9350
21.230000 0.9370 0.9390 0.9410 0.9430 0.9430
21.317593 0.9430 0.9430 0.9410 0.9410 0.9410
21.405000 0.9410 0.9410 0.9410 0.9410 0.9410
21.492593 0.9410 0.9410 0.9410 0.9410 0.9410
21.580000 0.9410 0.9410 0.9410 0.9410 0.9390
21.667593 0.9390 0.9390 0.9390 0.9370 0.9350
21.755000 0.9350 0.9350 0.9350 0.9350 0.9350
21.842593 0.9390 0.9370 0.9370 0.9370 0.9390
21.930000 0.9390 0.9370 0.9370 0.9370 0.9370
22.017593 0.9370 0.9370 0.9370 0.9370 0.9370
22.105000 0.9370 0.9370 0.9370 0.9390 0.9370
22.192593 0.9370 0.9370 0.9370 0.9370 0.9370
22.280000 0.9390 0.9390 0.9370 0.9370 0.9370
22.367593 0.9370 0.9370 0.9370 0.9390 0.9390
22.455000 0.9390 0.9390 0.9390 0.9390 0.9370
22.542593 0.9370 0.9370 0.9370 0.9350 0.9350
22.630000 0.9350 0.9370 0.9370 0.9370 0.9370
22.717593 0.9410 0.9410 0.9390 0.9390 0.9390
22.805000 0.9390 0.9370 0.9370 0.9370 0.9370
22.892593 0.9370 0.9370 0.9370 0.9370 0.9370
22.980000 0.9370 0.9350 0.9350 0.9370 0.9370
23.067593 0.9370 0.9370 0.9370 0.9370 0.9350
23.155000 0.9350 0.9340 0.9340 0.9340 0.9340
23.242593 0.9340 0.9350 0.9350 0.9350 0.9340
23.330000 0.9340 0.9340 0.9350 0.9350 0.9350
23.417593 0.9350 0.9350 0.9350 0.9350 0.9340
23.505000 0.9340 0.9340 0.9340 0.9340 0.9340
23.592593 0.9340 0.9340 0.9340 0.9340 0.9320
23.681000 0.9280 0.9270 0.9270 0.9250 0.9250
23.768593 0.9230 0.9210 0.9190 0.9190 0.9190
23.856000 0.9210 0.9230 0.9250 0.9280 0.9300
23.943593 0.9300 0.9320 0.9320 0.9340 0.9350
24.031000 0.9350 0.9350 0.9350 0.9340 0.9340
24.118593 0.9320 0.9300 0.9300 0.9280 0.9270
24.206000 0.9270 0.9270 0.9270 0.9270 0.9280
24.293593 0.9280 0.9280 0.9280 0.9270 0.9250
24.381000 0.9250 0.9230 0.9230 0.9210 0.9210
24.468593 0.9230 0.9230 0.9230 0.9210 0.9210
24.556000 0.9190 0.9190 0.9180 0.9160 0.9140
24.643593 0.9120 0.9120 0.9120 0.9110 0.9090
24.731000 0.9090 0.9070 0.9050 0.9030 0.9020
24.818593 0.9020 0.9000 0.8980 0.8960 0.8950
24.906000 0.8930 0.8910 0.8910 0.8870 0.8860
24.993593 0.8820 0.8800 0.8770 0.8750 0.8710
25.081000 0.8700 0.8680 0.8660 0.8620 0.8590
25.168593 0.8570 0.8550 0.8500 0.8480 0.8480
25.256000 0.8390 0.8380 0.8320 0.8250 0.8200
25.343593 0.8110 0.8040 0.7980 0.7980 0.7910
25.431000 0.7840 0.7750 0.7630 0.7540 0.7500
25.518593 0.7490 0.7340 0.7310 0.7250 0.7150
25.606000 0.7090 0.6990 0.6920 0.6900 0.6810
25.693593 0.6770 0.6760 0.6740 0.6720 0.6720
25.781000 0.6720 0.6740 0.6760 0.6770 0.6790
25.868593 0.6850 0.6880 0.6930 0.7010 0.7060
25.956000 0.7130 0.7220 0.7310 0.7400 0.7450
26.043593 0.7500 0.7520 0.7560 0.7660 0.7700
26.131000 0.7750 0.7810 0.7860 0.7950 0.7980
26.218593 0.8020 0.8040 0.8070 0.8110 0.8130
26.306000 0.8140 0.8160 0.8180 0.8220 0.8230
26.393593 0.8270 0.8290 0.8290 0.8290 0.8290
26.481000 0.8290 0.8290 0.8290 0.8290 0.8270
26.568593 0.8270 0.8250 0.8220 0.8220 0.8200
26.656000 0.8200 0.8200 0.8160 0.8160 0.8140
26.743593 0.8110 0.8090 0.8070 0.8060 0.8020
26.832000 0.8000 0.7980 0.7970 0.7930 0.7880
26.919593 0.7810 0.7750 0.7680 0.7610 0.7540
27.007000 0.7380 0.7270 0.7240 0.7130 0.7040
27.094593 0.7010 0.6900 0.6740 0.6690 0.6610
27.182000 0.6510 0.6440 0.6350 0.6240 0.6130
27.269593 0.6080 0.6010 0.5850 0.5720 0.5640
27.357000 0.5530 0.5490 0.5350 0.5280 0.5230
27.444593 0.5160 0.5070 0.5050 0.5000 0.4910
27.532000 0.4850 0.4800 0.4750 0.4670 0.4660
27.619593 0.4620 0.4600 0.4590 0.4570 0.4570
27.707000 0.4550 0.4550 0.4550 0.4550 0.4570
27.794593 0.4590 0.4620 0.4640 0.4710 0.4760
27.882000 0.4890 0.5010 0.5100 0.5230 0.5330
27.969593 0.5420 0.5530 0.5640 0.5760 0.5850
28.057000 0.6010 0.6150 0.6240 0.6380 0.6490
28.144593 0.6540 0.6880 0.6990 0.7020 0.7130
28.232000 0.7250 0.7380 0.7500 0.7610 0.7680
28.319593 0.7740 0.7790 0.7820 0.7900 0.8000
28.407000 0.8090 0.8140 0.8200 0.8250 0.8290
28.494593 0.8360 0.8410 0.8450 0.8500 0.8520
28.582000 0.8550 0.8570 0.8620 0.8640 0.8680
28.669593 0.8710 0.8750 0.8770 0.8790 0.8800
28.757000 0.8820 0.8820 0.8820 0.8820 0.8790
28.844593 0.8790 0.8790 0.8800 0.8800 0.8800
28.932000 0.8800 0.8800 0.8820 0.8820 0.8840
29.019593 0.8840 0.8820 0.8820 0.8820 0.8820
29.107000 0.8820 0.8820 0.8820 0.8840 0.8860
29.194593 0.8870 0.8890 0.8910 0.8930 0.8950
29.282000 0.8950 0.8930 0.8930 0.8910 0.8890
29.369593 0.8910 0.8930 0.8950 0.8960 0.8960
29.457000 0.8980 0.8980 0.9000 0.9000 0.9000
29.544593 0.9000 0.9000 0.9000 0.9000 0.9000
29.632000 0.9000 0.9000 0.9000 0.8980 0.8980
29.719593 0.8960 0.8960 0.8960 0.8960 0.8950
29.807000 0.8950 0.8950 0.8950 0.8950 0.8950
29.894593 0.8950 0.8960 0.8960 0.8980 0.8980
29.982000 0.9000 0.9000 0.9020 0.9020 0.9020
30.069593 0.9030 0.9030 0.9020 0.9020 0.9000
30.158000 0.9000 0.9000 0.9000 0.8980 0.8980
30.245593 0.8950 0.8950 0.8950 0.8930 0.8930
30.333000 0.8890 0.8890 0.8890 0.8870 0.8860
30.420593 0.8820 0.8820 0.8800 0.8800 0.8790
30.508000 0.8770 0.8750 0.8750 0.8770 0.8800
30.595593 0.8860 0.8870 0.8890 0.8890 0.8890
30.683000 0.8870 0.8870 0.8870 0.8860 0.8860
30.770593 0.8820 0.8820 0.8800 0.8800 0.8800
30.858000 0.8790 0.8790 0.8790 0.8790 0.8790
30.945593 0.8790 0.8800 0.8840 0.8870 0.8870
31.033000 0.8890 0.8910 0.8930 0.8950 0.8950
31.120593 0.8930 0.8890 0.8870 0.8860 0.8840
31.208000 0.8840 0.8840 0.8820 0.8800 0.8790
31.295593 0.8790 0.8790 0.8790 0.8790 0.8790
31.383000 0.8790 0.8770 0.8770 0.8750 0.8730
31.470593 0.8710 0.8700 0.8700 0.8680 0.8680
31.558000 0.8680 0.8660 0.8640 0.8620 0.8610
31.645593 0.8610 0.8610 0.8590 0.8590 0.8570
31.733000 0.8570 0.8570 0.8590 0.8590 0.8590
31.820593 0.8520 0.8460 0.8450 0.8460 0.8520
31.908000 0.8550 0.8570 0.8590 0.8590 0.8590
31.995593 0.8590 0.8570 0.8550 0.8550 0.8540
32.083000 0.8540 0.8540 0.8520 0.8500 0.8500
32.170593 0.8500 0.8500 0.8500 0.8500 0.8500
32.258000 0.8500 0.8480 0.8480 0.8460 0.8460
32.345593 0.8450 0.8450 0.8450 0.8430 0.8410
32.433000 0.8390 0.8390 0.8390 0.8390 0.8380
32.520593 0.8380 0.8380 0.8360 0.8320 0.8300
32.608000 0.8300 0.8300 0.8300 0.8300 0.8320
32.695593 0.8320 0.8290 0.8290 0.8270 0.8250
32.783000 0.8250 0.8250 0.8250 0.8250 0.8250
32.870593 0.8250 0.8250 0.8250 0.8230 0.8230
32.958000 0.8220 0.8180 0.8140 0.8110 0.8090
33.045593 0.8070 0.8060 0.8020 0.8000 0.8000
33.133000 0.8000 0.8000 0.8000 0.8000 0.8000
33.220593 0.8000 0.7980 0.7980 0.7980 0.7970
33.309000 0.7950 0.7930 0.7910 0.7900 0.7900
33.396593 0.7900 0.7900 0.7880 0.7880 0.7860
33.484000 0.7840 0.7820 0.7820 0.7810 0.7810
33.571593 0.7790 0.7770 0.7750 0.7750 0.7750
33.659000 0.7770 0.7770 0.7750 0.7740 0.7720
33.746593 0.7700 0.7680 0.7680 0.7680 0.7680
33.834000 0.7680 0.7680 0.7680 0.7660 0.7660
33.921593 0.7650 0.7660 0.7650 0.7650 0.7650
34.009000 0.7650 0.7650 0.7630 0.7630 0.7630
34.096593 0.7630 0.7630 0.7630 0.7610 0.7610
34.184000 0.7630 0.7630 0.7650 0.7650 0.7650
34.271593 0.7630 0.7610 0.7580 0.7540 0.7540
34.359000 0.7500 0.7490 0.7430 0.7410 0.7400
34.446593 0.7400 0.7400 0.7380 0.7360 0.7340
34.534000 0.7340 0.7310 0.7310 0.7290 0.7290
34.621593 0.7270 0.7250 0.7250 0.7250 0.7240
34.709000 0.7240 0.7220 0.7220 0.7200 0.7200
34.796593 0.7180 0.7180 0.7180 0.7180 0.7180
34.884000 0.7170 0.7170 0.7150 0.7150 0.7150
34.971593 0.7150 0.7150 0.7130 0.7110 0.7110
35.059000 0.7110 0.7110 0.7110 0.7110 0.7110
35.146593 0.7090 0.7090 0.7090 0.7080 0.7060
35.234000 0.7060 0.7020 0.7020 0.7060 0.7060
35.321593 0.7080 0.7080 0.7080 0.7060 0.7040
35.409000 0.7020 0.7020 0.7020 0.7020 0.7040
35.496593 0.7040 0.7060 0.7080 0.7080 0.7060
35.584000 0.7060 0.7080 0.7080 0.7060 0.7060
35.671593 0.7060 0.7040 0.7040 0.7040 0.7020
35.759000 0.7020 0.7020 0.7020 0.7010 0.7010
35.846593 0.6990 0.6990 0.6990 0.6990 0.6990
35.934000 0.6990 0.6990 0.6970 0.6970 0.6950
36.021593 0.6950 0.6950 0.6950 0.6920 0.6900
36.109000 0.6900 0.6880 0.6880 0.6850 0.6850
36.196593 0.6850 0.6830 0.6810 0.6790 0.6790
36.284000 0.6770 0.6760 0.6740 0.6720 0.6700
36.371593 0.6670 0.6670 0.6670 0.6670 0.6650
36.460000 0.6630 0.6610 0.6600 0.6580 0.6560
36.547593 0.6540 0.6540 0.6530 0.6530 0.6510
36.635000 0.6510 0.6510 0.6510 0.6510 0.6510
36.722593 0.6510 0.6470 0.6450 0.6450 0.6420
36.810000 0.6380 0.6380 0.6370 0.6350 0.6330
36.897593 0.6310 0.6310 0.6310 0.6310 0.6290
36.985000 0.6280 0.6280 0.6260 0.6240 0.6240
37.072593 0.6240 0.6220 0.6220 0.6200 0.6200
37.160000 0.6200 0.6200 0.6200 0.6200 0.6190
37.247593 0.6190 0.6190 0.6190 0.6170 0.6170
37.335000 0.6150 0.6150 0.6170 0.6170 0.6150
37.422593 0.6150 0.6170 0.6170 0.6170 0.6170
37.510000 0.6170 0.6170 0.6190 0.6190 0.6190
37.597593 0.6200 0.6200 0.6200 0.6200 0.6220
37.685000 0.6240 0.6240 0.6240 0.6240 0.6260
37.772593 0.6260 0.6260 0.6260 0.6260 0.6260
37.860000 0.6260 0.6260 0.6260 0.6260 0.6280
37.947593 0.6280 0.6290 0.6290 0.6290
##END=
