##TITLE=ETHANE, 1,2-DIIODO-
##JCAMP-DX=4.24
##DATA TYPE=INFRARED SPECTRUM
##CLASS=COBLENTZ III
##ORIGIN=DOW CHEMICAL COMPANY
##OWNER=COBLENTZ SOCIETY
Collection (C) 2018 copyright by the U.S. Secretary of Commerce
on behalf of the United States of America. All rights reserved.
##DATE=1964/05/04
##NAMES=1,2-diiodoethane
##CAS REGISTRY NO=624-73-7
##MOLFORM=C2 H4 I2
##SOURCE REFERENCE=COBLENTZ NO. 10017
##$NIST SOURCE=COBLENTZ
##$NIST IMAGE=cob10017
##SPECTROMETER/DATA SYSTEM=DOW KBr FOREPRISM-GRATING
##INSTRUMENT PARAMETERS=BLAZED AT 3.5, 12.0, 20.0 MICRON, CHANGED AT 5.0, 7.5, 14.9 MICRON
##STATE=SOLUTION (10% IN CCl4 FOR 3800-1340, AND 10% IN CS2 FOR 1340-450 CM^-^1)
##PATH LENGTH=0.011, 0.011 CM
$$SPECTRAL CONTAMINATION DUE TO CCl4 AROUND 1550, AND CS2 AROUND 855 CM^-^1
##SAMPLING PROCEDURE=TRANSMISSION
##RESOLUTION=4
##DATA PROCESSING=DIGITIZED BY NIST FROM HARD COPY (FROM TWO SEGMENTS)
##XUNITS=1/CM
##YUNITS=TRANSMITTANCE
##XFACTOR=1.000000
##YFACTOR=1
##DELTAX=0.869566
##FIRSTX=450.435
##LASTX=3795.65
##FIRSTY=0.919
##MAXX=3795.65
##MINX=450.435
##MAXY=1.006
##MINY=0.0582973
##NPOINTS=3848
##XYDATA=(X++(Y..Y))
450.435000 0.9190 0.9190 0.9190 0.9190 0.9190
454.782829 0.9190 0.9200 0.9220 0.9220 0.9230
459.130657 0.9230 0.9260 0.9260 0.9270 0.9270
463.478486 0.9290 0.9290 0.9290 0.9300 0.9300
467.826314 0.9310 0.9310 0.9310 0.9330 0.9340
472.174143 0.9350 0.9370 0.9370 0.9370 0.9370
476.521971 0.9380 0.9380 0.9400 0.9400 0.9400
480.869800 0.9410 0.9400 0.9400 0.9400 0.9400
485.217629 0.9400 0.9400 0.9400 0.9380 0.9380
489.565457 0.9380 0.9370 0.9330 0.9290 0.9270
493.913286 0.9230 0.9190 0.9150 0.9120 0.9040
498.261114 0.8960 0.8910 0.8691 0.8471 0.8261
502.608943 0.8050 0.7830 0.7600 0.7281 0.6931
506.956772 0.6192 0.5911 0.5641 0.5003 0.4632
511.304600 0.3890 0.3890 0.4980 0.5240 0.6109
515.652429 0.7158 0.8167 0.8778 0.8989 0.9119
520.000257 0.9230 0.9370 0.9420 0.9460 0.9480
524.348086 0.9520 0.9560 0.9570 0.9570 0.9590
528.695914 0.9600 0.9600 0.9610 0.9630 0.9640
533.043743 0.9640 0.9650 0.9670 0.9700 0.9710
537.391572 0.9710 0.9720 0.9750 0.9760 0.9780
541.739400 0.9790 0.9790 0.9790 0.9800 0.9790
546.087229 0.9790 0.9800 0.9800 0.9800 0.9820
550.435057 0.9850 0.9860 0.9870 0.9870 0.9870
554.782886 0.9890 0.9890 0.9890 0.9890 0.9890
559.130715 0.9890 0.9900 0.9900 0.9910 0.9910
563.478543 0.9910 0.9910 0.9930 0.9940 0.9950
567.826372 0.9950 0.9970 0.9950 0.9950 0.9950
572.174200 0.9950 0.9950 0.9940 0.9930 0.9930
576.522029 0.9910 0.9890 0.9860 0.9860 0.9820
580.869857 0.9800 0.9860 0.9870 0.9870 0.9890
585.217686 0.9930 0.9940 0.9940 0.9940 0.9940
589.565515 0.9940 0.9940 0.9940 0.9940 0.9940
593.913343 0.9940 0.9940 0.9940 0.9970 0.9980
598.261172 1.0000 1.0010 1.0020 1.0020 1.0020
602.609000 1.0010 1.0010 1.0010 1.0010 1.0000
606.956829 1.0000 0.9970 0.9970 0.9970 0.9950
611.304658 0.9940 0.9940 0.9930 0.9930 0.9930
615.652486 0.9930 0.9930 0.9930 0.9930 0.9930
620.000315 0.9930 0.9950 0.9950 0.9940 0.9940
624.348143 0.9930 0.9930 0.9910 0.9890 0.9870
628.695972 0.9860 0.9860 0.9830 0.9830 0.9820
633.043800 0.9820 0.9800 0.9790 0.9750 0.9700
637.391629 0.9670 0.9640 0.9640 0.9630 0.9600
641.739458 0.9590 0.9560 0.9500 0.9480 0.9460
646.087286 0.9450 0.9440 0.9420 0.9420 0.9410
650.435115 0.9400 0.9370 0.9350 0.9350 0.9340
654.782943 0.9310 0.9310 0.9300 0.9310 0.9330
659.130772 0.9340 0.9380 0.9420 0.9480 0.9530
663.478601 0.9560 0.9570 0.9600 0.9600 0.9610
667.826429 0.9700 0.9610 0.9600 0.9600 0.9590
672.174258 0.9640 0.9710 0.9610 0.9590 0.9590
676.522086 0.9630 0.9650 0.9700 0.9720 0.9740
680.869915 0.9740 0.9710 0.9670 0.9640 0.9640
685.217743 0.9650 0.9670 0.9680 0.9680 0.9680
689.565572 0.9670 0.9640 0.9630 0.9630 0.9630
693.913401 0.9630 0.9630 0.9610 0.9600 0.9590
698.261229 0.9590 0.9590 0.9600 0.9600 0.9600
702.609058 0.9590 0.9590 0.9590 0.9570 0.9560
706.956886 0.9560 0.9550 0.9520 0.9490 0.9460
711.304715 0.9420 0.9410 0.9380 0.9370 0.9350
715.652544 0.9340 0.9290 0.9230 0.9180 0.9160
720.000372 0.9120 0.9070 0.9000 0.8930 0.8920
724.348201 0.8920 0.8930 0.8930 0.8960 0.9000
728.696029 0.9110 0.9180 0.9250 0.9330 0.9350
733.043858 0.9420 0.9460 0.9490 0.9500 0.9530
737.391686 0.9570 0.9590 0.9600 0.9630 0.9650
741.739515 0.9670 0.9670 0.9680 0.9700 0.9710
746.087344 0.9720 0.9740 0.9750 0.9780 0.9780
750.435172 0.9790 0.9790 0.9790 0.9790 0.9790
754.783001 0.9790 0.9790 0.9790 0.9790 0.9800
759.130829 0.9800 0.9820 0.9830 0.9850 0.9850
763.478658 0.9850 0.9850 0.9850 0.9850 0.9850
767.826487 0.9850 0.9850 0.9850 0.9850 0.9820
772.174315 0.9800 0.9790 0.9790 0.9790 0.9750
776.522144 0.9710 0.9650 0.9600 0.9530 0.9500
780.869972 0.9500 0.9520 0.9570 0.9590 0.9610
785.217801 0.9640 0.9680 0.9710 0.9740 0.9760
789.565629 0.9760 0.9760 0.9760 0.9760 0.9780
793.913458 0.9780 0.9790 0.9790 0.9790 0.9790
798.261287 0.9800 0.9800 0.9800 0.9800 0.9790
802.609115 0.9790 0.9780 0.9760 0.9760 0.9760
806.956944 0.9760 0.9760 0.9760 0.9760 0.9760
811.304772 0.9790 0.9800 0.9800 0.9800 0.9820
815.652601 0.9820 0.9820 0.9800 0.9800 0.9800
820.000430 0.9800 0.9790 0.9740 0.9740 0.9740
824.348258 0.9740 0.9720 0.9720 0.9720 0.9710
828.696087 0.9700 0.9680 0.9650 0.9600 0.9590
833.043915 0.9570 0.9520 0.9480 0.9410 0.9370
837.391744 0.9290 0.9200 0.9160 0.9110 0.9030
841.739572 0.8960 0.8910 0.8780 0.8650 0.8550
846.087401 0.8440 0.8390 0.8350 0.8320 0.8210
850.435230 0.8110 0.8010 0.7980 0.7970 0.7970
854.783058 0.7980 0.7990 0.8020 0.8030 0.8070
859.130887 0.8140 0.8160 0.8210 0.8280 0.8320
863.478715 0.8330 0.8360 0.8400 0.8440 0.8480
867.826544 0.8520 0.8550 0.8580 0.8610 0.8670
872.174373 0.8710 0.8730 0.8740 0.8800 0.8820
876.522201 0.8850 0.8920 0.8930 0.8950 0.9010
880.870030 0.9080 0.9150 0.9200 0.9230 0.9270
885.217858 0.9350 0.9400 0.9440 0.9460 0.9500
889.565687 0.9560 0.9590 0.9630 0.9650 0.9680
893.913515 0.9710 0.9720 0.9740 0.9750 0.9790
898.261344 0.9800 0.9820 0.9850 0.9860 0.9860
902.609173 0.9860 0.9860 0.9860 0.9870 0.9890
906.957001 0.9890 0.9890 0.9890 0.9890 0.9890
911.304830 0.9900 0.9910 0.9930 0.9930 0.9940
915.652658 0.9940 0.9940 0.9950 0.9950 0.9950
920.000487 0.9950 0.9980 1.0000 1.0010 1.0010
924.348316 1.0010 1.0010 1.0010 1.0010 1.0010
928.696144 1.0010 1.0010 1.0020 1.0020 1.0020
933.043973 1.0020 1.0010 1.0010 1.0010 1.0010
937.391801 1.0010 1.0020 1.0040 1.0040 1.0040
941.739630 1.0020 1.0020 1.0020 1.0040 1.0040
946.087458 1.0040 1.0040 1.0040 1.0040 1.0040
950.435287 1.0040 1.0040 1.0040 1.0040 1.0040
954.783116 1.0040 1.0040 1.0040 1.0040 1.0040
959.130944 1.0040 1.0040 1.0040 1.0040 1.0040
963.478773 1.0020 1.0020 1.0020 1.0020 1.0010
967.826601 1.0010 1.0020 1.0040 1.0040 1.0050
972.174430 1.0050 1.0050 1.0050 1.0050 1.0050
976.522259 1.0060 1.0060 1.0060 1.0050 1.0040
980.870087 1.0040 1.0020 1.0020 1.0020 1.0020
985.217916 1.0020 1.0020 1.0020 1.0020 1.0020
989.565744 1.0040 1.0040 1.0020 1.0020 1.0020
993.913573 1.0020 1.0020 1.0010 1.0010 1.0010
998.261401 1.0010 1.0010 1.0010 1.0010 1.0010
1002.609230 1.0000 0.9980 0.9970 0.9970 0.9970
1006.957059 0.9970 0.9970 0.9970 0.9970 0.9980
1011.304887 0.9980 0.9950 0.9940 0.9940 0.9940
1015.652716 0.9940 0.9940 0.9950 0.9950 0.9970
1020.000544 0.9970 0.9970 0.9950 0.9940 0.9930
1024.348373 0.9910 0.9910 0.9900 0.9900 0.9900
1028.696202 0.9900 0.9890 0.9890 0.9870 0.9870
1033.044030 0.9860 0.9860 0.9850 0.9830 0.9820
1037.391859 0.9820 0.9800 0.9790 0.9780 0.9750
1041.739687 0.9720 0.9720 0.9710 0.9680 0.9670
1046.087516 0.9640 0.9610 0.9590 0.9570 0.9550
1050.435344 0.9530 0.9530 0.9550 0.9560 0.9590
1054.783173 0.9610 0.9640 0.9670 0.9720 0.9750
1059.131002 0.9780 0.9790 0.9790 0.9780 0.9760
1063.478830 0.9760 0.9760 0.9780 0.9790 0.9790
1067.826659 0.9790 0.9790 0.9790 0.9780 0.9760
1072.174487 0.9750 0.9740 0.9740 0.9740 0.9740
1076.522316 0.9740 0.9740 0.9720 0.9710 0.9710
1080.870145 0.9720 0.9720 0.9740 0.9740 0.9750
1085.217973 0.9750 0.9750 0.9750 0.9750 0.9750
1089.565802 0.9750 0.9790 0.9790 0.9790 0.9790
1093.913630 0.9800 0.9800 0.9800 0.9820 0.9820
1098.261459 0.9820 0.9820 0.9820 0.9820 0.9830
1102.609287 0.9830 0.9830 0.9830 0.9830 0.9820
1106.957116 0.9800 0.9800 0.9800 0.9800 0.9790
1111.304945 0.9790 0.9780 0.9750 0.9740 0.9720
1115.652773 0.9700 0.9680 0.9640 0.9600 0.9570
1120.000602 0.9550 0.9500 0.9450 0.9350 0.9270
1124.348430 0.9190 0.9140 0.8951 0.8811 0.8541
1128.696259 0.8390 0.7920 0.7460 0.5922 0.4852
1133.044088 0.3653 0.1985 0.1293 0.0583 0.1356
1137.391916 0.2872 0.4300 0.4410 0.5889 0.6729
1141.739745 0.7898 0.8020 0.8319 0.8768 0.8969
1146.087573 0.9150 0.9230 0.9290 0.9380 0.9440
1150.435402 0.9460 0.9500 0.9550 0.9600 0.9650
1154.783230 0.9670 0.9680 0.9650 0.9610 0.9590
1159.131059 0.9560 0.9560 0.9590 0.9670 0.9740
1163.478888 0.9750 0.9790 0.9800 0.9820 0.9820
1167.826716 0.9830 0.9830 0.9830 0.9850 0.9860
1172.174545 0.9870 0.9890 0.9890 0.9870 0.9860
1176.522373 0.9830 0.9800 0.9750 0.9720 0.9710
1180.870202 0.9720 0.9760 0.9790 0.9790 0.9800
1185.218030 0.9800 0.9790 0.9790 0.9760 0.9750
1189.565859 0.9740 0.9700 0.9630 0.9590 0.9570
1193.913688 0.9450 0.9350 0.9180 0.9150 0.9011
1198.261516 0.8890 0.8770 0.8700 0.8320 0.8699
1202.609345 0.9109 0.9220 0.9330 0.9569 0.9650
1206.957173 0.9710 0.9790 0.9820 0.9850 0.9870
1211.305002 0.9900 0.9930 0.9930 0.9950 0.9950
1215.652831 0.9970 0.9970 0.9970 0.9970 0.9970
1220.000659 0.9970 0.9980 0.9980 1.0000 1.0000
1224.348488 1.0000 1.0000 1.0000 0.9980 0.9980
1228.696316 0.9970 0.9970 0.9950 0.9940 0.9910
1233.044145 0.9900 0.9870 0.9860 0.9830 0.9790
1237.391973 0.9740 0.9650 0.9590 0.9590 0.9610
1241.739802 0.9650 0.9680 0.9700 0.9710 0.9720
1246.087631 0.9720 0.9720 0.9720 0.9720 0.9720
1250.435459 0.9720 0.9760 0.9720 0.9740 0.9740
1254.783288 0.9780 0.9780 0.9780 0.9780 0.9780
1259.131116 0.9760 0.9760 0.9790 0.9790 0.9750
1263.478945 0.9750 0.9750 0.9750 0.9750 0.9750
1267.826774 0.9750 0.9750 0.9760 0.9760 0.9780
1272.174602 0.9760 0.9780 0.9780 0.9790 0.9800
1276.522431 0.9800 0.9800 0.9800 0.9800 0.9800
1280.870259 0.9800 0.9820 0.9820 0.9820 0.9820
1285.218088 0.9800 0.9800 0.9800 0.9790 0.9790
1289.565916 0.9780 0.9760 0.9750 0.9740 0.9740
1293.913745 0.9740 0.9750 0.9780 0.9780 0.9790
1298.261574 0.9800 0.9800 0.9800 0.9800 0.9790
1302.609402 0.9750 0.9750 0.9750 0.9750 0.9750
1306.957231 0.9750 0.9750 0.9750 0.9750 0.9750
1311.305059 0.9750 0.9750 0.9750 0.9760 0.9780
1315.652888 0.9780 0.9780 0.9780 0.9780 0.9780
1320.000717 0.9780 0.9780 0.9760 0.9750 0.9750
1324.348545 0.9760 0.9750 0.9750 0.9750 0.9740
1328.696374 0.9740 0.9740 0.9720 0.9720 0.9720
1333.044202 0.9710 0.9710 0.9710 0.9710 0.9700
1337.392031 0.9680 0.9680 0.9700 0.9710 0.9710
1341.739859 0.9720 0.9720 0.9720 0.9720 0.9740
1346.087688 0.9740 0.9740 0.9740 0.9740 0.9740
1350.435517 0.9740 0.9750 0.9760 0.9780 0.9780
1354.783345 0.9790 0.9830 0.9850 0.9850 0.9850
1359.131174 0.9850 0.9850 0.9830 0.9830 0.9820
1363.479002 0.9800 0.9800 0.9790 0.9780 0.9740
1367.826831 0.9740 0.9720 0.9720 0.9700 0.9670
1372.174660 0.9650 0.9650 0.9650 0.9640 0.9630
1376.522488 0.9610 0.9610 0.9600 0.9600 0.9600
1380.870317 0.9590 0.9570 0.9570 0.9570 0.9570
1385.218145 0.9570 0.9570 0.9570 0.9570 0.9570
1389.565974 0.9570 0.9570 0.9570 0.9570 0.9570
1393.913802 0.9590 0.9590 0.9570 0.9570 0.9570
1398.261631 0.9560 0.9560 0.9550 0.9530 0.9520
1402.609460 0.9500 0.9490 0.9480 0.9480 0.9480
1406.957288 0.9460 0.9450 0.9420 0.9400 0.9370
1411.305117 0.9340 0.9340 0.9300 0.9260 0.9230
1415.652945 0.9180 0.9150 0.9140 0.9120 0.9120
1420.000774 0.9080 0.9040 0.8990 0.8950 0.8930
1424.348603 0.8840 0.8730 0.8520 0.8370 0.8031
1428.696431 0.7830 0.7730 0.7271 0.6732 0.6630
1433.044260 0.7021 0.7371 0.8160 0.8520 0.8730
1437.392088 0.8810 0.8930 0.9000 0.9040 0.9140
1441.739917 0.9160 0.9220 0.9230 0.9250 0.9270
1446.087745 0.9290 0.9310 0.9330 0.9340 0.9340
1450.435574 0.9350 0.9370 0.9380 0.9400 0.9410
1454.783403 0.9410 0.9410 0.9410 0.9410 0.9410
1459.131231 0.9400 0.9400 0.9370 0.9350 0.9340
1463.479060 0.9340 0.9350 0.9350 0.9370 0.9370
1467.826888 0.9370 0.9350 0.9350 0.9350 0.9340
1472.174717 0.9340 0.9330 0.9310 0.9290 0.9270
1476.522546 0.9260 0.9230 0.9220 0.9190 0.9190
1480.870374 0.9160 0.9140 0.9120 0.9110 0.9100
1485.218203 0.9070 0.9050 0.9030 0.8990 0.8950
1489.566031 0.8930 0.8890 0.8840 0.8820 0.8770
1493.913860 0.8730 0.8710 0.8650 0.8590 0.8550
1498.261688 0.8520 0.8480 0.8460 0.8400 0.8330
1502.609517 0.8240 0.8170 0.8140 0.8060 0.7990
1506.957346 0.7950 0.7860 0.7820 0.7790 0.7710
1511.305174 0.7620 0.7600 0.7490 0.7430 0.7370
1515.653003 0.7310 0.7280 0.7260 0.7200 0.7160
1520.000831 0.7090 0.7010 0.6960 0.6920 0.6880
1524.348660 0.6830 0.6790 0.6770 0.6750 0.6670
1528.696489 0.6630 0.6600 0.6520 0.6450 0.6330
1533.044317 0.6320 0.6180 0.6080 0.6020 0.5920
1537.392146 0.5830 0.5740 0.5610 0.5460 0.5290
1541.739974 0.5190 0.5130 0.5020 0.4910 0.4890
1546.087803 0.4790 0.4710 0.4670 0.4640 0.4600
1550.435631 0.4570 0.4560 0.4570 0.4590 0.4600
1554.783460 0.4650 0.4670 0.4720 0.4790 0.4890
1559.131289 0.4950 0.5020 0.5130 0.5250 0.5360
1563.479117 0.5420 0.5510 0.5620 0.5680 0.5760
1567.826946 0.5890 0.5950 0.6020 0.6100 0.6210
1572.174774 0.6260 0.6320 0.6330 0.6360 0.6400
1576.522603 0.6450 0.6470 0.6480 0.6490 0.6510
1580.870432 0.6520 0.6560 0.6580 0.6590 0.6600
1585.218260 0.6630 0.6670 0.6770 0.6790 0.6850
1589.566089 0.6900 0.7000 0.7090 0.7220 0.7240
1593.913917 0.7280 0.7420 0.7470 0.7600 0.7680
1598.261746 0.7820 0.7910 0.8010 0.8140 0.8250
1602.609574 0.8350 0.8430 0.8510 0.8540 0.8590
1606.957403 0.8660 0.8730 0.8760 0.8800 0.8840
1611.305232 0.8920 0.8960 0.9000 0.9040 0.9080
1615.653060 0.9140 0.9150 0.9180 0.9200 0.9250
1620.000889 0.9260 0.9290 0.9310 0.9350 0.9350
1624.348717 0.9350 0.9370 0.9380 0.9410 0.9420
1628.696546 0.9450 0.9450 0.9450 0.9460 0.9480
1633.044375 0.9490 0.9500 0.9500 0.9520 0.9520
1637.392203 0.9530 0.9530 0.9530 0.9530 0.9560
1641.740032 0.9560 0.9560 0.9560 0.9560 0.9560
1646.087860 0.9570 0.9570 0.9590 0.9590 0.9590
1650.435689 0.9600 0.9590 0.9590 0.9600 0.9600
1654.783517 0.9600 0.9610 0.9630 0.9630 0.9640
1659.131346 0.9640 0.9640 0.9650 0.9650 0.9630
1663.479175 0.9610 0.9610 0.9600 0.9590 0.9590
1667.827003 0.9590 0.9590 0.9590 0.9600 0.9610
1672.174832 0.9610 0.9610 0.9630 0.9630 0.9630
1676.522660 0.9630 0.9640 0.9640 0.9640 0.9640
1680.870489 0.9640 0.9640 0.9640 0.9640 0.9640
1685.218318 0.9640 0.9630 0.9630 0.9630 0.9630
1689.566146 0.9630 0.9630 0.9630 0.9610 0.9590
1693.913975 0.9590 0.9590 0.9590 0.9590 0.9590
1698.261803 0.9590 0.9590 0.9590 0.9600 0.9590
1702.609632 0.9570 0.9560 0.9550 0.9550 0.9550
1706.957460 0.9550 0.9560 0.9570 0.9570 0.9590
1711.305289 0.9610 0.9640 0.9650 0.9650 0.9650
1715.653118 0.9650 0.9650 0.9650 0.9650 0.9650
1720.000946 0.9650 0.9650 0.9650 0.9650 0.9650
1724.348775 0.9650 0.9650 0.9650 0.9650 0.9650
1728.696603 0.9650 0.9640 0.9640 0.9640 0.9640
1733.044432 0.9640 0.9640 0.9640 0.9640 0.9640
1737.392261 0.9640 0.9630 0.9630 0.9610 0.9610
1741.740089 0.9610 0.9600 0.9600 0.9600 0.9610
1746.087918 0.9610 0.9630 0.9630 0.9630 0.9630
1750.435746 0.9630 0.9630 0.9630 0.9610 0.9610
1754.783575 0.9610 0.9600 0.9600 0.9600 0.9600
1759.131403 0.9590 0.9590 0.9590 0.9590 0.9600
1763.479232 0.9600 0.9610 0.9630 0.9630 0.9640
1767.827061 0.9640 0.9640 0.9640 0.9640 0.9630
1772.174889 0.9630 0.9640 0.9640 0.9640 0.9640
1776.522718 0.9640 0.9640 0.9630 0.9630 0.9630
1780.870546 0.9630 0.9630 0.9610 0.9600 0.9600
1785.218375 0.9600 0.9600 0.9600 0.9590 0.9590
1789.566204 0.9600 0.9610 0.9610 0.9610 0.9610
1793.914032 0.9610 0.9610 0.9610 0.9610 0.9610
1798.261861 0.9600 0.9600 0.9600 0.9600 0.9600
1802.609689 0.9600 0.9600 0.9600 0.9600 0.9600
1806.957518 0.9590 0.9590 0.9590 0.9570 0.9570
1811.305346 0.9570 0.9570 0.9570 0.9570 0.9570
1815.653175 0.9570 0.9560 0.9560 0.9560 0.9560
1820.001004 0.9560 0.9570 0.9570 0.9570 0.9570
1824.348832 0.9570 0.9570 0.9570 0.9570 0.9570
1828.696661 0.9560 0.9560 0.9550 0.9550 0.9550
1833.044489 0.9550 0.9550 0.9550 0.9560 0.9560
1837.392318 0.9560 0.9560 0.9560 0.9560 0.9560
1841.740147 0.9530 0.9530 0.9530 0.9530 0.9520
1846.087975 0.9520 0.9520 0.9520 0.9520 0.9500
1850.435804 0.9500 0.9520 0.9530 0.9530 0.9520
1854.783632 0.9520 0.9500 0.9500 0.9500 0.9500
1859.131461 0.9500 0.9500 0.9500 0.9550 0.9560
1863.479289 0.9560 0.9560 0.9560 0.9560 0.9560
1867.827118 0.9560 0.9530 0.9520 0.9520 0.9520
1872.174947 0.9530 0.9560 0.9560 0.9560 0.9560
1876.522775 0.9560 0.9560 0.9560 0.9570 0.9570
1880.870604 0.9570 0.9570 0.9560 0.9560 0.9550
1885.218432 0.9550 0.9560 0.9560 0.9570 0.9570
1889.566261 0.9590 0.9590 0.9590 0.9590 0.9590
1893.914090 0.9590 0.9570 0.9560 0.9560 0.9560
1898.261918 0.9560 0.9560 0.9550 0.9570 0.9570
1902.609747 0.9560 0.9560 0.9560 0.9570 0.9570
1906.957575 0.9570 0.9570 0.9570 0.9570 0.9570
1911.305404 0.9560 0.9550 0.9550 0.9560 0.9560
1915.653232 0.9560 0.9560 0.9560 0.9570 0.9570
1920.001061 0.9570 0.9570 0.9560 0.9550 0.9560
1924.348890 0.9560 0.9570 0.9590 0.9590 0.9590
1928.696718 0.9590 0.9590 0.9590 0.9570 0.9570
1933.044547 0.9560 0.9560 0.9560 0.9560 0.9560
1937.392375 0.9560 0.9560 0.9560 0.9550 0.9570
1941.740204 0.9570 0.9560 0.9560 0.9560 0.9570
1946.088032 0.9570 0.9570 0.9570 0.9570 0.9560
1950.435861 0.9560 0.9560 0.9570 0.9570 0.9570
1954.783690 0.9570 0.9570 0.9570 0.9570 0.9570
1959.131518 0.9560 0.9560 0.9560 0.9570 0.9560
1963.479347 0.9560 0.9550 0.9550 0.9550 0.9550
1967.827175 0.9550 0.9560 0.9560 0.9560 0.9570
1972.175004 0.9570 0.9530 0.9530 0.9530 0.9530
1976.522833 0.9530 0.9550 0.9550 0.9560 0.9550
1980.870661 0.9560 0.9570 0.9560 0.9560 0.9560
1985.218490 0.9560 0.9550 0.9550 0.9550 0.9550
1989.566318 0.9550 0.9550 0.9570 0.9560 0.9530
1993.914147 0.9520 0.9500 0.9490 0.9460 0.9460
1998.261975 0.9480 0.9520 0.9520 0.9525 0.9530
2002.609804 0.9545 0.9560 0.9565 0.9570 0.9570
2006.957633 0.9570 0.9580 0.9590 0.9590 0.9590
2011.305461 0.9634 0.9679 0.9695 0.9710 0.9715
2015.653290 0.9720 0.9720 0.9720 0.9720 0.9720
2020.001118 0.9720 0.9720 0.9720 0.9720 0.9730
2024.348947 0.9740 0.9740 0.9740 0.9750 0.9760
2028.696776 0.9760 0.9760 0.9760 0.9760 0.9769
2033.044604 0.9779 0.9780 0.9780 0.9780 0.9780
2037.392433 0.9785 0.9790 0.9790 0.9790 0.9790
2041.740261 0.9790 0.9790 0.9790 0.9790 0.9790
2046.088090 0.9790 0.9790 0.9790 0.9790 0.9785
2050.435918 0.9780 0.9780 0.9780 0.9771 0.9761
2054.783747 0.9760 0.9760 0.9760 0.9760 0.9760
2059.131576 0.9760 0.9755 0.9750 0.9750 0.9750
2063.479404 0.9750 0.9750 0.9750 0.9750 0.9750
2067.827233 0.9750 0.9750 0.9750 0.9750 0.9750
2072.175061 0.9755 0.9760 0.9755 0.9750 0.9750
2076.522890 0.9750 0.9750 0.9750 0.9750 0.9750
2080.870719 0.9750 0.9750 0.9750 0.9750 0.9754
2085.218547 0.9759 0.9760 0.9760 0.9760 0.9760
2089.566376 0.9760 0.9760 0.9760 0.9760 0.9769
2093.914204 0.9779 0.9784 0.9789 0.9790 0.9790
2098.262033 0.9790 0.9790 0.9790 0.9790 0.9794
2102.609861 0.9799 0.9796 0.9791 0.9790 0.9790
2106.957690 0.9790 0.9790 0.9790 0.9790 0.9794
2111.305519 0.9799 0.9800 0.9800 0.9791 0.9781
2115.653347 0.9780 0.9780 0.9771 0.9761 0.9760
2120.001176 0.9760 0.9760 0.9760 0.9760 0.9760
2124.349004 0.9773 0.9788 0.9790 0.9790 0.9790
2128.696833 0.9790 0.9790 0.9790 0.9790 0.9790
2133.044662 0.9786 0.9781 0.9780 0.9780 0.9780
2137.392490 0.9780 0.9780 0.9780 0.9780 0.9780
2141.740319 0.9780 0.9780 0.9767 0.9752 0.9746
2146.088147 0.9741 0.9740 0.9740 0.9732 0.9722
2150.435976 0.9716 0.9711 0.9710 0.9710 0.9710
2154.783804 0.9710 0.9710 0.9710 0.9714 0.9719
2159.131633 0.9728 0.9738 0.9740 0.9740 0.9748
2163.479462 0.9758 0.9768 0.9778 0.9780 0.9780
2167.827290 0.9780 0.9780 0.9780 0.9780 0.9772
2172.175119 0.9762 0.9760 0.9760 0.9756 0.9751
2176.522947 0.9750 0.9750 0.9750 0.9750 0.9750
2180.870776 0.9750 0.9762 0.9777 0.9780 0.9780
2185.218605 0.9780 0.9780 0.9780 0.9780 0.9780
2189.566433 0.9780 0.9772 0.9762 0.9760 0.9760
2193.914262 0.9760 0.9760 0.9760 0.9760 0.9760
2198.262090 0.9760 0.9760 0.9760 0.9756 0.9751
2202.609919 0.9746 0.9741 0.9740 0.9740 0.9740
