##TITLE=METHYL ISOCYANATE
##JCAMP-DX=4.24
##DATA TYPE=INFRARED SPECTRUM
##CLASS=COBLENTZ
##ORIGIN=DOW CHEMICAL COMPANY
##OWNER=COBLENTZ SOCIETY
Collection (C) 2018 copyright by the U.S. Secretary of Commerce
on behalf of the United States of America. All rights reserved.
##DATE=1971/04/13
##NAMES=(methylimino)(oxo)methane
##CAS REGISTRY NO=624-83-9
##MOLFORM=C2 H3 N O
##SOURCE REFERENCE=COBLENTZ NO. 10485
##$NIST SOURCE=COBLENTZ
##$NIST IMAGE=cob10485
##SPECTROMETER/DATA SYSTEM=BECKMAN IR-9 (GRATING)
##INSTRUMENT PARAMETERS=ORDER CHANGES AT 670, 1200, 2000 CM^-^1
##STATE=GAS (6 mmHg DILUTED WITH N2)
##PATH LENGTH=5 CM CELL
##SAMPLING PROCEDURE=TRANSMISSION
##RESOLUTION=4
##DATA PROCESSING=DIGITIZED BY NIST FROM HARD COPY (FROM TWO SEGMENTS)
##XUNITS=1/CM
##YUNITS=TRANSMITTANCE
##XFACTOR=1.000000
##YFACTOR=1
##DELTAX=0.874636
##FIRSTX=396.793
##LASTX=3793.01
##FIRSTY=0.723
##MAXX=3793.01
##MINX=396.793
##MAXY=1.009
##MINY=0.079
##NPOINTS=3884
##XYDATA=(X++(Y..Y))
396.793000 0.7230 0.7220 0.7190 0.7120 0.7050
401.166182 0.7010 0.6990 0.6960 0.6940 0.6920
405.539363 0.6880 0.6850 0.6830 0.6780 0.6680
409.912545 0.6620 0.6590 0.6590 0.6580 0.6580
414.285726 0.6560 0.6560 0.6550 0.6550 0.6550
418.658908 0.6550 0.6560 0.6560 0.6580 0.6590
423.032089 0.6590 0.6620 0.6640 0.6680 0.6740
427.405271 0.6790 0.6880 0.6920 0.7010 0.7080
431.778452 0.7110 0.7180 0.7250 0.7270 0.7330
436.151634 0.7400 0.7440 0.7460 0.7570 0.7610
440.524815 0.7700 0.7710 0.7750 0.7790 0.7830
444.897997 0.7870 0.7900 0.7940 0.7970 0.8030
449.271178 0.8080 0.8130 0.8160 0.8190 0.8200
453.644360 0.8240 0.8300 0.8330 0.8350 0.8410
458.017541 0.8420 0.8480 0.8520 0.8540 0.8560
462.390723 0.8570 0.8570 0.8610 0.8630 0.8670
466.763904 0.8700 0.8710 0.8720 0.8750 0.8760
471.137086 0.8780 0.8790 0.8820 0.8830 0.8850
475.510267 0.8870 0.8900 0.8910 0.8930 0.8930
479.883449 0.8960 0.8980 0.9010 0.9040 0.9050
484.256630 0.9060 0.9060 0.9060 0.9080 0.9110
488.629812 0.9120 0.9130 0.9150 0.9150 0.9160
493.002993 0.9170 0.9190 0.9220 0.9240 0.9260
497.376175 0.9260 0.9270 0.9270 0.9270 0.9270
501.749356 0.9280 0.9300 0.9310 0.9310 0.9320
506.122538 0.9340 0.9340 0.9350 0.9350 0.9370
510.495719 0.9380 0.9380 0.9390 0.9410 0.9410
514.868901 0.9410 0.9420 0.9420 0.9420 0.9430
519.242082 0.9430 0.9430 0.9430 0.9450 0.9450
523.615264 0.9450 0.9450 0.9460 0.9460 0.9480
527.988445 0.9480 0.9480 0.9490 0.9500 0.9520
532.361627 0.9530 0.9530 0.9530 0.9530 0.9530
536.734808 0.9530 0.9540 0.9540 0.9540 0.9540
541.107990 0.9540 0.9540 0.9540 0.9540 0.9540
545.481171 0.9540 0.9540 0.9540 0.9540 0.9540
549.854353 0.9540 0.9540 0.9540 0.9540 0.9530
554.227534 0.9530 0.9530 0.9530 0.9530 0.9530
558.600716 0.9530 0.9530 0.9530 0.9530 0.9530
562.973897 0.9520 0.9500 0.9500 0.9500 0.9500
567.347079 0.9490 0.9490 0.9480 0.9460 0.9450
571.720260 0.9430 0.9430 0.9420 0.9420 0.9420
576.093442 0.9410 0.9410 0.9410 0.9410 0.9390
580.466623 0.9390 0.9380 0.9380 0.9380 0.9370
584.839805 0.9350 0.9340 0.9320 0.9310 0.9270
589.212986 0.9220 0.9120 0.9050 0.9040 0.9020
593.586168 0.9020 0.9010 0.9010 0.9010 0.9010
597.959349 0.9010 0.9000 0.9000 0.8930 0.8900
602.332531 0.8900 0.8860 0.8850 0.8820 0.8820
606.705712 0.8800 0.8790 0.8790 0.8760 0.8740
611.078894 0.8720 0.8720 0.8720 0.8720 0.8720
615.452075 0.8720 0.8720 0.8720 0.8720 0.8710
619.825257 0.8700 0.8700 0.8680 0.8650 0.8640
624.198438 0.8610 0.8590 0.8530 0.8530 0.8570
628.571620 0.8700 0.8800 0.8860 0.8960 0.9010
632.944801 0.9040 0.9050 0.9060 0.9090 0.9110
637.317983 0.9110 0.9120 0.9120 0.9150 0.9160
641.691164 0.9190 0.9200 0.9220 0.9220 0.9230
646.064346 0.9240 0.9240 0.9260 0.9260 0.9270
650.437527 0.9310 0.9320 0.9320 0.9320 0.9320
654.810709 0.9320 0.9310 0.9310 0.9310 0.9300
659.183890 0.9300 0.9300 0.9300 0.9310 0.9310
663.557072 0.9320 0.9340 0.9350 0.9390 0.9430
667.930253 0.9450 0.9460 0.9480 0.9490 0.9490
672.303435 0.9490 0.9490 0.9490 0.9480 0.9450
676.676616 0.9420 0.9390 0.9370 0.9340 0.9320
681.049798 0.9310 0.9300 0.9300 0.9280 0.9280
685.422979 0.9280 0.9280 0.9300 0.9300 0.9310
689.796161 0.9310 0.9320 0.9320 0.9320 0.9320
694.169342 0.9320 0.9320 0.9320 0.9320 0.9320
698.542524 0.9320 0.9320 0.9320 0.9320 0.9340
702.915705 0.9340 0.9340 0.9340 0.9340 0.9340
707.288887 0.9340 0.9340 0.9340 0.9340 0.9340
711.662068 0.9340 0.9340 0.9340 0.9340 0.9340
716.035250 0.9340 0.9340 0.9340 0.9350 0.9340
720.408431 0.9320 0.9320 0.9320 0.9320 0.9320
724.781613 0.9320 0.9320 0.9320 0.9310 0.9310
729.154794 0.9310 0.9310 0.9310 0.9310 0.9310
733.527976 0.9310 0.9320 0.9310 0.9310 0.9310
737.901157 0.9310 0.9310 0.9320 0.9320 0.9320
742.274339 0.9320 0.9320 0.9320 0.9320 0.9320
746.647520 0.9320 0.9320 0.9320 0.9320 0.9320
751.020702 0.9320 0.9340 0.9340 0.9340 0.9340
755.393883 0.9340 0.9340 0.9340 0.9340 0.9340
759.767065 0.9340 0.9340 0.9340 0.9340 0.9340
764.140246 0.9340 0.9340 0.9340 0.9340 0.9340
768.513428 0.9320 0.9320 0.9320 0.9320 0.9320
772.886609 0.9310 0.9310 0.9310 0.9310 0.9310
777.259791 0.9310 0.9320 0.9340 0.9340 0.9340
781.632972 0.9340 0.9340 0.9340 0.9340 0.9350
786.006154 0.9350 0.9370 0.9370 0.9380 0.9380
790.379335 0.9380 0.9390 0.9380 0.9380 0.9380
794.752517 0.9380 0.9380 0.9380 0.9380 0.9380
799.125698 0.9380 0.9380 0.9380 0.9370 0.9370
803.498880 0.9370 0.9370 0.9350 0.9350 0.9350
807.872061 0.9350 0.9350 0.9350 0.9350 0.9350
812.245243 0.9350 0.9350 0.9350 0.9350 0.9350
816.618424 0.9350 0.9350 0.9350 0.9350 0.9350
820.991606 0.9350 0.9350 0.9370 0.9370 0.9370
825.364787 0.9370 0.9370 0.9370 0.9380 0.9380
829.737969 0.9380 0.9380 0.9380 0.9380 0.9380
834.111150 0.9380 0.9380 0.9380 0.9380 0.9380
838.484332 0.9380 0.9370 0.9370 0.9370 0.9370
842.857513 0.9370 0.9370 0.9370 0.9370 0.9370
847.230695 0.9350 0.9350 0.9340 0.9310 0.9280
851.603876 0.9260 0.9240 0.9220 0.9200 0.9170
855.977058 0.9150 0.9120 0.9110 0.9080 0.9060
860.350239 0.9060 0.9040 0.9040 0.9020 0.9010
864.723421 0.9010 0.9000 0.9000 0.8980 0.8980
869.096602 0.9000 0.9040 0.9090 0.9120 0.9120
873.469784 0.9120 0.9110 0.9080 0.9060 0.9040
877.842965 0.9020 0.9010 0.9000 0.9010 0.9020
882.216147 0.9040 0.9090 0.9120 0.9160 0.9240
886.589328 0.9270 0.9320 0.9340 0.9380 0.9430
890.962510 0.9480 0.9520 0.9530 0.9570 0.9600
895.335691 0.9630 0.9640 0.9640 0.9640 0.9650
899.708873 0.9670 0.9670 0.9680 0.9680 0.9680
904.082054 0.9680 0.9690 0.9710 0.9720 0.9740
908.455236 0.9740 0.9750 0.9750 0.9750 0.9750
912.828417 0.9760 0.9760 0.9760 0.9760 0.9760
917.201599 0.9780 0.9780 0.9780 0.9780 0.9780
921.574780 0.9790 0.9790 0.9790 0.9790 0.9790
925.947962 0.9800 0.9800 0.9800 0.9820 0.9820
930.321143 0.9830 0.9830 0.9830 0.9840 0.9840
934.694325 0.9840 0.9840 0.9840 0.9860 0.9860
939.067506 0.9860 0.9860 0.9860 0.9860 0.9860
943.440688 0.9860 0.9860 0.9860 0.9860 0.9870
947.813869 0.9870 0.9870 0.9870 0.9890 0.9890
952.187051 0.9890 0.9890 0.9900 0.9900 0.9900
956.560232 0.9900 0.9910 0.9910 0.9930 0.9930
960.933414 0.9940 0.9940 0.9940 0.9940 0.9940
965.306595 0.9940 0.9940 0.9940 0.9940 0.9940
969.679777 0.9940 0.9950 0.9950 0.9970 0.9970
974.052958 0.9970 0.9970 0.9970 0.9970 0.9970
978.426140 0.9970 0.9970 0.9970 0.9970 0.9970
982.799321 0.9970 0.9970 0.9970 0.9970 0.9970
987.172503 0.9970 0.9970 0.9970 0.9970 0.9970
991.545684 0.9970 0.9970 0.9970 0.9970 0.9970
995.918866 0.9950 0.9950 0.9950 0.9950 0.9950
1000.292047 0.9950 0.9950 0.9950 0.9940 0.9940
1004.665229 0.9940 0.9940 0.9950 0.9940 0.9940
1009.038410 0.9940 0.9940 0.9930 0.9940 0.9940
1013.411592 0.9940 0.9930 0.9910 0.9910 0.9900
1017.784773 0.9900 0.9900 0.9900 0.9900 0.9900
1022.157955 0.9910 0.9910 0.9930 0.9930 0.9930
1026.531136 0.9930 0.9930 0.9930 0.9910 0.9910
1030.904318 0.9910 0.9910 0.9900 0.9900 0.9900
1035.277499 0.9900 0.9900 0.9900 0.9900 0.9900
1039.650681 0.9900 0.9900 0.9900 0.9900 0.9900
1044.023862 0.9890 0.9890 0.9890 0.9890 0.9890
1048.397044 0.9890 0.9890 0.9900 0.9900 0.9900
1052.770225 0.9900 0.9890 0.9890 0.9890 0.9870
1057.143407 0.9870 0.9870 0.9870 0.9870 0.9860
1061.516588 0.9860 0.9860 0.9860 0.9840 0.9840
1065.889770 0.9860 0.9860 0.9860 0.9860 0.9860
1070.262951 0.9840 0.9840 0.9830 0.9830 0.9830
1074.636133 0.9800 0.9790 0.9780 0.9780 0.9760
1079.009314 0.9760 0.9750 0.9760 0.9760 0.9780
1083.382496 0.9790 0.9790 0.9790 0.9790 0.9800
1087.755677 0.9800 0.9800 0.9820 0.9820 0.9820
1092.128859 0.9830 0.9830 0.9830 0.9830 0.9830
1096.502040 0.9830 0.9830 0.9830 0.9830 0.9830
1100.875222 0.9830 0.9830 0.9830 0.9830 0.9830
1105.248403 0.9820 0.9820 0.9820 0.9820 0.9820
1109.621585 0.9820 0.9820 0.9820 0.9820 0.9820
1113.994766 0.9820 0.9820 0.9820 0.9820 0.9820
1118.367948 0.9820 0.9820 0.9830 0.9820 0.9820
1122.741129 0.9800 0.9800 0.9800 0.9800 0.9800
1127.114311 0.9800 0.9800 0.9790 0.9790 0.9790
1131.487492 0.9790 0.9790 0.9790 0.9790 0.9780
1135.860674 0.9760 0.9760 0.9750 0.9750 0.9740
1140.233855 0.9740 0.9720 0.9690 0.9680 0.9670
1144.607037 0.9650 0.9650 0.9670 0.9670 0.9670
1148.980219 0.9680 0.9680 0.9680 0.9680 0.9690
1153.353400 0.9690 0.9690 0.9690 0.9710 0.9720
1157.726582 0.9720 0.9740 0.9750 0.9750 0.9760
1162.099763 0.9780 0.9780 0.9780 0.9780 0.9790
1166.472945 0.9790 0.9800 0.9800 0.9800 0.9800
1170.846126 0.9800 0.9820 0.9820 0.9830 0.9830
1175.219308 0.9830 0.9820 0.9820 0.9820 0.9800
1179.592489 0.9790 0.9750 0.9720 0.9690 0.9710
1183.965671 0.9750 0.9790 0.9800 0.9800 0.9820
1188.338852 0.9830 0.9860 0.9870 0.9890 0.9890
1192.712034 0.9890 0.9900 0.9900 0.9900 0.9910
1197.085215 0.9930 0.9930 0.9930 0.9940 0.9940
1201.458397 0.9940 0.9940 0.9940 0.9930 0.9930
1205.831578 0.9910 0.9910 0.9910 0.9910 0.9940
1210.204760 0.9940 0.9940 0.9940 0.9940 0.9940
1214.577941 0.9940 0.9930 0.9930 0.9930 0.9930
1218.951123 0.9910 0.9910 0.9910 0.9930 0.9930
1223.324304 0.9930 0.9940 0.9940 0.9940 0.9950
1227.697486 0.9950 0.9950 0.9970 0.9970 0.9970
1232.070667 0.9970 0.9980 0.9980 0.9980 0.9980
1236.443849 0.9980 0.9980 0.9980 0.9980 0.9980
1240.817030 0.9980 0.9980 0.9980 0.9980 0.9980
1245.190212 0.9980 0.9980 0.9980 0.9980 0.9980
1249.563393 0.9980 0.9980 0.9980 1.0000 1.0000
1253.936575 1.0000 1.0000 1.0000 1.0000 1.0000
1258.309756 1.0000 1.0000 1.0000 1.0000 1.0000
1262.682938 1.0000 1.0000 1.0000 1.0000 1.0010
1267.056119 1.0010 1.0010 1.0010 1.0010 1.0010
1271.429301 1.0010 1.0010 1.0010 1.0010 1.0010
1275.802482 1.0010 1.0010 1.0010 1.0010 1.0010
1280.175664 1.0010 1.0010 1.0010 1.0010 1.0010
1284.548845 1.0010 1.0010 1.0010 1.0010 1.0010
1288.922027 1.0010 1.0010 1.0010 1.0010 1.0010
1293.295208 1.0000 1.0000 1.0000 1.0000 1.0000
1297.668390 1.0000 1.0010 1.0020 1.0010 1.0010
1302.041571 1.0010 1.0010 1.0020 1.0020 1.0020
1306.414753 1.0020 1.0020 1.0020 1.0020 1.0020
1310.787934 1.0040 1.0040 1.0040 1.0040 1.0040
1315.161116 1.0020 1.0020 1.0020 1.0010 1.0020
1319.534297 1.0020 1.0040 1.0040 1.0040 1.0040
1323.907479 1.0040 1.0040 1.0040 1.0040 1.0040
1328.280660 1.0040 1.0040 1.0040 1.0040 1.0040
1332.653842 1.0040 1.0040 1.0040 1.0040 1.0040
1337.027023 1.0040 1.0040 1.0040 1.0040 1.0020
1341.400205 1.0020 1.0020 1.0020 1.0020 1.0020
1345.773386 1.0010 1.0010 1.0010 1.0010 1.0020
1350.146568 1.0020 1.0020 1.0020 1.0020 1.0020
1354.519749 1.0020 1.0020 1.0010 1.0010 1.0010
1358.892931 1.0010 1.0010 1.0000 1.0000 1.0000
1363.266112 1.0000 1.0000 0.9980 0.9980 0.9980
1367.639294 0.9980 0.9970 0.9970 0.9970 0.9950
1372.012475 0.9950 0.9950 0.9940 0.9940 0.9940
1376.385657 0.9930 0.9910 0.9890 0.9890 0.9870
1380.758838 0.9860 0.9830 0.9820 0.9790 0.9780
1385.132020 0.9760 0.9710 0.9650 0.9630 0.9630
1389.505201 0.9640 0.9650 0.9680 0.9680 0.9680
1393.878383 0.9680 0.9680 0.9680 0.9680 0.9670
1398.251564 0.9670 0.9640 0.9610 0.9580 0.9560
1402.624746 0.9560 0.9560 0.9540 0.9530 0.9450
1406.997927 0.9380 0.9350 0.9310 0.9270 0.9200
1411.371109 0.9160 0.9110 0.9040 0.8980 0.8910
1415.744290 0.8850 0.8800 0.8760 0.8740 0.8740
1420.117472 0.8700 0.8680 0.8680 0.8710 0.8740
1424.490653 0.8760 0.8790 0.8820 0.8890 0.8930
1428.863835 0.9000 0.9000 0.8940 0.8900 0.8860
1433.237016 0.8820 0.8780 0.8740 0.8720 0.8680
1437.610198 0.8680 0.8700 0.8710 0.8740 0.8760
1441.983379 0.8820 0.8850 0.8930 0.9080 0.9160
1446.356561 0.9200 0.9260 0.9310 0.9370 0.9410
1450.729742 0.9480 0.9500 0.9530 0.9540 0.9560
1455.102924 0.9560 0.9580 0.9600 0.9630 0.9640
1459.476105 0.9650 0.9650 0.9670 0.9670 0.9670
1463.849287 0.9670 0.9670 0.9670 0.9670 0.9670
1468.222468 0.9680 0.9680 0.9670 0.9670 0.9680
1472.595650 0.9690 0.9710 0.9720 0.9750 0.9760
1476.968831 0.9780 0.9780 0.9780 0.9780 0.9760
1481.342013 0.9750 0.9760 0.9760 0.9780 0.9780
1485.715194 0.9790 0.9800 0.9820 0.9830 0.9830
1490.088376 0.9840 0.9830 0.9830 0.9800 0.9800
1494.461557 0.9800 0.9820 0.9820 0.9830 0.9830
1498.834739 0.9830 0.9830 0.9830 0.9830 0.9830
1503.207920 0.9840 0.9840 0.9840 0.9860 0.9870
1507.581102 0.9870 0.9870 0.9870 0.9890 0.9890
1511.954283 0.9890 0.9900 0.9900 0.9900 0.9900
1516.327465 0.9900 0.9900 0.9900 0.9900 0.9900
1520.700646 0.9910 0.9910 0.9910 0.9910 0.9930
1525.073828 0.9930 0.9930 0.9930 0.9930 0.9930
1529.447009 0.9930 0.9930 0.9930 0.9930 0.9930
1533.820191 0.9940 0.9940 0.9950 0.9950 0.9970
1538.193372 0.9970 0.9970 0.9970 0.9970 0.9970
1542.566554 0.9980 0.9980 0.9980 0.9980 0.9980
1546.939735 0.9980 0.9980 0.9980 0.9980 0.9980
1551.312917 0.9980 0.9980 0.9980 0.9980 0.9980
1555.686098 0.9980 0.9980 0.9980 0.9980 0.9980
1560.059280 0.9970 0.9970 0.9970 0.9980 0.9980
1564.432461 0.9980 0.9980 0.9980 1.0000 1.0000
1568.805643 1.0000 1.0000 1.0000 1.0000 1.0000
1573.178824 1.0010 1.0010 1.0010 1.0010 1.0010
1577.552006 1.0000 1.0000 1.0000 1.0000 1.0000
1581.925187 1.0000 1.0000 1.0000 1.0000 1.0000
1586.298369 1.0000 1.0000 0.9980 0.9980 0.9980
1590.671550 0.9980 0.9980 0.9980 0.9980 0.9980
1595.044732 0.9980 0.9970 0.9970 0.9970 0.9970
1599.417913 0.9940 0.9940 0.9940 0.9940 0.9940
1603.791095 0.9940 0.9940 0.9930 0.9930 0.9930
1608.164276 0.9930 0.9930 0.9930 0.9930 0.9940
1612.537458 0.9940 0.9940 0.9940 0.9940 0.9940
1616.910639 0.9940 0.9940 0.9940 0.9940 0.9940
1621.283821 0.9940 0.9930 0.9930 0.9930 0.9930
1625.657002 0.9930 0.9930 0.9930 0.9930 0.9930
1630.030184 0.9930 0.9930 0.9930 0.9940 0.9940
1634.403365 0.9940 0.9940 0.9940 0.9940 0.9940
1638.776547 0.9950 0.9950 0.9950 0.9950 0.9950
1643.149728 0.9970 0.9970 0.9970 0.9970 0.9970
1647.522910 0.9970 0.9970 0.9970 0.9970 0.9970
1651.896091 0.9970 0.9970 0.9970 0.9970 0.9970
1656.269273 0.9970 0.9970 0.9970 0.9970 0.9980
1660.642454 0.9980 0.9980 0.9980 0.9980 0.9980
1665.015636 0.9980 0.9980 0.9980 1.0000 1.0000
1669.388817 1.0000 1.0000 1.0000 1.0000 1.0000
1673.761999 1.0000 1.0000 1.0000 1.0000 1.0000
1678.135180 1.0000 1.0000 1.0010 1.0010 1.0010
1682.508362 1.0010 1.0010 1.0010 1.0010 1.0010
1686.881543 1.0010 1.0010 1.0010 1.0010 1.0010
1691.254725 1.0010 1.0020 1.0020 1.0020 1.0020
1695.627906 1.0020 1.0020 1.0020 1.0020 1.0040
1700.001088 1.0040 1.0040 1.0040 1.0040 1.0040
1704.374269 1.0040 1.0040 1.0040 1.0040 1.0040
1708.747451 1.0040 1.0040 1.0040 1.0040 1.0040
1713.120632 1.0040 1.0040 1.0040 1.0040 1.0040
1717.493814 1.0040 1.0040 1.0040 1.0040 1.0040
1721.866995 1.0040 1.0040 1.0040 1.0040 1.0040
1726.240177 1.0040 1.0040 1.0040 1.0040 1.0040
1730.613358 1.0040 1.0040 1.0040 1.0040 1.0040
1734.986540 1.0040 1.0040 1.0040 1.0040 1.0040
1739.359721 1.0040 1.0040 1.0040 1.0040 1.0040
1743.732903 1.0050 1.0050 1.0050 1.0050 1.0050
1748.106084 1.0050 1.0050 1.0050 1.0050 1.0050
1752.479266 1.0050 1.0050 1.0050 1.0060 1.0060
1756.852447 1.0060 1.0080 1.0060 1.0060 1.0060
1761.225629 1.0060 1.0060 1.0060 1.0060 1.0060
1765.598810 1.0060 1.0060 1.0060 1.0060 1.0060
1769.971992 1.0060 1.0060 1.0060 1.0060 1.0060
1774.345173 1.0060 1.0060 1.0060 1.0060 1.0060
1778.718355 1.0060 1.0060 1.0060 1.0060 1.0060
1783.091536 1.0060 1.0060 1.0050 1.0050 1.0050
1787.464718 1.0050 1.0050 1.0050 1.0050 1.0050
1791.837899 1.0050 1.0050 1.0050 1.0050 1.0050
1796.211081 1.0050 1.0050 1.0050 1.0050 1.0050
1800.584262 1.0050 1.0050 1.0050 1.0050 1.0050
1804.957444 1.0050 1.0050 1.0050 1.0050 1.0050
1809.330625 1.0040 1.0040 1.0040 1.0040 1.0040
1813.703807 1.0040 1.0040 1.0040 1.0040 1.0040
1818.076988 1.0040 1.0040 1.0040 1.0040 1.0040
1822.450170 1.0040 1.0040 1.0040 1.0040 1.0040
1826.823351 1.0040 1.0050 1.0050 1.0060 1.0060
1831.196533 1.0060 1.0080 1.0080 1.0080 1.0080
1835.569714 1.0060 1.0060 1.0060 1.0060 1.0060
1839.942896 1.0080 1.0080 1.0080 1.0080 1.0080
1844.316077 1.0060 1.0060 1.0050 1.0050 1.0050
1848.689259 1.0050 1.0050 1.0040 1.0040 1.0040
1853.062440 1.0040 1.0040 1.0050 1.0050 1.0050
1857.435622 1.0060 1.0080 1.0090 1.0090 1.0090
1861.808803 1.0090 1.0080 1.0080 1.0080 1.0080
1866.181985 1.0060 1.0060 1.0060 1.0060 1.0060
1870.555166 1.0060 1.0060 1.0060 1.0060 1.0060
1874.928348 1.0060 1.0060 1.0060 1.0060 1.0060
1879.301529 1.0060 1.0060 1.0060 1.0060 1.0060
1883.674711 1.0060 1.0060 1.0060 1.0060 1.0060
1888.047893 1.0060 1.0060 1.0060 1.0060 1.0060
1892.421074 1.0060 1.0060 1.0060 1.0060 1.0060
1896.794256 1.0060 1.0060 1.0060 1.0060 1.0060
1901.167437 1.0060 1.0060 1.0060 1.0060 1.0060
1905.540619 1.0060 1.0060 1.0060 1.0060 1.0060
1909.913800 1.0060 1.0060 1.0060 1.0060 1.0060
1914.286982 1.0060 1.0080 1.0080 1.0080 1.0080
1918.660163 1.0080 1.0080 1.0080 1.0080 1.0080
1923.033345 1.0080 1.0080 1.0080 1.0080 1.0080
1927.406526 1.0080 1.0080 1.0080 1.0080 1.0080
1931.779708 1.0080 1.0080 1.0080 1.0080 1.0080
1936.152889 1.0080 1.0080 1.0080 1.0080 1.0080
1940.526071 1.0080 1.0080 1.0080 1.0080 1.0080
1944.899252 1.0080 1.0080 1.0080 1.0080 1.0080
1949.272434 1.0080 1.0080 1.0080 1.0080 1.0080
1953.645615 1.0080 1.0080 1.0080 1.0080 1.0080
1958.018797 1.0080 1.0080 1.0080 1.0080 1.0080
1962.391978 1.0080 1.0090 1.0090 1.0090 1.0090
1966.765160 1.0090 1.0090 1.0090 1.0090 1.0090
1971.138341 1.0090 1.0090 1.0090 1.0090 1.0090
1975.511523 1.0090 1.0090 1.0090 1.0090 1.0090
1979.884704 1.0090 1.0090 1.0090 1.0090 1.0090
1984.257886 1.0090 1.0090 1.0090 1.0090 1.0090
1988.631067 1.0090 1.0090 1.0080 1.0080 1.0080
1993.004249 1.0080 1.0080 1.0080 1.0080 1.0080
1997.377430 1.0080 1.0080 1.0060 1.0060 1.0055
2001.750612 1.0050 1.0045 1.0040 1.0040 1.0040
2006.123793 1.0030 1.0020 1.0015 1.0010 1.0005
2010.496975 1.0000 1.0000 1.0000 0.9990 0.9980
2014.870156 0.9980 0.9980 0.9980 0.9980 0.9975
2019.243338 0.9970 0.9970 0.9970 0.9960 0.9950
2023.616519 0.9950 0.9950 0.9950 0.9950 0.9950
2027.989701 0.9950 0.9960 0.9970 0.9970 0.9970
2032.362882 0.9970 0.9970 0.9975 0.9980 0.9980
2036.736064 0.9980 0.9980 0.9980 0.9980 0.9980
2041.109245 0.9980 0.9980 0.9980 0.9980 0.9980
2045.482427 0.9980 0.9980 0.9980 0.9980 0.9980
2049.855608 0.9980 0.9980 0.9980 0.9980 0.9980
2054.228790 0.9980 0.9980 0.9980 0.9980 0.9980
2058.601971 0.9980 0.9980 0.9980 0.9980 0.9980
2062.975153 0.9980 0.9980 0.9980 0.9980 0.9980
2067.348334 0.9980 0.9980 0.9980 0.9980 0.9980
2071.721516 0.9980 0.9975 0.9970 0.9970 0.9970
2076.094697 0.9970 0.9970 0.9970 0.9970 0.9960
2080.467879 0.9950 0.9950 0.9950 0.9950 0.9950
2084.841060 0.9945 0.9940 0.9935 0.9930 0.9935
2089.214242 0.9940 0.9935 0.9930 0.9920 0.9910
2093.587423 0.9910 0.9910 0.9905 0.9900 0.9895
2097.960605 0.9890 0.9890 0.9890 0.9881 0.9871
2102.333786 0.9851 0.9831 0.9825 0.9820 0.9810
2106.706968 0.9801 0.9795 0.9790 0.9785 0.9780
2111.080149 0.9771 0.9761 0.9751 0.9741 0.9740
2115.453331 0.9740 0.9731 0.9721 0.9720 0.9720
2119.826512 0.9715 0.9710 0.9710 0.9710 0.9701
2124.199694 0.9691 0.9685 0.9680 0.9680 0.9680
2128.572875 0.9685 0.9690 0.9690 0.9690 0.9699
2132.946057 0.9709 0.9710 0.9710 0.9710 0.9710
2137.319238 0.9715 0.9720 0.9720 0.9720 0.9729
2141.692420 0.9739 0.9745 0.9750 0.9755 0.9760
2146.065601 0.9760 0.9760 0.9774 0.9789 0.9790
2150.438783 0.9790 0.9795 0.9800 0.9800 0.9800
2154.811964 0.9814 0.9829 0.9830 0.9830 0.9835
2159.185146 0.9840 0.9849 0.9859 0.9865 0.9870
2163.558327 0.9879 0.9889 0.9890 0.9890 0.9890
2167.931509 0.9890 0.9895 0.9900 0.9900 0.9900
2172.304690 0.9900 0.9900 0.9905 0.9910 0.9910
