##TITLE=Ethyl nitrate
##JCAMP-DX=4.24
##DATA TYPE=INFRARED SPECTRUM
##CLASS=COBLENTZ
##ORIGIN=DOW CHEMICAL COMPANY
##OWNER=Copyright (C) 1987 by the Coblentz Society
Collection (C) 2018 copyright by the U.S. Secretary of Commerce
on behalf of the United States of America. All rights reserved.
##DATE=1964
##CAS REGISTRY NO=625-58-1
##MOLFORM=C2 H5 N O3
##SOURCE REFERENCE=COBLENTZ NO. 8811
##$NIST SOURCE=COBLENTZ
##$NIST IMAGE=cob8811
##SPECTROMETER/DATA SYSTEM=DOW KBr FOREPRISM-GRATING
##INSTRUMENT PARAMETERS=GRATING CHANGED AT 5.0, 7.5, 15.0 MICRON
##STATE=GAS (30 mmHg, N2 ADDED, TOTAL PRESSURE 600 mmHg)
##PATH LENGTH=5 CM
##SAMPLING PROCEDURE=TRANSMISSION
##RESOLUTION=2
##DATA PROCESSING=DIGITIZED BY COBLENTZ SOCIETY (BATCH II) FROM HARD COPY
##XUNITS=1/CM
##YUNITS=TRANSMITTANCE
##XFACTOR=1.0
##YFACTOR=1
##FIRSTX=463
##LASTX=3794
##FIRSTY=0.8527
##MAXX=3794
##MINX=463
##MAXY=0.8843
##MINY=0
##NPOINTS=3332
##XYDATA=(X++(Y..Y))
463.000000 0.8527 0.8530 0.8535 0.8540 0.8544
468.000000 0.8549 0.8554 0.8557 0.8560 0.8562
473.000000 0.8565 0.8567 0.8570 0.8572 0.8575
478.000000 0.8577 0.8580 0.8582 0.8583 0.8584
483.000000 0.8585 0.8575 0.8586 0.8587 0.8588
488.000000 0.8588 0.8589 0.8590 0.8591 0.8591
493.000000 0.8592 0.8593 0.8592 0.8589 0.8587
498.000000 0.8585 0.8583 0.8580 0.8578 0.8576
503.000000 0.8574 0.8572 0.8569 0.8567 0.8565
508.000000 0.8563 0.8560 0.8558 0.8556 0.8554
513.000000 0.8552 0.8550 0.8548 0.8546 0.8544
518.000000 0.8542 0.8539 0.8537 0.8535 0.8533
523.000000 0.8531 0.8529 0.8527 0.8525 0.8523
528.000000 0.8521 0.8517 0.8514 0.8511 0.8508
533.000000 0.8505 0.8502 0.8498 0.8495 0.8492
538.000000 0.8489 0.8486 0.8482 0.8475 0.8468
543.000000 0.8460 0.8452 0.8445 0.8437 0.8429
548.000000 0.8422 0.8414 0.8407 0.8399 0.8383
553.000000 0.8363 0.8343 0.8323 0.8302 0.8282
558.000000 0.8262 0.8240 0.8219 0.8198 0.8190
563.000000 0.8187 0.8189 0.8190 0.8191 0.8193
568.000000 0.8194 0.8193 0.8194 0.8191 0.8189
573.000000 0.8187 0.8197 0.8214 0.8238 0.8264
578.000000 0.8290 0.8315 0.8337 0.8359 0.8380
583.000000 0.8402 0.8423 0.8443 0.8463 0.8484
588.000000 0.8502 0.8516 0.8531 0.8545 0.8559
593.000000 0.8573 0.8588 0.8595 0.8601 0.8607
598.000000 0.8613 0.8620 0.8625 0.8626 0.8626
603.000000 0.8627 0.8628 0.8627 0.8618 0.8632
608.000000 0.8599 0.8590 0.8580 0.8571 0.8559
613.000000 0.8546 0.8534 0.8522 0.8508 0.8481
618.000000 0.8455 0.8429 0.8403 0.8375 0.8345
623.000000 0.8316 0.8286 0.8252 0.8215 0.8177
628.000000 0.8028 0.7839 0.7650 0.7460 0.7271
633.000000 0.7082 0.6773 0.6625 0.6484 0.6356
638.000000 0.6208 0.5976 0.5864 0.5787 0.5742
643.000000 0.5705 0.5689 0.5680 0.5682 0.5694
648.000000 0.5686 0.5697 0.5708 0.5720 0.5743
653.000000 0.5770 0.5871 0.6100 0.6328 0.6557
658.000000 0.6786 0.7014 0.7243 0.7472 0.7664
663.000000 0.7773 0.7815 0.7854 0.7869 0.7884
668.000000 0.7895 0.7896 0.7879 0.7893 0.7888
673.000000 0.7882 0.7874 0.7866 0.7857 0.7848
678.000000 0.7835 0.7815 0.7790 0.7766 0.7741
683.000000 0.7686 0.7622 0.7552 0.7476 0.7401
688.000000 0.7324 0.7246 0.7168 0.7090 0.6990
693.000000 0.6890 0.6792 0.6698 0.6602 0.6480
698.000000 0.6220 0.5986 0.5948 0.5939 0.5961
703.000000 0.5967 0.5991 0.6010 0.6022 0.6031
708.000000 0.6034 0.6037 0.6044 0.6109 0.6193
713.000000 0.6284 0.6416 0.6702 0.6989 0.7276
718.000000 0.7563 0.7849 0.8136 0.8374 0.8446
723.000000 0.8492 0.8529 0.8546 0.8563 0.8568
728.000000 0.8574 0.8554 0.8585 0.8582 0.8578
733.000000 0.8572 0.8562 0.8547 0.8532 0.8517
738.000000 0.8494 0.8464 0.8431 0.8396 0.8362
743.000000 0.8327 0.8292 0.8254 0.8214 0.8173
748.000000 0.8133 0.8093 0.8021 0.7932 0.7846
753.000000 0.7780 0.7714 0.7648 0.7575 0.7487
758.000000 0.7400 0.7316 0.7235 0.6369 0.6284
763.000000 0.6256 0.6245 0.6248 0.6242 0.6538
768.000000 0.6738 0.6833 0.6853 0.6873 0.6890
773.000000 0.6904 0.6918 0.6935 0.6952 0.6989
778.000000 0.7026 0.7072 0.7118 0.7210 0.7336
783.000000 0.7477 0.7625 0.7728 0.7800 0.7871
788.000000 0.7935 0.7987 0.8040 0.8076 0.8098
793.000000 0.8120 0.8136 0.8145 0.8154 0.8162
798.000000 0.8169 0.8175 0.8182 0.8192 0.8202
803.000000 0.8211 0.8216 0.8213 0.8218 0.8213
808.000000 0.8209 0.8203 0.8189 0.8175 0.8150
813.000000 0.8121 0.8090 0.8058 0.8027 0.7995
818.000000 0.7956 0.7910 0.7864 0.7803 0.7738
823.000000 0.7673 0.7607 0.7510 0.7397 0.7284
828.000000 0.7158 0.7026 0.6893 0.6709 0.6462
833.000000 0.6281 0.6107 0.5735 0.5467 0.4740
838.000000 0.4012 0.3285 0.2557 0.0951 0.0575
843.000000 0.0424 0.0358 0.0305 0.0257 0.0213
848.000000 0.0184 0.0155 0.0129 0.0118 0.0106
853.000000 0.0096 0.0096 0.0100 0.0103 0.0109
858.000000 0.0118 0.0127 0.0139 0.0152 0.0169
863.000000 0.0200 0.0251 0.0293 0.0333 0.0396
868.000000 0.0468 0.0583 0.0994 0.1096 0.1474
873.000000 0.1857 0.2241 0.2625 0.3008 0.3392
878.000000 0.3775 0.4159 0.4543 0.4926 0.5256
883.000000 0.5488 0.5715 0.5801 0.5859 0.5880
888.000000 0.5890 0.5879 0.5884 0.5857 0.5719
893.000000 0.5495 0.5271 0.5046 0.4822 0.4598
898.000000 0.4374 0.4150 0.3926 0.3811 0.3772
903.000000 0.3738 0.3692 0.3263 0.2528 0.2525
908.000000 0.2680 0.2846 0.2846 0.2263 0.2228
913.000000 0.2233 0.2235 0.2308 0.2431 0.2519
918.000000 0.2593 0.2659 0.2760 0.2882 0.3519
923.000000 0.3562 0.3611 0.3760 0.3925 0.3987
928.000000 0.4196 0.4914 0.5756 0.5969 0.6128
933.000000 0.6244 0.6409 0.6585 0.6743 0.6881
938.000000 0.7009 0.7090 0.7139 0.7188 0.7236
943.000000 0.7274 0.7311 0.7349 0.7387 0.7427
948.000000 0.7468 0.7508 0.7566 0.7644 0.7731
953.000000 0.7864 0.8153 0.8267 0.8312 0.8357
958.000000 0.8385 0.8410 0.8435 0.8450 0.8462
963.000000 0.8471 0.8475 0.8484 0.8477 0.8470
968.000000 0.8461 0.8451 0.8442 0.8430 0.8418
973.000000 0.8405 0.8391 0.8376 0.8360 0.8344
978.000000 0.8326 0.8306 0.8287 0.8268 0.8247
983.000000 0.8225 0.8203 0.8181 0.8147 0.8112
988.000000 0.8078 0.8044 0.8006 0.7967 0.7928
993.000000 0.7885 0.7830 0.7775 0.7720 0.7665
998.000000 0.7599 0.7502 0.7406 0.7293 0.7166
1003.000000 0.7030 0.6874 0.6651 0.6428 0.6204
1008.000000 0.5981 0.5757 0.5417 0.4878 0.4367
1013.000000 0.3596 0.3124 0.2897 0.2704 0.2353
1018.000000 0.2012 0.1696 0.1210 0.1112 0.1083
1023.000000 0.1072 0.1061 0.1054 0.1054 0.1055
1028.000000 0.1057 0.1050 0.1096 0.1140 0.1256
1033.000000 0.1322 0.1345 0.1369 0.1394 0.1420
1038.000000 0.1454 0.1514 0.2388 0.2827 0.3266
1043.000000 0.3705 0.4144 0.4583 0.5022 0.5461
1048.000000 0.5900 0.6339 0.6778 0.7004 0.7092
1053.000000 0.7192 0.7298 0.7409 0.7485 0.7551
1058.000000 0.7587 0.7623 0.7646 0.7662 0.7678
1063.000000 0.7691 0.7701 0.7710 0.7720 0.7721
1068.000000 0.7697 0.7711 0.7705 0.7696 0.7686
1073.000000 0.7674 0.7641 0.7608 0.7570 0.7531
1078.000000 0.7493 0.7442 0.7363 0.7294 0.7241
1083.000000 0.7189 0.7161 0.7137 0.7112 0.7091
1088.000000 0.7081 0.7069 0.7020 0.6977 0.6975
1093.000000 0.6974 0.6981 0.6994 0.7036 0.7088
1098.000000 0.7150 0.7206 0.7254 0.7296 0.7335
1103.000000 0.7371 0.7403 0.7426 0.7448 0.7458
1108.000000 0.7462 0.7486 0.7454 0.7416 0.7326
1113.000000 0.7244 0.7169 0.7105 0.7063 0.7059
1118.000000 0.7062 0.7053 0.7077 0.7102 0.7131
1123.000000 0.7162 0.7188 0.7213 0.7245 0.7206
1128.000000 0.7178 0.7148 0.7126 0.7118 0.7106
1133.000000 0.7174 0.7310 0.7501 0.7719 0.7885
1138.000000 0.7982 0.8045 0.8091 0.8119 0.8132
1143.000000 0.8132 0.8127 0.8121 0.8113 0.8102
1148.000000 0.8091 0.8078 0.8064 0.8051 0.8037
1153.000000 0.8023 0.8020 0.8020 0.8021 0.8025
1158.000000 0.8028 0.8031 0.8035 0.8043 0.8052
1163.000000 0.8060 0.8069 0.8077 0.8087 0.8108
1168.000000 0.8129 0.8151 0.8196 0.8244 0.8266
1173.000000 0.8288 0.8300 0.8312 0.8320 0.8328
1178.000000 0.8337 0.8345 0.8353 0.8356 0.8359
1183.000000 0.8361 0.8356 0.8350 0.8344 0.8338
1188.000000 0.8332 0.8324 0.8317 0.8309 0.8304
1193.000000 0.8301 0.8297 0.8297 0.8305 0.8303
1198.000000 0.8320 0.8328 0.8337 0.8345 0.8354
1203.000000 0.8364 0.8376 0.8387 0.8398 0.8404
1208.000000 0.8410 0.8415 0.8417 0.8415 0.8413
1213.000000 0.8403 0.8394 0.8382 0.8368 0.8354
1218.000000 0.8344 0.8335 0.8327 0.8318 0.8316
1223.000000 0.8316 0.8316 0.8316 0.8316 0.8314
1228.000000 0.8313 0.8311 0.8309 0.8300 0.8286
1233.000000 0.8271 0.8255 0.8225 0.8189 0.8154
1238.000000 0.8125 0.8112 0.8098 0.8085 0.8073
1243.000000 0.8060 0.8043 0.8025 0.8003 0.7969
1248.000000 0.7936 0.7906 0.7875 0.7843 0.7811
1253.000000 0.7778 0.7745 0.7706 0.7647 0.7567
1258.000000 0.7446 0.7304 0.7172 0.7055 0.6937
1263.000000 0.6548 0.6132 0.5670 0.5507 0.5345
1268.000000 0.5130 0.3818 0.2708 0.1423 0.1118
1273.000000 0.0852 0.0582 0.0336 0.0173 0.0122
1278.000000 0.0078 0.0070 0.0065 0.0063 0.0060
1283.000000 0.0059 0.0059 0.0059 0.0060 0.0062
1288.000000 0.0075 0.0065 0.0068 0.0071 0.0074
1293.000000 0.0077 0.0085 0.0096 0.0107 0.0130
1298.000000 0.0162 0.0276 0.0651 0.1584 0.1915
1303.000000 0.2245 0.2576 0.2906 0.3236 0.5200
1308.000000 0.5360 0.5714 0.5861 0.6011 0.6225
1313.000000 0.6667 0.6910 0.7177 0.7395 0.7570
1318.000000 0.7719 0.7804 0.7888 0.7960 0.8009
1323.000000 0.8058 0.8107 0.8147 0.8172 0.8196
1328.000000 0.8221 0.8244 0.8254 0.8264 0.8273
1333.000000 0.8282 0.8286 0.8291 0.8295 0.8296
1338.000000 0.8294 0.8293 0.8297 0.8289 0.8283
1343.000000 0.8277 0.8271 0.8264 0.8241 0.8218
1348.000000 0.8188 0.8150 0.8110 0.8068 0.7964
1353.000000 0.7853 0.7743 0.7632 0.7521 0.7410
1358.000000 0.7299 0.7188 0.7078 0.6967 0.6856
1363.000000 0.6696 0.6548 0.6488 0.6429 0.6393
1368.000000 0.6359 0.6335 0.6312 0.6281 0.6244
1373.000000 0.6203 0.6157 0.6094 0.6010 0.5893
1378.000000 0.5831 0.5810 0.5808 0.5795 0.5880
1383.000000 0.5962 0.6146 0.6257 0.6334 0.6426
1388.000000 0.6476 0.6497 0.6507 0.6516 0.6517
1393.000000 0.6539 0.6584 0.6641 0.6669 0.6678
1398.000000 0.6679 0.6696 0.6732 0.6809 0.6890
1403.000000 0.6962 0.7035 0.7113 0.7188 0.7238
1408.000000 0.7287 0.7334 0.7368 0.7402 0.7436
1413.000000 0.7470 0.7500 0.7523 0.7545 0.7568
1418.000000 0.7591 0.7609 0.7615 0.7620 0.7625
1423.000000 0.7631 0.7604 0.7628 0.7621 0.7609
1428.000000 0.7598 0.7586 0.7564 0.7541 0.7514
1433.000000 0.7477 0.7432 0.7326 0.7228 0.7132
1438.000000 0.7037 0.6943 0.6818 0.6647 0.6524
1443.000000 0.6441 0.6359 0.6276 0.6194 0.6112
1448.000000 0.6000 0.5863 0.5619 0.5499 0.5434
1453.000000 0.5431 0.5464 0.5514 0.5516 0.5435
1458.000000 0.5461 0.5425 0.5397 0.5396 0.5455
1463.000000 0.5515 0.5575 0.5634 0.5694 0.5754
1468.000000 0.5827 0.5925 0.5984 0.6043 0.6102
1473.000000 0.6146 0.6184 0.6222 0.6260 0.6298
1478.000000 0.6335 0.6379 0.6425 0.6471 0.6517
1483.000000 0.6563 0.6616 0.6684 0.6752 0.6819
1488.000000 0.6887 0.6951 0.7009 0.7068 0.7126
1493.000000 0.7184 0.7243 0.7302 0.7361 0.7419
1498.000000 0.7475 0.7532 0.7600 0.7680 0.7765
1503.000000 0.7859 0.7950 0.7961 0.7961 0.7961
1508.000000 0.7962 0.7964 0.8039 0.8145 0.8150
1513.000000 0.8145 0.8140 0.8134 0.8128 0.8122
1518.000000 0.8115 0.8109 0.8103 0.8097 0.8093
1523.000000 0.8089 0.8084 0.8083 0.8086 0.8093
1528.000000 0.8100 0.8107 0.8113 0.8121 0.8132
1533.000000 0.8142 0.8145 0.8145 0.8144 0.8133
1538.000000 0.8118 0.8095 0.8072 0.8065 0.8076
1543.000000 0.8086 0.8096 0.8103 0.8107 0.8108
1548.000000 0.8105 0.8102 0.8095 0.8086 0.8078
1553.000000 0.8066 0.8053 0.8040 0.8024 0.8007
1558.000000 0.7990 0.7970 0.7957 0.8031 0.8074
1563.000000 0.8096 0.8094 0.8092 0.8091 0.8090
1568.000000 0.8089 0.8088 0.8091 0.8093 0.8095
1573.000000 0.8098 0.8103 0.8108 0.8113 0.8118
1578.000000 0.8130 0.8142 0.8154 0.8174 0.8195
1583.000000 0.8209 0.8221 0.8234 0.8245 0.8255
1588.000000 0.8266 0.8273 0.8281 0.8282 0.8280
1593.000000 0.8278 0.8276 0.8268 0.8259 0.8250
1598.000000 0.8236 0.8223 0.8196 0.8168 0.8141
1603.000000 0.8115 0.8082 0.8016 0.7954 0.7894
1608.000000 0.7832 0.7768 0.7705 0.7620 0.7520
1613.000000 0.7417 0.7313 0.7214 0.7131 0.7049
1618.000000 0.6966 0.6872 0.6759 0.6645 0.6507
1623.000000 0.5925 0.5626 0.5326 0.5027 0.4727
1628.000000 0.4428 0.4128 0.3752 0.3302 0.3096
1633.000000 0.2455 0.2217 0.2038 0.1866 0.0635
1638.000000 0.0490 0.0355 0.0236 0.0129 0.0090
1643.000000 0.0051 0.0011 0.0000 0.0000 0.0000
1648.000000 0.0000 0.0000 0.0000 0.0000 0.0000
1653.000000 0.0000 0.0000 0.0000 0.0000 0.0000
1658.000000 0.0000 0.0000 0.0000 0.0000 0.0000
1663.000000 0.0000 0.0000 0.0000 0.0000 0.0000
1668.000000 0.0000 0.0000 0.0000 0.0001 0.0018
1673.000000 0.0064 0.0107 0.0138 0.0188 0.0258
1678.000000 0.0319 0.0484 0.0582 0.1042 0.1506
1683.000000 0.1970 0.2434 0.2898 0.3362 0.4622
1688.000000 0.4872 0.5258 0.5388 0.5518 0.5812
1693.000000 0.6230 0.6463 0.6645 0.6859 0.7091
1698.000000 0.7321 0.7458 0.7588 0.7664 0.7740
1703.000000 0.7784 0.7821 0.7858 0.7895 0.7934
1708.000000 0.7976 0.8018 0.8037 0.8053 0.8070
1713.000000 0.8083 0.8087 0.8091 0.8094 0.8094
1718.000000 0.8094 0.8094 0.8093 0.8144 0.8091
1723.000000 0.8089 0.8087 0.8084 0.8073 0.8062
1728.000000 0.8052 0.8039 0.8025 0.8010 0.7996
1733.000000 0.7981 0.7967 0.7952 0.7934 0.7915
1738.000000 0.7897 0.7879 0.7860 0.7841 0.7823
1743.000000 0.7804 0.7786 0.7778 0.7789 0.7733
1748.000000 0.7814 0.7826 0.7839 0.7853 0.7869
1753.000000 0.7887 0.7906 0.7924 0.7943 0.7961
1758.000000 0.7980 0.8000 0.8024 0.8048 0.8073
1763.000000 0.8098 0.8125 0.8151 0.8177 0.8202
1768.000000 0.8221 0.8240 0.8259 0.8278 0.8297
1773.000000 0.8316 0.8334 0.8349 0.8363 0.8377
1778.000000 0.8391 0.8405 0.8419 0.8433 0.8447
1783.000000 0.8461 0.8474 0.8488 0.8501 0.8515
1788.000000 0.8529 0.8542 0.8556 0.8562 0.8568
1793.000000 0.8575 0.8581 0.8587 0.8593 0.8599
1798.000000 0.8606 0.8612 0.8618 0.8624 0.8630
1803.000000 0.8636 0.8642 0.8648 0.8654 0.8660
1808.000000 0.8666 0.8672 0.8678 0.8682 0.8683
1813.000000 0.8684 0.8685 0.8686 0.8686 0.8687
1818.000000 0.8688 0.8689 0.8687 0.8683 0.8679
1823.000000 0.8675 0.8671 0.8667 0.8663 0.8659
1828.000000 0.8655 0.8648 0.8640 0.8632 0.8624
1833.000000 0.8616 0.8608 0.8600 0.8591 0.8583
1838.000000 0.8575 0.8565 0.8556 0.8547 0.8537
1843.000000 0.8528 0.8518 0.8514 0.8511 0.8508
1848.000000 0.8504 0.8501 0.8498 0.8494 0.8495
1853.000000 0.8496 0.8497 0.8498 0.8499 0.8500
1858.000000 0.8501 0.8502 0.8503 0.8505 0.8507
1863.000000 0.8508 0.8510 0.8512 0.8516 0.8523
1868.000000 0.8530 0.8537 0.8544 0.8551 0.8558
1873.000000 0.8565 0.8572 0.8579 0.8586 0.8594
1878.000000 0.8603 0.8611 0.8620 0.8629 0.8638
1883.000000 0.8644 0.8650 0.8655 0.8661 0.8667
1888.000000 0.8673 0.8678 0.8684 0.8690 0.8693
1893.000000 0.8695 0.8697 0.8699 0.8701 0.8702
1898.000000 0.8704 0.8706 0.8705 0.8700 0.8694
1903.000000 0.8689 0.8684 0.8679 0.8673 0.8667
1908.000000 0.8660 0.8653 0.8646 0.8639 0.8632
1913.000000 0.8625 0.8618 0.8615 0.8612 0.8610
1918.000000 0.8607 0.8604 0.8602 0.8599 0.8596
1923.000000 0.8594 0.8591 0.8589 0.8587 0.8585
1928.000000 0.8584 0.8582 0.8580 0.8578 0.8579
1933.000000 0.8582 0.8585 0.8588 0.8592 0.8597
1938.000000 0.8601 0.8606 0.8610 0.8615 0.8619
1943.000000 0.8624 0.8630 0.8639 0.8649 0.8659
1948.000000 0.8669 0.8679 0.8689 0.8700 0.8711
1953.000000 0.8721 0.8731 0.8735 0.8739 0.8726
1958.000000 0.8747 0.8749 0.8748 0.8748 0.8747
1963.000000 0.8746 0.8746 0.8745 0.8744 0.8744
1968.000000 0.8743 0.8742 0.8742 0.8741 0.8740
1973.000000 0.8739 0.8738 0.8737 0.8736 0.8735
1978.000000 0.8734 0.8733 0.8732 0.8731 0.8730
1983.000000 0.8729 0.8730 0.8732 0.8734 0.8736
1988.000000 0.8738 0.8740 0.8742 0.8744 0.8745
1993.000000 0.8747 0.8749 0.8751 0.8753 0.8755
1998.000000 0.8757 0.8759 0.8760 0.8761 0.8763
2003.000000 0.8764 0.8765 0.8765 0.8766 0.8767
2008.000000 0.8768 0.8768 0.8769 0.8770 0.8771
2013.000000 0.8771 0.8772 0.8772 0.8773 0.8772
2018.000000 0.8772 0.8772 0.8772 0.8772 0.8772
2023.000000 0.8771 0.8771 0.8771 0.8771 0.8770
2028.000000 0.8770 0.8770 0.8770 0.8769 0.8769
2033.000000 0.8769 0.8769 0.8769 0.8769 0.8769
2038.000000 0.8770 0.8771 0.8772 0.8773 0.8774
2043.000000 0.8775 0.8776 0.8777 0.8778 0.8779
2048.000000 0.8781 0.8782 0.8783 0.8784 0.8785
2053.000000 0.8786 0.8787 0.8788 0.8790 0.8791
2058.000000 0.8792 0.8793 0.8794 0.8795 0.8796
2063.000000 0.8797 0.8798 0.8799 0.8800 0.8801
2068.000000 0.8802 0.8802 0.8803 0.8804 0.8805
2073.000000 0.8805 0.8806 0.8807 0.8808 0.8808
2078.000000 0.8809 0.8810 0.8811 0.8811 0.8812
2083.000000 0.8813 0.8814 0.8815 0.8816 0.8816
2088.000000 0.8816 0.8815 0.8814 0.8813 0.8812
2093.000000 0.8810 0.8809 0.8808 0.8807 0.8806
2098.000000 0.8805 0.8804 0.8803 0.8801 0.8800
2103.000000 0.8799 0.8798 0.8797 0.8796 0.8794
2108.000000 0.8793 0.8792 0.8791 0.8790 0.8789
2113.000000 0.8787 0.8786 0.8785 0.8784 0.8783
2118.000000 0.8782 0.8780 0.8779 0.8778 0.8777
2123.000000 0.8776 0.8775 0.8773 0.8772 0.8771
2128.000000 0.8770 0.8769 0.8768 0.8766 0.8765
2133.000000 0.8764 0.8763 0.8761 0.8760 0.8759
2138.000000 0.8758 0.8756 0.8755 0.8754 0.8753
2143.000000 0.8752 0.8751 0.8750 0.8750 0.8751
2148.000000 0.8752 0.8752 0.8753 0.8754 0.8755
2153.000000 0.8756 0.8757 0.8760 0.8763 0.8766
2158.000000 0.8769 0.8772 0.8776 0.8777 0.8779
2163.000000 0.8779 0.8779 0.8778 0.8778 0.8778
2168.000000 0.8778 0.8777 0.8777 0.8776 0.8776
2173.000000 0.8776 0.8776 0.8774 0.8773 0.8770
2178.000000 0.8768 0.8766 0.8764 0.8761 0.8759
2183.000000 0.8757 0.8755 0.8752 0.8750 0.8748
2188.000000 0.8746 0.8743 0.8741 0.8739 0.8738
2193.000000 0.8736 0.8735 0.8734 0.8733 0.8731
2198.000000 0.8730 0.8728 0.8727 0.8726 0.8725
2203.000000 0.8723 0.8722 0.8722 0.8722 0.8724
2208.000000 0.8727 0.8729 0.8731 0.8733 0.8736
2213.000000 0.8738 0.8740 0.8742 0.8745 0.8747
2218.000000 0.8750 0.8752 0.8755 0.8757 0.8760
2223.000000 0.8762 0.8765 0.8767 0.8770 0.8770
2228.000000 0.8770 0.8770 0.8770 0.8770 0.8770
2233.000000 0.8769 0.8769 0.8769 0.8769 0.8769
2238.000000 0.8769 0.8769 0.8769 0.8768 0.8767
2243.000000 0.8766 0.8766 0.8765 0.8764 0.8763
2248.000000 0.8762 0.8761 0.8760 0.8759 0.8758
2253.000000 0.8757 0.8756 0.8755 0.8754 0.8753
2258.000000 0.8752 0.8751 0.8750 0.8749 0.8748
2263.000000 0.8747 0.8746 0.8744 0.8743 0.8742
2268.000000 0.8741 0.8739 0.8738 0.8737 0.8736
2273.000000 0.8735 0.8734 0.8732 0.8731 0.8730
2278.000000 0.8729 0.8727 0.8726 0.8725 0.8724
2283.000000 0.8723 0.8722 0.8721 0.8721 0.8721
2288.000000 0.8721 0.8721 0.8721 0.8721 0.8721
2293.000000 0.8721 0.8721 0.8721 0.8721 0.8721
2298.000000 0.8721 0.8721 0.8721 0.8721 0.8721
2303.000000 0.8721 0.8722 0.8722 0.8723 0.8723
2308.000000 0.8724 0.8724 0.8725 0.8725 0.8726
2313.000000 0.8726 0.8727 0.8727 0.8728 0.8729
2318.000000 0.8731 0.8732 0.8734 0.8735 0.8737
2323.000000 0.8738 0.8740 0.8741 0.8743 0.8745
2328.000000 0.8747 0.8748 0.8750 0.8752 0.8754
2333.000000 0.8756 0.8759 0.8762 0.8765 0.8767
2338.000000 0.8770 0.8772 0.8775 0.8778 0.8781
2343.000000 0.8783 0.8786 0.8788 0.8791 0.8792
2348.000000 0.8794 0.8794 0.8795 0.8795 0.8796
2353.000000 0.8797 0.8798 0.8798 0.8799 0.8799
2358.000000 0.8800 0.8799 0.8798 0.8797 0.8796
2363.000000 0.8795 0.8795 0.8794 0.8793 0.8793
2368.000000 0.8794 0.8796 0.8798 0.8799 0.8801
2373.000000 0.8803 0.8805 0.8806 0.8808 0.8808
2378.000000 0.8809 0.8809 0.8810 0.8810 0.8810
2383.000000 0.8807 0.8805 0.8803 0.8801 0.8798
2388.000000 0.8796 0.8794 0.8792 0.8790 0.8788
2393.000000 0.8785 0.8782 0.8779 0.8776 0.8773
2398.000000 0.8770 0.8767 0.8764 0.8761 0.8758
2403.000000 0.8756 0.8754 0.8752 0.8750 0.8748
2408.000000 0.8747 0.8745 0.8743 0.8741 0.8740
2413.000000 0.8740 0.8740 0.8740 0.8741 0.8743
2418.000000 0.8746 0.8748 0.8751 0.8753 0.8756
2423.000000 0.8761 0.8767 0.8773 0.8779 0.8785
2428.000000 0.8791 0.8796 0.8802 0.8802 0.8803
2433.000000 0.8803 0.8804 0.8804 0.8805 0.8804
2438.000000 0.8803 0.8801 0.8799 0.8797 0.8795
2443.000000 0.8793 0.8791 0.8789 0.8787 0.8785
2448.000000 0.8784 0.8783 0.8782 0.8781 0.8781
2453.000000 0.8780 0.8779 0.8778 0.8777 0.8776
2458.000000 0.8775 0.8774 0.8773 0.8770 0.8768
2463.000000 0.8766 0.8764 0.8761 0.8759 0.8757
2468.000000 0.8755 0.8752 0.8750 0.8748 0.8746
2473.000000 0.8744 0.8742 0.8740 0.8738 0.8736
2478.000000 0.8735 0.8733 0.8732 0.8730 0.8729
2483.000000 0.8727 0.8725 0.8723 0.8722 0.8720
2488.000000 0.8719 0.8717 0.8716 0.8714 0.8712
2493.000000 0.8710 0.8709 0.8707 0.8706 0.8704
