##TITLE=FORMIC ACID, 2-PROPYL ESTER
##JCAMP-DX=4.24
##DATA TYPE=INFRARED SPECTRUM
##CLASS=COBLENTZ III
##ORIGIN=DOW CHEMICAL COMPANY
##OWNER=COBLENTZ SOCIETY
Collection (C) 2018 copyright by the U.S. Secretary of Commerce
on behalf of the United States of America. All rights reserved.
##DATE=Not specified, most likely prior to 1970
##NAMES=isopropyl formate
ISOPROPYL FORMATE
##CAS REGISTRY NO=625-55-8
##MOLFORM=C4 H8 O2
##SOURCE REFERENCE=COBLENTZ NO. 1034
##$NIST SOURCE=COBLENTZ
##$NIST IMAGE=cob1034
##SPECTROMETER/DATA SYSTEM=Not specified, most likely a prism, grating, or hybrid spectrometer.
##STATE=SOLUTION, SALTED (20% CCl4 FOR 3800-1333, 20% CS2 FOR 1333-450 CM^-^1)
##PATH LENGTH=0.011 CM, 0.011 CM
$$SPECTRAL CONTAMINATION DUE TO CS2 AROUND 860, AND CCl4 AROUND 1550 CM^-^1
##SAMPLING PROCEDURE=TRANSMISSION
##RESOLUTION=4
##DATA PROCESSING=DIGITIZED BY NIST FROM HARD COPY (FROM TWO SEGMENTS)
##XUNITS=1/CM
##YUNITS=TRANSMITTANCE
##XFACTOR=1.000000
##YFACTOR=1
##DELTAX=1.138957
##FIRSTX=453.303
##LASTX=3791.59
##FIRSTY=0.868
##MAXX=3791.59
##MINX=453.303
##MAXY=1
##MINY=0.01
##NPOINTS=2932
##XYDATA=(X++(Y..Y))
453.303000 0.8680 0.8680 0.8700 0.8720 0.8720
458.997784 0.8740 0.8740 0.8750 0.8770 0.8790
464.692568 0.8790 0.8810 0.8820 0.8840 0.8860
470.387352 0.8880 0.8880 0.8880 0.8880 0.8880
476.082136 0.8880 0.8880 0.8880 0.8880 0.8880
481.776920 0.8880 0.8880 0.8880 0.8880 0.8880
487.471704 0.8880 0.8880 0.8900 0.8900 0.8900
493.166488 0.8910 0.8930 0.9039 0.9129 0.9140
498.861272 0.9210 0.9340 0.9390 0.9430 0.9480
504.556056 0.9530 0.9550 0.9570 0.9590 0.9600
510.250840 0.9620 0.9660 0.9680 0.9690 0.9710
515.945624 0.9760 0.9780 0.9800 0.9800 0.9800
521.640408 0.9820 0.9820 0.9820 0.9820 0.9820
527.335192 0.9820 0.9820 0.9820 0.9820 0.9820
533.029976 0.9850 0.9850 0.9850 0.9890 0.9890
538.724760 0.9890 0.9890 0.9910 0.9910 0.9910
544.419544 0.9920 0.9890 0.9890 0.9890 0.9890
550.114328 0.9890 0.9890 0.9890 0.9890 0.9890
555.809112 0.9890 0.9890 0.9890 0.9890 0.9870
561.503896 0.9870 0.9850 0.9850 0.9840 0.9840
567.198680 0.9820 0.9820 0.9820 0.9820 0.9800
572.893464 0.9800 0.9800 0.9800 0.9800 0.9800
578.588248 0.9820 0.9820 0.9840 0.9840 0.9850
584.283032 0.9850 0.9890 0.9920 0.9920 0.9940
589.977816 0.9960 0.9980 0.9980 0.9980 0.9980
595.672600 0.9980 0.9980 0.9980 0.9980 0.9980
601.367384 0.9980 0.9980 0.9980 0.9980 0.9940
607.062168 0.9920 0.9910 0.9890 0.9870 0.9850
612.756952 0.9850 0.9850 0.9850 0.9800 0.9780
618.451736 0.9780 0.9780 0.9820 0.9840 0.9850
624.146520 0.9870 0.9870 0.9870 0.9870 0.9870
629.841304 0.9840 0.9800 0.9780 0.9750 0.9690
635.536088 0.9660 0.9620 0.9590 0.9570 0.9530
641.230872 0.9520 0.9371 0.9340 0.9201 0.9160
646.925656 0.9160 0.9160 0.9180 0.9200 0.9210
652.620440 0.9230 0.9230 0.9210 0.9210 0.9180
658.315224 0.9180 0.9180 0.9200 0.9210 0.9250
664.010008 0.9320 0.9360 0.9370 0.9390 0.9390
669.704792 0.9390 0.9370 0.9370 0.9370 0.9360
675.399576 0.9340 0.9340 0.9340 0.9340 0.9370
681.094360 0.9430 0.9480 0.9550 0.9590 0.9600
686.789144 0.9600 0.9620 0.9640 0.9640 0.9620
692.483928 0.9620 0.9620 0.9600 0.9600 0.9600
698.178712 0.9600 0.9600 0.9600 0.9590 0.9590
703.873496 0.9600 0.9600 0.9600 0.9600 0.9600
709.568280 0.9600 0.9600 0.9600 0.9600 0.9600
715.263064 0.9620 0.9620 0.9620 0.9620 0.9620
720.957848 0.9620 0.9620 0.9620 0.9620 0.9620
726.652632 0.9620 0.9620 0.9620 0.9620 0.9640
732.347416 0.9620 0.9620 0.9620 0.9620 0.9620
738.042200 0.9620 0.9620 0.9620 0.9620 0.9620
743.736984 0.9620 0.9600 0.9600 0.9590 0.9590
749.431768 0.9530 0.9530 0.9530 0.9530 0.9530
755.126552 0.9550 0.9570 0.9590 0.9600 0.9620
760.821336 0.9620 0.9620 0.9620 0.9620 0.9620
766.516119 0.9620 0.9620 0.9600 0.9590 0.9570
772.210903 0.9570 0.9550 0.9530 0.9520 0.9520
777.905687 0.9480 0.9460 0.9450 0.9430 0.9390
783.600471 0.9320 0.9320 0.9320 0.9340 0.9360
789.295255 0.9410 0.9460 0.9460 0.9500 0.9500
794.990039 0.9480 0.9480 0.9480 0.9480 0.9480
800.684823 0.9460 0.9460 0.9450 0.9430 0.9410
806.379607 0.9390 0.9390 0.9360 0.9360 0.9320
812.074391 0.9320 0.9210 0.9160 0.9130 0.9140
817.769175 0.8980 0.8840 0.8680 0.7052 0.6960
823.463959 0.6820 0.6800 0.6800 0.6929 0.7477
829.158743 0.8151 0.8580 0.8770 0.9090 0.9110
834.853527 0.9130 0.9130 0.9130 0.9130 0.9130
840.548311 0.9110 0.9070 0.9040 0.9000 0.8980
846.243095 0.8930 0.8880 0.8770 0.8740 0.8263
851.937879 0.8200 0.8170 0.8130 0.8060 0.7970
857.632663 0.7900 0.7870 0.7850 0.7850 0.7850
863.327447 0.7900 0.7990 0.8010 0.8040 0.8060
869.022231 0.8080 0.8150 0.8220 0.8240 0.8280
874.717015 0.8310 0.8330 0.8350 0.8360 0.8490
880.411799 0.8520 0.8560 0.8630 0.8680 0.8720
886.106583 0.8720 0.8810 0.8900 0.8930 0.9020
891.801367 0.9040 0.9070 0.9110 0.9110 0.9130
897.496151 0.9110 0.9110 0.9090 0.9040 0.8980
903.190935 0.8880 0.8720 0.8541 0.8381 0.8201
908.885719 0.8010 0.7870 0.7830 0.7850 0.8289
914.580503 0.8510 0.8739 0.8909 0.8980 0.9089
920.275287 0.9130 0.9230 0.9300 0.9300 0.9320
925.970071 0.9340 0.9340 0.9340 0.9340 0.9340
931.664855 0.9340 0.9340 0.9340 0.9340 0.9340
937.359639 0.9340 0.9340 0.9340 0.9340 0.9340
943.054423 0.9320 0.9320 0.9300 0.9250 0.9200
948.749207 0.9160 0.8911 0.8900 0.8880 0.8880
954.443991 0.8910 0.8970 0.9070 0.9210 0.9300
960.138775 0.9340 0.9370 0.9450 0.9500 0.9500
965.833559 0.9550 0.9550 0.9550 0.9550 0.9550
971.528343 0.9570 0.9570 0.9570 0.9570 0.9570
977.223127 0.9570 0.9590 0.9590 0.9590 0.9590
982.917911 0.9590 0.9590 0.9590 0.9590 0.9590
988.612695 0.9590 0.9590 0.9590 0.9600 0.9590
994.307479 0.9590 0.9590 0.9590 0.9590 0.9590
1000.002263 0.9590 0.9590 0.9590 0.9590 0.9570
1005.697047 0.9550 0.9550 0.9550 0.9530 0.9520
1011.391831 0.9500 0.9480 0.9450 0.9320 0.9230
1017.086615 0.9200 0.9210 0.9250 0.9300 0.9340
1022.781399 0.9450 0.9530 0.9530 0.9550 0.9550
1028.476183 0.9530 0.9530 0.9520 0.9520 0.9500
1034.170967 0.9500 0.9500 0.9500 0.9500 0.9480
1039.865751 0.9480 0.9460 0.9460 0.9430 0.9410
1045.560535 0.9390 0.9370 0.9360 0.9340 0.9320
1051.255319 0.9320 0.9320 0.9300 0.9290 0.9250
1056.950103 0.9210 0.9160 0.9130 0.9090 0.9070
1062.644887 0.9040 0.9000 0.8950 0.8910 0.8880
1068.339671 0.8810 0.8750 0.8750 0.8750 0.8790
1074.034455 0.8840 0.8900 0.8930 0.8950 0.8950
1079.729239 0.8950 0.8930 0.8910 0.8900 0.8880
1085.424023 0.8840 0.8810 0.8750 0.8700 0.8610
1091.118807 0.8520 0.8469 0.8170 0.7970 0.7780
1096.813591 0.7341 0.7001 0.6611 0.6221 0.5832
1102.508375 0.5298 0.4448 0.2780 0.2740 0.2740
1108.203159 0.2940 0.3130 0.3329 0.3768 0.4517
1113.897943 0.5241 0.5741 0.6271 0.6730 0.7050
1119.592727 0.7180 0.7459 0.7620 0.7889 0.8099
1125.287511 0.8310 0.8330 0.8330 0.8330 0.8330
1130.982295 0.8330 0.8330 0.8330 0.8330 0.8290
1136.677079 0.8260 0.8190 0.8130 0.8120 0.8080
1142.371863 0.7920 0.7650 0.7550 0.7321 0.7101
1148.066647 0.7070 0.7070 0.7090 0.7250 0.7280
1153.761431 0.7460 0.7600 0.7600 0.7600 0.7600
1159.456215 0.7580 0.7500 0.7440 0.7410 0.7320
1165.150999 0.7260 0.7100 0.6960 0.6800 0.6611
1170.845783 0.6429 0.5989 0.5530 0.5300 0.5030
1176.540567 0.4501 0.4141 0.3472 0.2463 0.2141
1182.235351 0.0738 0.0210 0.0170 0.0190 0.0210
1187.930135 0.0240 0.0260 0.0310 0.0310 0.0370
1193.624919 0.0420 0.0461 0.0860 0.1270 0.1540
1199.319703 0.2189 0.2739 0.3418 0.4058 0.4588
1205.014487 0.5211 0.5461 0.5790 0.6090 0.6310
1210.709271 0.6500 0.6680 0.6890 0.7139 0.7250
1216.404055 0.7390 0.7420 0.7570 0.7620 0.7670
1222.098839 0.7730 0.7780 0.7850 0.7900 0.7920
1227.793623 0.7970 0.8030 0.8100 0.8120 0.8150
1233.488407 0.8200 0.8290 0.8290 0.8330 0.8470
1239.183191 0.8540 0.8580 0.8610 0.8680 0.8740
1244.877975 0.8860 0.8880 0.8880 0.8910 0.8950
1250.572759 0.8950 0.8970 0.9000 0.9040 0.9060
1256.267543 0.9070 0.9070 0.9110 0.9140 0.9160
1261.962327 0.9160 0.9180 0.9200 0.9210 0.9230
1267.657111 0.9230 0.9250 0.9250 0.9250 0.9290
1273.351895 0.9290 0.9290 0.9290 0.9300 0.9320
1279.046679 0.9340 0.9360 0.9370 0.9370 0.9370
1284.741463 0.9390 0.9390 0.9410 0.9410 0.9410
1290.436247 0.9410 0.9410 0.9410 0.9410 0.9410
1296.131031 0.9430 0.9430 0.9430 0.9430 0.9430
1301.825815 0.9450 0.9450 0.9450 0.9450 0.9450
1307.520599 0.9450 0.9450 0.9450 0.9450 0.9450
1313.215383 0.9450 0.9450 0.9450 0.9430 0.9430
1318.910167 0.9430 0.9360 0.9340 0.9320 0.9300
1324.604951 0.9290 0.9270 0.9250 0.9200 0.9180
1330.299735 0.9160 0.9140 0.9070 0.9070 0.9020
1335.994519 0.8950 0.8880 0.8820 0.8810 0.8810
1341.689303 0.8790 0.8770 0.8740 0.8700 0.8670
1347.384087 0.8650 0.8590 0.8560 0.8540 0.8520
1353.078871 0.8681 0.8841 0.9070 0.9110 0.9140
1358.773655 0.9160 0.9200 0.9210 0.9210 0.9230
1364.468439 0.9230 0.9200 0.9160 0.9130 0.9110
1370.163223 0.9090 0.9020 0.8721 0.8311 0.8131
1375.858007 0.7918 0.7417 0.6429 0.5810 0.5810
1381.552791 0.6220 0.6909 0.7619 0.7899 0.7940
1387.247575 0.7940 0.7920 0.7739 0.7410 0.7280
1392.942358 0.7120 0.7120 0.7709 0.7989 0.8289
1398.637142 0.8680 0.8810 0.8880 0.8900 0.8950
1404.331926 0.9020 0.9110 0.9130 0.9140 0.9180
1410.026710 0.9210 0.9210 0.9230 0.9230 0.9230
1415.721494 0.9250 0.9250 0.9250 0.9250 0.9270
1421.416278 0.9270 0.9270 0.9270 0.9290 0.9290
1427.111062 0.9290 0.9290 0.9290 0.9290 0.9290
1432.805846 0.9290 0.9290 0.9290 0.9270 0.9230
1438.500630 0.9200 0.9160 0.9140 0.9130 0.9070
1444.195414 0.9020 0.8980 0.8910 0.8880 0.8750
1449.890198 0.8450 0.8330 0.8170 0.8010 0.7870
1455.584982 0.7830 0.7870 0.7940 0.8080 0.8220
1461.279766 0.8330 0.8420 0.8420 0.8420 0.8420
1466.974550 0.8380 0.8280 0.8170 0.8060 0.7990
1472.669334 0.7920 0.7850 0.7810 0.7780 0.7800
1478.364118 0.7850 0.7971 0.8190 0.8291 0.8670
1484.058902 0.8680 0.8700 0.8700 0.8680 0.8670
1489.753686 0.8610 0.8490 0.8470 0.8450 0.8430
1495.448470 0.8420 0.8400 0.8380 0.8360 0.8350
1501.143254 0.8289 0.8120 0.8080 0.8010 0.7970
1506.838038 0.7940 0.7900 0.7650 0.7600 0.7600
1512.532822 0.7570 0.7530 0.7480 0.7370 0.7350
1518.227606 0.7250 0.7210 0.7190 0.7090 0.6960
1523.922390 0.6910 0.6890 0.6870 0.6840 0.6700
1529.617174 0.6610 0.6540 0.6470 0.6400 0.6310
1535.311958 0.6129 0.5969 0.5760 0.5720 0.5650
1541.006742 0.5460 0.5030 0.4850 0.4840 0.4780
1546.701526 0.4750 0.4730 0.4710 0.4690 0.4680
1552.396310 0.4680 0.4690 0.4690 0.4820 0.4870
1558.091094 0.4941 0.5121 0.5300 0.5370 0.5420
1563.785878 0.5440 0.5440 0.5490 0.5700 0.5830
1569.480662 0.5860 0.5921 0.6250 0.6290 0.6310
1575.175446 0.6340 0.6430 0.6470 0.6540 0.6560
1580.870230 0.6570 0.6570 0.6610 0.6700 0.6710
1586.565014 0.6770 0.6860 0.6870 0.6890 0.7020
1592.259798 0.7070 0.7180 0.7260 0.7390 0.7530
1597.954582 0.7570 0.7710 0.7760 0.7900 0.8119
1603.649366 0.8150 0.8280 0.8310 0.8400 0.8510
1609.344150 0.8650 0.8680 0.8770 0.8840 0.8860
1615.038934 0.8860 0.8880 0.8970 0.9070 0.9090
1620.733718 0.9090 0.9110 0.9140 0.9160 0.9200
1626.428502 0.9200 0.9230 0.9270 0.9290 0.9300
1632.123286 0.9320 0.9370 0.9410 0.9430 0.9480
1637.818070 0.9520 0.9530 0.9530 0.9530 0.9530
1643.512854 0.9530 0.9530 0.9530 0.9520 0.9480
1649.207638 0.9460 0.9430 0.9370 0.9300 0.9230
1654.902422 0.9230 0.9210 0.9200 0.9180 0.9140
1660.597206 0.9110 0.9090 0.9040 0.9020 0.9000
1666.291990 0.8980 0.8970 0.8930 0.8880 0.8860
1671.986774 0.8770 0.8770 0.8740 0.8670 0.8580
1677.681558 0.8560 0.8520 0.8490 0.8470 0.8380
1683.376342 0.8169 0.7920 0.7900 0.7900 0.7850
1689.071126 0.7830 0.7830 0.7810 0.7800 0.7730
1694.765910 0.7710 0.7600 0.7570 0.7550 0.7350
1700.460694 0.7300 0.7210 0.7120 0.6950 0.6750
1706.155478 0.6569 0.6399 0.6220 0.6150 0.6089
1711.850262 0.5469 0.4780 0.4500 0.3431 0.2252
1717.545046 0.1818 0.1407 0.0579 0.0140 0.0100
1723.239830 0.0100 0.0100 0.0120 0.0140 0.0170
1728.934614 0.0230 0.0280 0.0303 0.1222 0.2121
1734.629398 0.2410 0.2530 0.2780 0.3509 0.3929
1740.324182 0.4603 0.5311 0.5512 0.6311 0.6540
1746.018966 0.6710 0.7030 0.7260 0.7420 0.7550
1751.713750 0.7641 0.7740 0.7810 0.7830 0.7900
1757.408534 0.7960 0.8080 0.8150 0.8190 0.8310
1763.103318 0.8540 0.8541 0.8670 0.8680 0.8750
1768.798102 0.8820 0.8840 0.8910 0.8970 0.9040
1774.492886 0.9070 0.9070 0.9090 0.9110 0.9110
1780.187670 0.9110 0.9200 0.9210 0.9230 0.9250
1785.882454 0.9270 0.9270 0.9290 0.9300 0.9300
1791.577238 0.9300 0.9320 0.9320 0.9320 0.9320
1797.272022 0.9320 0.9320 0.9320 0.9340 0.9360
1802.966806 0.9370 0.9390 0.9390 0.9410 0.9410
1808.661590 0.9410 0.9410 0.9410 0.9410 0.9410
1814.356374 0.9430 0.9430 0.9450 0.9430 0.9430
1820.051158 0.9430 0.9450 0.9460 0.9460 0.9460
1825.745942 0.9460 0.9460 0.9460 0.9460 0.9460
1831.440726 0.9460 0.9460 0.9460 0.9460 0.9480
1837.135510 0.9480 0.9480 0.9480 0.9480 0.9500
1842.830294 0.9500 0.9500 0.9500 0.9500 0.9480
1848.525078 0.9480 0.9460 0.9480 0.9480 0.9480
1854.219862 0.9480 0.9480 0.9480 0.9480 0.9480
1859.914646 0.9480 0.9480 0.9500 0.9500 0.9500
1865.609430 0.9500 0.9500 0.9500 0.9520 0.9520
1871.304214 0.9520 0.9520 0.9520 0.9520 0.9520
1876.998998 0.9520 0.9520 0.9520 0.9520 0.9520
1882.693782 0.9530 0.9530 0.9530 0.9530 0.9530
1888.388566 0.9530 0.9530 0.9530 0.9530 0.9530
1894.083350 0.9530 0.9530 0.9530 0.9530 0.9530
1899.778134 0.9530 0.9530 0.9530 0.9550 0.9530
1905.472918 0.9530 0.9530 0.9520 0.9520 0.9520
1911.167702 0.9520 0.9520 0.9520 0.9520 0.9520
1916.862486 0.9520 0.9520 0.9520 0.9500 0.9500
1922.557270 0.9500 0.9500 0.9500 0.9500 0.9500
1928.252054 0.9500 0.9500 0.9520 0.9520 0.9520
1933.946838 0.9520 0.9520 0.9520 0.9520 0.9530
1939.641622 0.9530 0.9530 0.9530 0.9530 0.9530
1945.336406 0.9530 0.9530 0.9530 0.9530 0.9530
1951.031190 0.9550 0.9550 0.9530 0.9530 0.9530
1956.725974 0.9530 0.9530 0.9530 0.9530 0.9530
1962.420758 0.9530 0.9530 0.9550 0.9550 0.9550
1968.115542 0.9530 0.9530 0.9530 0.9530 0.9530
1973.810326 0.9530 0.9520 0.9500 0.9500 0.9520
1979.505110 0.9520 0.9520 0.9520 0.9520 0.9520
1985.199894 0.9500 0.9500 0.9500 0.9480 0.9480
1990.894678 0.9460 0.9450 0.9450 0.9450 0.9450
1996.589462 0.9430 0.9410 0.9370 0.9370 0.9365
2002.284246 0.9360 0.9340 0.9320 0.9305 0.9290
2007.979030 0.9280 0.9270 0.9260 0.9250 0.9260
2013.673813 0.9270 0.9284 0.9299 0.9310 0.9320
2019.368597 0.9320 0.9320 0.9339 0.9359 0.9394
2025.063381 0.9429 0.9430 0.9430 0.9444 0.9459
2030.758165 0.9460 0.9460 0.9488 0.9518 0.9520
2036.452949 0.9520 0.9520 0.9520 0.9520 0.9520
2042.147733 0.9520 0.9520 0.9520 0.9520 0.9525
2047.842517 0.9530 0.9530 0.9530 0.9530 0.9530
2053.537301 0.9530 0.9530 0.9530 0.9530 0.9530
2059.232085 0.9530 0.9530 0.9530 0.9530 0.9530
2064.926869 0.9530 0.9530 0.9530 0.9530 0.9530
2070.621653 0.9530 0.9530 0.9530 0.9539 0.9549
2076.316437 0.9550 0.9550 0.9550 0.9550 0.9550
2082.011221 0.9550 0.9550 0.9550 0.9550 0.9550
2087.706005 0.9550 0.9550 0.9550 0.9550 0.9550
2093.400789 0.9550 0.9550 0.9550 0.9558 0.9568
2099.095573 0.9562 0.9552 0.9558 0.9568 0.9570
2104.790357 0.9570 0.9570 0.9570 0.9570 0.9570
2110.485141 0.9570 0.9570 0.9570 0.9570 0.9570
2116.179925 0.9570 0.9570 0.9570 0.9570 0.9570
2121.874709 0.9578 0.9588 0.9590 0.9590 0.9590
2127.569493 0.9590 0.9590 0.9590 0.9590 0.9590
2133.264277 0.9590 0.9590 0.9590 0.9590 0.9590
2138.959061 0.9590 0.9590 0.9590 0.9590 0.9590
2144.653845 0.9590 0.9590 0.9590 0.9590 0.9590
2150.348629 0.9590 0.9590 0.9590 0.9590 0.9590
2156.043413 0.9590 0.9590 0.9590 0.9590 0.9590
2161.738197 0.9590 0.9590 0.9590 0.9590 0.9590
2167.432981 0.9590 0.9590 0.9590 0.9590 0.9590
2173.127765 0.9590 0.9590 0.9590 0.9590 0.9590
2178.822549 0.9590 0.9590 0.9590 0.9590 0.9590
2184.517333 0.9590 0.9583 0.9573 0.9570 0.9570
2190.212117 0.9570 0.9570 0.9570 0.9570 0.9570
2195.906901 0.9570 0.9570 0.9570 0.9570 0.9570
2201.601685 0.9570 0.9570 0.9570 0.9570 0.9570
2207.296469 0.9570 0.9570 0.9570 0.9564 0.9554
2212.991253 0.9550 0.9550 0.9550 0.9550 0.9550
2218.686037 0.9550 0.9550 0.9550 0.9550 0.9550
2224.380821 0.9550 0.9550 0.9544 0.9534 0.9530
2230.075605 0.9530 0.9530 0.9530 0.9527 0.9522
2235.770389 0.9520 0.9520 0.9520 0.9520 0.9520
2241.465173 0.9520 0.9520 0.9520 0.9520 0.9520
2247.159957 0.9520 0.9520 0.9520 0.9520 0.9520
2252.854741 0.9520 0.9514 0.9504 0.9494 0.9485
2258.549525 0.9480 0.9480 0.9480 0.9480 0.9475
2264.244309 0.9465 0.9460 0.9460 0.9457 0.9452
2269.939093 0.9450 0.9450 0.9435 0.9404 0.9382
2275.633877 0.9367 0.9350 0.9330 0.9320 0.9320
2281.328661 0.9315 0.9305 0.9298 0.9293 0.9290
2287.023445 0.9290 0.9285 0.9275 0.9270 0.9270
2292.718229 0.9265 0.9255 0.9250 0.9250 0.9250
2298.413013 0.9250 0.9250 0.9250 0.9255 0.9265
2304.107797 0.9275 0.9285 0.9290 0.9290 0.9290
2309.802581 0.9290 0.9290 0.9290 0.9290 0.9290
2315.497365 0.9290 0.9290 0.9290 0.9290 0.9290
2321.192149 0.9290 0.9290 0.9290 0.9290 0.9290
2326.886933 0.9292 0.9297 0.9300 0.9300 0.9300
2332.581717 0.9300 0.9300 0.9300 0.9300 0.9300
2338.276501 0.9300 0.9300 0.9300 0.9300 0.9300
2343.971285 0.9300 0.9300 0.9300 0.9298 0.9293
2349.666069 0.9290 0.9290 0.9290 0.9290 0.9290
2355.360853 0.9290 0.9290 0.9290 0.9286 0.9276
2361.055637 0.9266 0.9256 0.9250 0.9250 0.9246
2366.750421 0.9236 0.9230 0.9230 0.9230 0.9230
2372.445205 0.9233 0.9243 0.9250 0.9250 0.9253
2378.139989 0.9263 0.9275 0.9290 0.9303 0.9313
2383.834773 0.9323 0.9333 0.9343 0.9353 0.9362
2389.529557 0.9367 0.9370 0.9370 0.9373 0.9383
2395.224341 0.9393 0.9403 0.9410 0.9410 0.9413
2400.919125 0.9423 0.9434 0.9449 0.9463 0.9473
2406.613909 0.9480 0.9480 0.9480 0.9480 0.9483
2412.308693 0.9493 0.9500 0.9500 0.9497 0.9487
2418.003477 0.9483 0.9493 0.9500 0.9500 0.9500
2423.698261 0.9500 0.9500 0.9500 0.9500 0.9500
2429.393045 0.9500 0.9500 0.9500 0.9500 0.9500
2435.087829 0.9500 0.9500 0.9500 0.9500 0.9500
2440.782613 0.9500 0.9500 0.9500 0.9500 0.9500
2446.477397 0.9500 0.9500 0.9500 0.9503 0.9518
2452.172181 0.9530 0.9530 0.9529 0.9524 0.9520
2457.866965 0.9520 0.9520 0.9520 0.9520 0.9520
2463.561749 0.9520 0.9520 0.9520 0.9520 0.9520
2469.256533 0.9520 0.9520 0.9520 0.9520 0.9520
2474.951317 0.9520 0.9520 0.9520 0.9520 0.9520
2480.646101 0.9520 0.9520 0.9520 0.9520 0.9520
2486.340885 0.9520 0.9520 0.9520 0.9520 0.9520
2492.035669 0.9520 0.9520 0.9520 0.9520 0.9520
2497.730453 0.9520 0.9520 0.9519 0.9509 0.9500
2503.425237 0.9500 0.9499 0.9489 0.9480 0.9480
2509.120021 0.9480 0.9480 0.9480 0.9480 0.9480
2514.814805 0.9480 0.9480 0.9480 0.9480 0.9480
2520.509589 0.9480 0.9480 0.9480 0.9480 0.9480
2526.204373 0.9480 0.9480 0.9480 0.9479 0.9469
2531.899157 0.9460 0.9455 0.9450 0.9450 0.9450
2537.593941 0.9450 0.9450 0.9450 0.9450 0.9450
2543.288725 0.9450 0.9455 0.9460 0.9460 0.9460
2548.983509 0.9460 0.9460 0.9460 0.9460 0.9455
2554.678293 0.9450 0.9455 0.9460 0.9460 0.9460
2560.373077 0.9460 0.9460 0.9470 0.9480 0.9480
2566.067861 0.9480 0.9480 0.9480 0.9480 0.9480
2571.762645 0.9480 0.9480 0.9480 0.9480 0.9490
2577.457429 0.9500 0.9500 0.9500 0.9500 0.9500
2583.152213 0.9500 0.9500 0.9490 0.9480 0.9480
2588.846997 0.9480 0.9480 0.9480 0.9499 0.9519
2594.541781 0.9510 0.9500 0.9500 0.9500 0.9500
2600.236565 0.9500 0.9509 0.9519 0.9520 0.9520
2605.931349 0.9511 0.9501 0.9500 0.9500 0.9500
2611.626133 0.9500 0.9500 0.9500 0.9500 0.9500
2617.320917 0.9500 0.9500 0.9500 0.9500 0.9500
2623.015701 0.9500 0.9509 0.9519 0.9520 0.9520
2628.710485 0.9520 0.9520 0.9520 0.9520 0.9502
2634.405269 0.9482 0.9480 0.9480 0.9480 0.9480
2640.100052 0.9480 0.9480 0.9480 0.9480 0.9480
2645.794836 0.9480 0.9489 0.9499 0.9500 0.9500
2651.489620 0.9500 0.9500 0.9508 0.9518 0.9520
2657.184404 0.9520 0.9512 0.9502 0.9500 0.9500
2662.879188 0.9500 0.9500 0.9500 0.9500 0.9500
2668.573972 0.9500 0.9500 0.9500 0.9500 0.9500
2674.268756 0.9492 0.9482 0.9472 0.9462 0.9460
2679.963540 0.9460 0.9456 0.9451 0.9450 0.9450
2685.658324 0.9450 0.9450 0.9454 0.9459 0.9460
2691.353108 0.9460 0.9460 0.9460 0.9460 0.9460
2697.047892 0.9460 0.9460 0.9460 0.9460 0.9460
2702.742676 0.9460 0.9456 0.9451 0.9442 0.9432
2708.437460 0.9430 0.9430 0.9422 0.9412 0.9410
2714.132244 0.9410 0.9403 0.9393 0.9390 0.9390
2719.827028 0.9379 0.9364 0.9345 0.9326 0.9313
2725.521812 0.9303 0.9282 0.9257 0.9250 0.9250
2731.216596 0.9257 0.9267 0.9277 0.9287 0.9294
2736.911380 0.9299 0.9307 0.9317 0.9320 0.9320
2742.606164 0.9320 0.9320 0.9327 0.9337 0.9347
