##TITLE=2-PENTENE, 2-METHYL-
##JCAMP-DX=4.24
##DATA TYPE=INFRARED SPECTRUM
##CLASS=COBLENTZ III
##ORIGIN=DOW CHEMICAL COMPANY
##OWNER=COBLENTZ SOCIETY
Collection (C) 2018 copyright by the U.S. Secretary of Commerce
on behalf of the United States of America. All rights reserved.
##DATE=1964/09/24
##NAMES=2-methyl-2-pentene
##CAS REGISTRY NO=625-27-4
##MOLFORM=C6 H12
##SOURCE REFERENCE=COBLENTZ NO. 10127
##$NIST SOURCE=COBLENTZ
##$NIST IMAGE=cob10127
##SPECTROMETER/DATA SYSTEM=DOW KBr FOREPRISM-GRATING
##INSTRUMENT PARAMETERS=BLAZED AT 3.5, 12.0, 20.0 MICRON, CHANGED AT 5.0, 7.5, 14.9 MICRON
##STATE=SOLUTION (10% IN CCl4 FOR 3800-1330, 5% IN CS2 FOR 1330-670, AND 10% IN CCl4 FOR 670-460 CM^-^1)
##PATH LENGTH=0.011, 0.021, AND 0.011 CM
$$SPECTRAL CONTAMINATION DUE TO CCl4 AROUND 1550, AND CS2 AROUND 855 CM^-^1
##SAMPLING PROCEDURE=TRANSMISSION
##RESOLUTION=4
##DATA PROCESSING=DIGITIZED BY NIST FROM HARD COPY (FROM TWO SEGMENTS)
##XUNITS=1/CM
##YUNITS=TRANSMITTANCE
##XFACTOR=1.000000
##YFACTOR=1
##DELTAX=0.868623
##FIRSTX=456.46
##LASTX=3794.58
##FIRSTY=0.891
##MAXX=3794.58
##MINX=456.46
##MAXY=1.095
##MINY=0.008
##NPOINTS=3844
##XYDATA=(X++(Y..Y))
456.460000 0.8910 0.8910 0.8890 0.8890 0.8880
460.803117 0.8860 0.8860 0.8860 0.8860 0.8860
465.146234 0.8860 0.8860 0.8860 0.8860 0.8880
469.489351 0.8880 0.8890 0.8910 0.8930 0.8960
473.832468 0.9010 0.9100 0.9120 0.9160 0.9250
478.175585 0.9310 0.9380 0.9450 0.9530 0.9570
482.518702 0.9630 0.9650 0.9700 0.9760 0.9780
486.861819 0.9820 0.9850 0.9870 0.9890 0.9910
491.204936 0.9940 0.9970 0.9980 1.0000 1.0010
495.548053 1.0010 1.0040 1.0050 1.0060 1.0060
499.891170 1.0060 1.0060 1.0060 1.0060 1.0050
504.234287 1.0050 1.0040 1.0040 1.0020 1.0010
508.577404 1.0000 1.0000 0.9950 0.9940 0.9910
512.920521 0.9890 0.9860 0.9830 0.9800 0.9790
517.263638 0.9790 0.9790 0.9820 0.9850 0.9850
521.606755 0.9890 0.9910 0.9930 1.0000 1.0010
525.949872 1.0020 1.0060 1.0080 1.0090 1.0120
530.292988 1.0140 1.0170 1.0200 1.0230 1.0240
534.636105 1.0250 1.0280 1.0290 1.0310 1.0320
538.979222 1.0340 1.0350 1.0380 1.0400 1.0420
543.322339 1.0420 1.0430 1.0440 1.0460 1.0470
547.665456 1.0490 1.0500 1.0500 1.0500 1.0510
552.008573 1.0530 1.0540 1.0570 1.0580 1.0590
556.351690 1.0610 1.0620 1.0640 1.0660 1.0680
560.694807 1.0690 1.0700 1.0700 1.0700 1.0720
565.037924 1.0720 1.0720 1.0720 1.0740 1.0740
569.381041 1.0760 1.0760 1.0770 1.0770 1.0790
573.724158 1.0790 1.0790 1.0800 1.0810 1.0830
578.067275 1.0830 1.0810 1.0810 1.0830 1.0840
582.410392 1.0850 1.0850 1.0870 1.0880 1.0870
586.753509 1.0870 1.0870 1.0850 1.0850 1.0870
591.096626 1.0880 1.0890 1.0910 1.0910 1.0910
595.439743 1.0910 1.0910 1.0920 1.0920 1.0920
599.782860 1.0940 1.0940 1.0940 1.0940 1.0940
604.125977 1.0940 1.0950 1.0950 1.0950 1.0950
608.469094 1.0950 1.0950 1.0950 1.0950 1.0950
612.812211 1.0950 1.0950 1.0950 1.0950 1.0950
617.155328 1.0950 1.0950 1.0950 1.0950 1.0950
621.498445 1.0950 1.0950 1.0950 1.0950 1.0950
625.841562 1.0950 1.0940 1.0940 1.0940 1.0940
630.184679 1.0920 1.0920 1.0920 1.0910 1.0890
634.527796 1.0890 1.0880 1.0850 1.0850 1.0840
638.870913 1.0840 1.0830 1.0810 1.0790 1.0760
643.214030 1.0740 1.0730 1.0700 1.0700 1.0660
647.557147 1.0640 1.0620 1.0620 1.0610 1.0590
651.900264 1.0580 1.0570 1.0570 1.0550 1.0550
656.243381 1.0550 1.0570 1.0580 1.0610 1.0640
660.586498 1.0660 1.0680 1.0690 1.0700 1.0740
664.929615 1.0770 1.0810 1.0830 1.0830 1.0830
669.272732 1.0840 1.0840 1.0840 1.0840 1.0840
673.615848 1.0830 1.0830 1.0830 1.0830 1.0830
677.958965 1.0810 1.0810 1.0810 1.0810 1.0810
682.302082 1.0800 1.0800 1.0800 1.0800 1.0790
686.645199 1.0790 1.0790 1.0790 1.0790 1.0770
690.988316 1.0770 1.0770 1.0770 1.0770 1.0760
695.331433 1.0760 1.0760 1.0760 1.0760 1.0740
699.674550 1.0740 1.0740 1.0740 1.0730 1.0730
704.017667 1.0730 1.0720 1.0720 1.0720 1.0720
708.360784 1.0700 1.0700 1.0690 1.0690 1.0690
712.703901 1.0680 1.0680 1.0660 1.0660 1.0660
717.047018 1.0650 1.0640 1.0640 1.0620 1.0610
721.390135 1.0580 1.0570 1.0550 1.0550 1.0540
725.733252 1.0510 1.0490 1.0470 1.0460 1.0440
730.076369 1.0400 1.0350 1.0310 1.0250 1.0210
734.419486 1.0140 1.0040 1.0000 0.9890 0.9780
738.762603 0.9551 0.9331 0.9161 0.8742 0.8332
743.105720 0.8060 0.7620 0.7490 0.7300 0.7310
747.448837 0.7569 0.7769 0.7969 0.8309 0.8878
751.791954 0.9180 0.9440 0.9550 0.9680 0.9830
756.135071 0.9900 1.0000 1.0050 1.0090 1.0160
760.478188 1.0210 1.0250 1.0270 1.0280 1.0290
764.821305 1.0320 1.0350 1.0380 1.0400 1.0420
769.164422 1.0420 1.0420 1.0430 1.0440 1.0460
773.507539 1.0460 1.0460 1.0470 1.0470 1.0470
777.850656 1.0470 1.0460 1.0460 1.0460 1.0440
782.193773 1.0440 1.0430 1.0420 1.0400 1.0390
786.536890 1.0390 1.0380 1.0380 1.0360 1.0360
790.880007 1.0350 1.0340 1.0320 1.0320 1.0310
795.223124 1.0310 1.0280 1.0270 1.0240 1.0230
799.566241 1.0210 1.0170 1.0130 1.0120 1.0100
803.909358 1.0060 1.0020 1.0010 0.9980 0.9900
808.252475 0.9850 0.9800 0.9780 0.9670 0.9570
812.595592 0.9550 0.9440 0.9330 0.9220 0.9120
816.938709 0.9040 0.8950 0.8890 0.8760 0.8631
821.281825 0.8510 0.8360 0.8290 0.8160 0.7800
825.624942 0.7600 0.7121 0.6811 0.6382 0.5812
829.968059 0.4700 0.4420 0.4120 0.3520 0.3480
834.311176 0.3500 0.3690 0.3810 0.4069 0.4518
838.654293 0.4900 0.5420 0.6030 0.6679 0.7269
842.997410 0.7759 0.8069 0.8180 0.8369 0.8479
847.340527 0.8560 0.8610 0.8620 0.8620 0.8620
851.683644 0.8610 0.8610 0.8610 0.8590 0.8590
856.026761 0.8590 0.8610 0.8610 0.8630 0.8690
860.369878 0.8700 0.8730 0.8780 0.8810 0.8890
864.712995 0.8920 0.8950 0.9010 0.9100 0.9140
869.056112 0.9150 0.9220 0.9270 0.9330 0.9350
873.399229 0.9400 0.9440 0.9480 0.9530 0.9550
877.742346 0.9570 0.9590 0.9630 0.9650 0.9720
882.085463 0.9780 0.9790 0.9800 0.9850 0.9890
886.428580 0.9900 0.9910 0.9940 1.0000 1.0010
890.771697 1.0060 1.0120 1.0160 1.0170 1.0190
895.114814 1.0190 1.0170 1.0160 1.0140 1.0130
899.457931 1.0090 1.0020 0.9940 0.9850 0.9760
903.801048 0.9650 0.9530 0.9341 0.9141 0.9080
908.144165 0.9080 0.9110 0.9250 0.9590 0.9820
912.487282 0.9940 1.0040 1.0130 1.0210 1.0250
916.830399 1.0340 1.0390 1.0460 1.0470 1.0530
921.173516 1.0570 1.0610 1.0610 1.0640 1.0650
925.516633 1.0660 1.0680 1.0690 1.0690 1.0700
929.859750 1.0700 1.0720 1.0720 1.0720 1.0730
934.202867 1.0740 1.0740 1.0760 1.0770 1.0770
938.545984 1.0770 1.0770 1.0770 1.0770 1.0760
942.889101 1.0760 1.0760 1.0760 1.0760 1.0740
947.232218 1.0740 1.0730 1.0730 1.0730 1.0720
951.575335 1.0720 1.0700 1.0700 1.0690 1.0680
955.918452 1.0680 1.0650 1.0620 1.0610 1.0590
960.261569 1.0570 1.0550 1.0510 1.0490 1.0470
964.604685 1.0460 1.0420 1.0400 1.0390 1.0360
968.947802 1.0360 1.0310 1.0250 1.0210 1.0140
973.290919 1.0090 1.0040 1.0000 0.9910 0.9800
977.634036 0.9720 0.9600 0.9440 0.9220 0.8990
981.977153 0.8780 0.8610 0.8520 0.8520 0.8610
986.320270 0.8740 0.8890 0.9110 0.9230 0.9440
990.663387 0.9670 0.9780 0.9870 0.9980 1.0040
995.006504 1.0120 1.0190 1.0230 1.0280 1.0290
999.349621 1.0310 1.0310 1.0290 1.0280 1.0280
1003.692738 1.0270 1.0240 1.0230 1.0190 1.0160
1008.035855 1.0140 1.0140 1.0160 1.0190 1.0210
1012.378972 1.0230 1.0240 1.0280 1.0320 1.0380
1016.722089 1.0400 1.0420 1.0430 1.0430 1.0470
1021.065206 1.0490 1.0490 1.0490 1.0470 1.0470
1025.408323 1.0470 1.0460 1.0440 1.0440 1.0440
1029.751440 1.0440 1.0420 1.0400 1.0390 1.0360
1034.094557 1.0360 1.0360 1.0340 1.0320 1.0290
1038.437674 1.0280 1.0270 1.0240 1.0170 1.0120
1042.780791 1.0090 1.0050 1.0020 1.0000 0.9910
1047.123908 0.9850 0.9790 0.9750 0.9610 0.9490
1051.467025 0.9370 0.9230 0.9120 0.8821 0.8700
1055.810142 0.8520 0.8280 0.8100 0.7900 0.7600
1060.153259 0.7161 0.6851 0.6670 0.6670 0.6889
1064.496376 0.7050 0.7190 0.7410 0.7560 0.7610
1068.839493 0.7650 0.7690 0.7840 0.7980 0.8129
1073.182610 0.8461 0.8851 0.9260 0.9370 0.9550
1077.525727 0.9630 0.9750 0.9790 0.9900 1.0000
1081.868844 1.0050 1.0080 1.0100 1.0130 1.0160
1086.211961 1.0230 1.0240 1.0250 1.0270 1.0290
1090.555078 1.0320 1.0340 1.0360 1.0360 1.0380
1094.898195 1.0380 1.0380 1.0380 1.0380 1.0360
1099.241312 1.0360 1.0360 1.0360 1.0350 1.0350
1103.584429 1.0320 1.0310 1.0290 1.0270 1.0240
1107.927545 1.0170 1.0160 1.0080 1.0010 0.9890
1112.270662 0.9790 0.9710 0.9610 0.9460 0.9380
1116.613779 0.9200 0.8990 0.8800 0.8700 0.8410
1120.956896 0.8010 0.7950 0.7950 0.8199 0.8369
1125.300013 0.8630 0.8960 0.9490 0.9820 0.9980
1129.643130 1.0120 1.0250 1.0360 1.0440 1.0470
1133.986247 1.0490 1.0500 1.0530 1.0570 1.0580
1138.329364 1.0610 1.0620 1.0620 1.0640 1.0640
1142.672481 1.0640 1.0660 1.0690 1.0720 1.0740
1147.015598 1.0740 1.0740 1.0760 1.0740 1.0740
1151.358715 1.0740 1.0760 1.0770 1.0790 1.0800
1155.701832 1.0810 1.0810 1.0810 1.0810 1.0830
1160.044949 1.0830 1.0830 1.0830 1.0830 1.0810
1164.388066 1.0810 1.0830 1.0840 1.0840 1.0850
1168.731183 1.0870 1.0870 1.0870 1.0870 1.0870
1173.074300 1.0850 1.0840 1.0830 1.0830 1.0830
1177.417417 1.0810 1.0790 1.0730 1.0700 1.0720
1181.760534 1.0730 1.0760 1.0790 1.0790 1.0790
1186.103651 1.0790 1.0760 1.0740 1.0740 1.0740
1190.446768 1.0730 1.0720 1.0720 1.0680 1.0650
1194.789885 1.0620 1.0580 1.0530 1.0470 1.0460
1199.133002 1.0400 1.0230 1.0080 1.0000 0.9830
1203.476119 0.9589 0.9329 0.8950 0.8670 0.8460
1207.819236 0.8320 0.8320 0.8500 0.8700 0.9069
1212.162353 0.9570 0.9800 1.0000 1.0060 1.0190
1216.505470 1.0310 1.0360 1.0420 1.0460 1.0500
1220.848587 1.0530 1.0550 1.0580 1.0590 1.0620
1225.191704 1.0650 1.0650 1.0650 1.0650 1.0650
1229.534821 1.0650 1.0680 1.0680 1.0690 1.0690
1233.877938 1.0660 1.0660 1.0650 1.0640 1.0610
1238.221055 1.0610 1.0590 1.0580 1.0570 1.0540
1242.564172 1.0530 1.0510 1.0500 1.0470 1.0460
1246.907289 1.0420 1.0400 1.0400 1.0380 1.0340
1251.250405 1.0290 1.0270 1.0240 1.0230 1.0210
1255.593522 1.0170 1.0130 1.0100 1.0050 1.0020
1259.936639 0.9980 0.9940 0.9940 0.9950 0.9970
1264.279756 0.9980 1.0000 1.0010 1.0020 1.0060
1268.622873 1.0080 1.0090 1.0100 1.0130 1.0130
1272.965990 1.0140 1.0170 1.0190 1.0190 1.0200
1277.309107 1.0200 1.0200 1.0190 1.0190 1.0170
1281.652224 1.0160 1.0140 1.0130 1.0120 1.0120
1285.995341 1.0100 1.0090 1.0060 1.0020 1.0010
1290.338458 1.0000 0.9930 0.9900 0.9850 0.9780
1294.681575 0.9710 0.9630 0.9570 0.9460 0.9310
1299.024692 0.9180 0.8929 0.8520 0.8400 0.7990
1303.367809 0.7830 0.7750 0.7760 0.7920 0.8159
1307.710926 0.8401 0.8690 0.8930 0.9150 0.9300
1312.054043 0.9440 0.9490 0.9550 0.9570 0.9600
1316.397160 0.9630 0.9650 0.9670 0.9680 0.9680
1320.740277 0.9680 0.9680 0.9700 0.9700 0.9700
1325.083394 0.9680 0.9650 0.9630 0.9610 0.9610
1329.426511 0.9630 0.9630 0.9630 0.9630 0.9630
1333.769628 0.9610 0.9610 0.9600 0.9600 0.9590
1338.112745 0.9590 0.9590 0.9590 0.9570 0.9560
1342.455862 0.9560 0.9550 0.9500 0.9480 0.9450
1346.798979 0.9420 0.9400 0.9350 0.9300 0.9250
1351.142096 0.9190 0.9120 0.9100 0.9030 0.9010
1355.485213 0.9000 0.8990 0.8990 0.8970 0.8970
1359.828330 0.8930 0.8910 0.8890 0.8820 0.8760
1364.171447 0.8700 0.8580 0.8500 0.8350 0.8200
1368.514564 0.8030 0.7949 0.7669 0.7280 0.6920
1372.857681 0.6470 0.5500 0.5120 0.4741 0.4351
1377.200798 0.3969 0.3589 0.3210 0.2830 0.2830
1381.543915 0.3799 0.3820 0.4000 0.4180 0.4330
1385.887032 0.4911 0.5461 0.6020 0.6320 0.6970
1390.230149 0.7230 0.7580 0.7860 0.7950 0.8110
1394.573266 0.8140 0.8210 0.8260 0.8350 0.8370
1398.916382 0.8400 0.8460 0.8480 0.8500 0.8500
1403.259499 0.8500 0.8500 0.8470 0.8470 0.8470
1407.602616 0.8460 0.8460 0.8410 0.8390 0.8330
1411.945733 0.8310 0.8260 0.8240 0.8170 0.8140
1416.288850 0.8060 0.8010 0.7970 0.7940 0.7870
1420.631967 0.7770 0.7690 0.7620 0.7570 0.7420
1424.975084 0.7350 0.7240 0.7120 0.6920 0.6810
1429.318201 0.6620 0.6430 0.6250 0.6080 0.5940
1433.661318 0.5550 0.5360 0.5090 0.4741 0.4501
1438.004435 0.4340 0.4219 0.3950 0.3670 0.3590
1442.347552 0.3500 0.3310 0.3110 0.2980 0.2870
1446.690669 0.2800 0.2710 0.2650 0.2450 0.2420
1451.033786 0.2420 0.2450 0.2500 0.2680 0.2800
1455.376903 0.2971 0.3260 0.3520 0.3810 0.3970
1459.720020 0.4070 0.4070 0.3701 0.3590 0.3590
1464.063137 0.3620 0.3771 0.4370 0.4520 0.4700
1468.406254 0.5060 0.5470 0.5879 0.6169 0.6369
1472.749371 0.6481 0.6670 0.6790 0.6920 0.7080
1477.092488 0.7230 0.7300 0.7370 0.7460 0.7520
1481.435605 0.7570 0.7620 0.7670 0.7690 0.7750
1485.778722 0.7770 0.7830 0.7870 0.7940 0.7940
1490.121839 0.7980 0.8020 0.8060 0.8070 0.8090
1494.464956 0.8090 0.8090 0.8090 0.8070 0.8070
1498.808073 0.8060 0.8030 0.8010 0.7980 0.7950
1503.151190 0.7940 0.7910 0.7870 0.7840 0.7830
1507.494307 0.7790 0.7750 0.7710 0.7680 0.7650
1511.837424 0.7600 0.7580 0.7540 0.7490 0.7430
1516.180541 0.7410 0.7350 0.7320 0.7310 0.7270
1520.523658 0.7260 0.7220 0.7160 0.7130 0.7090
1524.866775 0.7080 0.7070 0.6970 0.6890 0.6820
1529.209892 0.6770 0.6710 0.6630 0.6560 0.6490
1533.553009 0.6450 0.6370 0.6320 0.6220 0.6170
1537.896126 0.6070 0.5990 0.5950 0.5770 0.5640
1542.239242 0.5550 0.5470 0.5380 0.5310 0.5240
1546.582359 0.5200 0.5190 0.5190 0.5190 0.5190
1550.925476 0.5200 0.5250 0.5250 0.5290 0.5350
1555.268593 0.5380 0.5430 0.5510 0.5610 0.5650
1559.611710 0.5760 0.5840 0.5920 0.6030 0.6130
1563.954827 0.6180 0.6290 0.6370 0.6450 0.6520
1568.297944 0.6580 0.6600 0.6630 0.6710 0.6770
1572.641061 0.6780 0.6810 0.6830 0.6860 0.6900
1576.984178 0.6920 0.6930 0.6930 0.6940 0.6960
1581.327295 0.6980 0.7000 0.7020 0.7080 0.7110
1585.670412 0.7150 0.7170 0.7240 0.7270 0.7300
1590.013529 0.7420 0.7470 0.7600 0.7670 0.7760
1594.356646 0.7840 0.7950 0.8030 0.8110 0.8140
1598.699763 0.8220 0.8290 0.8410 0.8520 0.8580
1603.042880 0.8650 0.8700 0.8730 0.8780 0.8820
1607.385997 0.8910 0.8920 0.8950 0.8990 0.9040
1611.729114 0.9080 0.9110 0.9120 0.9140 0.9180
1616.072231 0.9200 0.9250 0.9260 0.9270 0.9310
1620.415348 0.9330 0.9340 0.9350 0.9350 0.9350
1624.758465 0.9350 0.9350 0.9350 0.9350 0.9350
1629.101582 0.9340 0.9340 0.9340 0.9340 0.9340
1633.444699 0.9350 0.9370 0.9380 0.9400 0.9410
1637.787816 0.9420 0.9420 0.9420 0.9420 0.9420
1642.130933 0.9420 0.9420 0.9440 0.9440 0.9450
1646.474050 0.9440 0.9420 0.9420 0.9410 0.9410
1650.817167 0.9400 0.9370 0.9370 0.9350 0.9340
1655.160284 0.9330 0.9330 0.9260 0.9230 0.9200
1659.503401 0.9180 0.9140 0.9120 0.9050 0.9030
1663.846518 0.8990 0.8950 0.8920 0.8910 0.8850
1668.189635 0.8820 0.8800 0.8770 0.8730 0.8710
1672.532752 0.8700 0.8710 0.8730 0.8810 0.8920
1676.875869 0.9050 0.9230 0.9330 0.9440 0.9550
1681.218986 0.9610 0.9670 0.9680 0.9720 0.9740
1685.562102 0.9780 0.9790 0.9800 0.9850 0.9860
1689.905219 0.9860 0.9870 0.9890 0.9900 0.9910
1694.248336 0.9930 0.9930 0.9940 0.9940 0.9950
1698.591453 1.0000 1.0000 1.0010 1.0010 1.0010
1702.934570 1.0020 1.0020 1.0020 1.0020 1.0040
1707.277687 1.0040 1.0060 1.0060 1.0060 1.0080
1711.620804 1.0080 1.0080 1.0080 1.0060 1.0060
1715.963921 1.0060 1.0060 1.0060 1.0060 1.0060
1720.307038 1.0050 1.0040 1.0040 1.0040 1.0020
1724.650155 1.0020 1.0020 1.0010 1.0010 1.0010
1728.993272 1.0010 1.0010 1.0010 1.0010 1.0010
1733.336389 1.0010 1.0000 1.0000 1.0000 1.0000
1737.679506 0.9980 0.9980 1.0000 1.0000 1.0000
1742.022623 1.0010 1.0010 1.0010 1.0010 1.0020
1746.365740 1.0020 1.0040 1.0060 1.0080 1.0080
1750.708857 1.0080 1.0080 1.0080 1.0090 1.0100
1755.051974 1.0100 1.0100 1.0100 1.0100 1.0100
1759.395091 1.0100 1.0100 1.0130 1.0130 1.0130
1763.738208 1.0120 1.0120 1.0120 1.0120 1.0120
1768.081325 1.0090 1.0090 1.0090 1.0090 1.0090
1772.424442 1.0090 1.0090 1.0090 1.0090 1.0090
1776.767559 1.0090 1.0100 1.0100 1.0100 1.0100
1781.110676 1.0100 1.0120 1.0120 1.0100 1.0090
1785.453793 1.0090 1.0090 1.0090 1.0090 1.0090
1789.796910 1.0090 1.0090 1.0090 1.0100 1.0100
1794.140027 1.0100 1.0100 1.0090 1.0090 1.0080
1798.483144 1.0080 1.0060 1.0050 1.0050 1.0050
1802.826261 1.0040 1.0020 1.0020 1.0020 1.0020
1807.169378 1.0010 1.0010 1.0010 1.0010 1.0010
1811.512495 1.0010 1.0020 1.0010 1.0010 1.0000
1815.855612 1.0000 1.0000 1.0000 1.0010 1.0010
1820.198729 1.0010 1.0040 1.0040 1.0040 1.0040
1824.541846 1.0040 1.0040 1.0020 1.0020 1.0020
1828.884962 1.0020 1.0040 1.0040 1.0020 1.0020
1833.228079 1.0040 1.0040 1.0040 1.0050 1.0050
1837.571196 1.0020 1.0010 1.0010 1.0010 1.0020
1841.914313 1.0020 1.0020 1.0040 1.0040 1.0020
1846.257430 1.0020 1.0010 1.0010 1.0010 1.0010
1850.600547 1.0010 1.0010 1.0010 1.0020 1.0020
1854.943664 1.0020 1.0020 1.0020 1.0020 1.0020
1859.286781 1.0010 1.0020 1.0020 1.0010 1.0000
1863.629898 1.0000 1.0000 1.0010 1.0020 1.0040
1867.973015 1.0040 1.0040 1.0050 1.0050 1.0050
1872.316132 1.0040 1.0040 1.0040 1.0040 1.0040
1876.659249 1.0050 1.0060 1.0060 1.0060 1.0050
1881.002366 1.0050 1.0040 1.0020 1.0020 1.0010
1885.345483 1.0010 1.0010 1.0010 1.0010 1.0010
1889.688600 1.0010 1.0000 1.0000 1.0000 1.0000
1894.031717 0.9980 0.9980 0.9980 0.9980 0.9970
1898.374834 0.9970 0.9970 0.9970 0.9970 0.9970
1902.717951 0.9970 0.9970 0.9980 1.0000 1.0010
1907.061068 1.0020 1.0020 1.0040 1.0040 1.0050
1911.404185 1.0050 1.0060 1.0060 1.0080 1.0080
1915.747302 1.0080 1.0090 1.0090 1.0090 1.0090
1920.090419 1.0090 1.0090 1.0090 1.0090 1.0090
1924.433536 1.0090 1.0090 1.0060 1.0080 1.0080
1928.776653 1.0080 1.0080 1.0080 1.0080 1.0080
1933.119770 1.0080 1.0080 1.0080 1.0080 1.0080
1937.462887 1.0080 1.0080 1.0080 1.0080 1.0080
1941.806004 1.0080 1.0080 1.0080 1.0050 1.0020
1946.149121 1.0010 1.0010 1.0010 1.0010 1.0010
1950.492238 1.0020 1.0040 1.0050 1.0060 1.0060
1954.835355 0.9900 0.9790 0.9750 0.9820 0.9900
1959.178472 0.9930 0.9980 1.0000 1.0000 1.0000
1963.521589 1.0000 1.0000 1.0010 1.0010 1.0010
1967.864706 1.0020 1.0020 1.0020 1.0020 1.0020
1972.207823 1.0040 1.0050 1.0060 1.0080 1.0080
1976.550939 1.0080 1.0080 1.0080 1.0080 1.0080
1980.894056 1.0090 1.0100 1.0100 1.0120 1.0120
1985.237173 1.0120 1.0120 1.0120 1.0120 1.0120
1989.580290 1.0120 1.0130 1.0130 1.0130 1.0160
1993.923407 1.0160 1.0190 1.0210 1.0230 1.0240
1998.266524 1.0240 1.0240 1.0250 1.0245 1.0240
2002.609641 1.0245 1.0250 1.0250 1.0250 1.0250
2006.952758 1.0250 1.0250 1.0250 1.0250 1.0250
2011.295875 1.0250 1.0250 1.0260 1.0270 1.0270
2015.638992 1.0270 1.0270 1.0270 1.0270 1.0270
2019.982109 1.0275 1.0280 1.0285 1.0290 1.0290
2024.325226 1.0290 1.0285 1.0280 1.0280 1.0280
2028.668343 1.0275 1.0270 1.0260 1.0251 1.0250
2033.011460 1.0250 1.0260 1.0270 1.0275 1.0280
2037.354577 1.0294 1.0309 1.0310 1.0310 1.0315
2041.697694 1.0320 1.0320 1.0320 1.0320 1.0320
2046.040811 1.0320 1.0320 1.0315 1.0310 1.0310
2050.383928 1.0310 1.0310 1.0310 1.0301 1.0291
2054.727045 1.0290 1.0290 1.0290 1.0290 1.0290
2059.070162 1.0290 1.0299 1.0309 1.0310 1.0310
2063.413279 1.0310 1.0310 1.0315 1.0320 1.0320
2067.756396 1.0320 1.0320 1.0320 1.0315 1.0310
2072.099513 1.0296 1.0281 1.0276 1.0271 1.0261
2076.442630 1.0251 1.0250 1.0250 1.0250 1.0250
2080.785747 1.0263 1.0278 1.0284 1.0289 1.0299
2085.128864 1.0309 1.0310 1.0310 1.0310 1.0310
2089.471981 1.0310 1.0310 1.0310 1.0310 1.0314
2093.815098 1.0319 1.0320 1.0320 1.0316 1.0311
2098.158215 1.0301 1.0291 1.0290 1.0290 1.0299
2102.501332 1.0309 1.0310 1.0310 1.0310 1.0310
2106.844449 1.0301 1.0291 1.0290 1.0290 1.0286
2111.187566 1.0281 1.0280 1.0280 1.0280 1.0280
2115.530683 1.0276 1.0271 1.0270 1.0270 1.0270
2119.873799 1.0270 1.0270 1.0270 1.0270 1.0270
2124.216916 1.0274 1.0279 1.0280 1.0280 1.0284
2128.560033 1.0289 1.0298 1.0308 1.0310 1.0310
2132.903150 1.0302 1.0292 1.0290 1.0290 1.0290
2137.246267 1.0290 1.0290 1.0290 1.0290 1.0290
2141.589384 1.0298 1.0308 1.0302 1.0292 1.0298
2145.932501 1.0308 1.0310 1.0310 1.0310 1.0310
2150.275618 1.0310 1.0310 1.0310 1.0310 1.0302
2154.618735 1.0292 1.0290 1.0290 1.0286 1.0281
2158.961852 1.0280 1.0280 1.0284 1.0289 1.0286
2163.304969 1.0281 1.0280 1.0280 1.0280 1.0280
2167.648086 1.0276 1.0271 1.0270 1.0270 1.0258
2171.991203 1.0243 1.0240 1.0240 1.0240 1.0240
2176.334320 1.0240 1.0240 1.0240 1.0240 1.0240
2180.677437 1.0240 1.0244 1.0249 1.0246 1.0241
2185.020554 1.0240 1.0240 1.0240 1.0240 1.0240
2189.363671 1.0240 1.0236 1.0231 1.0230 1.0230
2193.706788 1.0230 1.0230 1.0230 1.0230 1.0230
2198.049905 1.0230 1.0234 1.0239 1.0240 1.0240
2202.393022 1.0240 1.0240 1.0240 1.0240 1.0240
