##TITLE=1-PROPENE, 3-METHOXY-
##JCAMP-DX=4.24
##DATA TYPE=INFRARED SPECTRUM
##CLASS=COBLENTZ II
##ORIGIN=DOW CORNING CORP.
##OWNER=COBLENTZ SOCIETY
Collection (C) 2018 copyright by the U.S. Secretary of Commerce
on behalf of the United States of America. All rights reserved.
##DATE=1966/07/28
##NAMES=allyl methyl ether
3-methoxy-1-propene
ETHER, METHYL ALLYL
##CAS REGISTRY NO=627-40-7
##MOLFORM=C4 H8 O
##SOURCE REFERENCE=COBLENTZ NO. 4828
##$NIST SOURCE=COBLENTZ
##$NIST IMAGE=cob4828
##SPECTROMETER/DATA SYSTEM=PERKIN-ELMER 521 (GRATING)
##INSTRUMENT PARAMETERS=GRATING CHANGES AT 2000, 630 CM^-^1
##STATE=SOLUTION (10% IN CCl4 FOR 3800-1300, 10% IN CS2 FOR 1300-650, 10% IN CCl4 FOR 650-250 CM^-^1) VERSUS SOLVENT
##PATH LENGTH=0.011, 0.011, AND 0.011 CM (CsBr CELL)
$$ DISTILLED, PURE BY GLC; STRUCTURE VERIFIED BY NMR
##SAMPLING PROCEDURE=TRANSMISSION
##RESOLUTION=4
##DATA PROCESSING=DIGITIZED BY NIST FROM HARD COPY (FROM TWO SEGMENTS)
##XUNITS=1/CM
##YUNITS=TRANSMITTANCE
##XFACTOR=1.000000
##YFACTOR=1
##DELTAX=0.982534
##FIRSTX=236.354
##LASTX=3795.09
##FIRSTY=0.746
##MAXX=3795.09
##MINX=236.354
##MAXY=0.975
##MINY=0.033
##NPOINTS=3623
##XYDATA=(X++(Y..Y))
236.354000 0.7460 0.7460 0.7460 0.7460 0.7460
241.266670 0.7460 0.7460 0.7460 0.7460 0.7460
246.179339 0.7460 0.7460 0.7460 0.7460 0.7460
251.092009 0.7460 0.7460 0.7460 0.7460 0.7440
256.004679 0.7440 0.7440 0.7460 0.7460 0.7460
260.917348 0.7460 0.7470 0.7470 0.7470 0.7470
265.830018 0.7470 0.7470 0.7470 0.7470 0.7470
270.742688 0.7480 0.7480 0.7480 0.7480 0.7470
275.655357 0.7470 0.7460 0.7460 0.7460 0.7460
280.568027 0.7460 0.7460 0.7470 0.7470 0.7480
285.480696 0.7480 0.7500 0.7500 0.7510 0.7540
290.393366 0.7590 0.7610 0.7610 0.7620 0.7630
295.306036 0.7650 0.7670 0.7700 0.7710 0.7730
300.218705 0.7750 0.7770 0.7770 0.7780 0.7780
305.131375 0.7780 0.7770 0.7770 0.7730 0.7730
310.044045 0.7700 0.7670 0.7670 0.7670 0.7660
314.956714 0.7660 0.7660 0.7660 0.7660 0.7660
319.869384 0.7660 0.7670 0.7670 0.7690 0.7700
324.782054 0.7710 0.7710 0.7740 0.7740 0.7770
329.694723 0.7790 0.7820 0.7830 0.7890 0.7950
334.607393 0.7980 0.8060 0.8090 0.8130 0.8130
339.520063 0.8160 0.8180 0.8250 0.8290 0.8320
344.432732 0.8340 0.8340 0.8360 0.8360 0.8370
349.345402 0.8370 0.8380 0.8410 0.8410 0.8410
354.258071 0.8410 0.8410 0.8410 0.8410 0.8410
359.170741 0.8420 0.8420 0.8420 0.8420 0.8440
364.083411 0.8420 0.8440 0.8440 0.8440 0.8450
368.996080 0.8450 0.8450 0.8440 0.8420 0.8420
373.908750 0.8420 0.8410 0.8410 0.8410 0.8410
378.821420 0.8420 0.8440 0.8460 0.8480 0.8480
383.734089 0.8490 0.8490 0.8480 0.8480 0.8460
388.646759 0.8450 0.8440 0.8410 0.8400 0.8380
393.559429 0.8370 0.8360 0.8360 0.8370 0.8380
398.472098 0.8380 0.8370 0.8370 0.8360 0.8340
403.384768 0.8330 0.8300 0.8290 0.8280 0.8260
408.297438 0.8260 0.8250 0.8250 0.8240 0.8220
413.210107 0.8210 0.8200 0.8200 0.8200 0.8200
418.122777 0.8210 0.8220 0.8240 0.8240 0.8260
423.035446 0.8260 0.8280 0.8290 0.8290 0.8290
427.948116 0.8290 0.8280 0.8280 0.8260 0.8260
432.860786 0.8260 0.8250 0.8250 0.8240 0.8220
437.773455 0.8220 0.8220 0.8210 0.8210 0.8200
442.686125 0.8200 0.8180 0.8180 0.8180 0.8180
447.598795 0.8180 0.8200 0.8200 0.8210 0.8220
452.511464 0.8220 0.8250 0.8260 0.8280 0.8330
457.424134 0.8340 0.8370 0.8460 0.8530 0.8590
462.336804 0.8600 0.8630 0.8640 0.8650 0.8650
467.249473 0.8670 0.8680 0.8720 0.8730 0.8730
472.162143 0.8730 0.8730 0.8750 0.8750 0.8760
477.074813 0.8790 0.8800 0.8810 0.8840 0.8870
481.987482 0.8890 0.8920 0.8920 0.8950 0.8950
486.900152 0.8960 0.8960 0.8970 0.8970 0.8990
491.812821 0.9000 0.9000 0.9000 0.9020 0.9030
496.725491 0.9030 0.9040 0.9040 0.9040 0.9040
501.638161 0.9040 0.9030 0.9030 0.9030 0.9020
506.550830 0.9020 0.9020 0.9000 0.9000 0.8990
511.463500 0.8990 0.8970 0.8970 0.8970 0.8970
516.376170 0.8970 0.8970 0.8970 0.8970 0.8970
521.288839 0.8970 0.8970 0.8960 0.8960 0.8960
526.201509 0.8950 0.8950 0.8930 0.8930 0.8920
531.114179 0.8890 0.8880 0.8870 0.8850 0.8810
536.026848 0.8790 0.8790 0.8760 0.8730 0.8670
540.939518 0.8570 0.8520 0.8490 0.8380 0.8280
545.852188 0.8160 0.8080 0.7940 0.7890 0.7751
550.764857 0.7590 0.7500 0.7470 0.7510 0.7540
555.677527 0.7620 0.7660 0.7700 0.7810 0.7939
560.590196 0.8140 0.8280 0.8370 0.8520 0.8560
565.502866 0.8680 0.8720 0.8770 0.8840 0.8870
570.415536 0.8880 0.8880 0.8880 0.8870 0.8850
575.328205 0.8830 0.8800 0.8790 0.8760 0.8760
580.240875 0.8750 0.8750 0.8750 0.8750 0.8760
585.153545 0.8800 0.8830 0.8840 0.8840 0.8840
590.066214 0.8830 0.8810 0.8800 0.8770 0.8770
594.978884 0.8760 0.8670 0.8630 0.8590 0.8520
599.891554 0.8440 0.8340 0.8240 0.8210 0.8130
604.804223 0.8100 0.8080 0.8060 0.8060 0.8060
609.716893 0.8080 0.8090 0.8100 0.8120 0.8180
614.629563 0.8200 0.8210 0.8240 0.8250 0.8280
619.542232 0.8290 0.8300 0.8300 0.8300 0.8300
624.454902 0.8320 0.8320 0.8320 0.8320 0.8320
629.367572 0.8320 0.8330 0.8330 0.8330 0.8330
634.280241 0.8340 0.8340 0.8340 0.8340 0.8360
639.192911 0.8360 0.8360 0.8360 0.8370 0.8370
644.105580 0.8380 0.8400 0.8450 0.8460 0.8490
649.018250 0.8520 0.8550 0.8560 0.8610 0.8650
653.930920 0.8680 0.8730 0.8760 0.8850 0.8930
658.843589 0.8950 0.8960 0.8970 0.9040 0.9060
663.756259 0.9070 0.9150 0.9240 0.9270 0.9280
668.668929 0.9300 0.9300 0.9300 0.9320 0.9320
673.581598 0.9320 0.9340 0.9360 0.9360 0.9350
678.494268 0.9350 0.9340 0.9340 0.9320 0.9320
683.406938 0.9320 0.9340 0.9350 0.9390 0.9400
688.319607 0.9420 0.9430 0.9460 0.9470 0.9470
693.232277 0.9480 0.9480 0.9480 0.9500 0.9500
698.144947 0.9540 0.9550 0.9570 0.9580 0.9580
703.057616 0.9580 0.9580 0.9580 0.9580 0.9570
707.970286 0.9570 0.9570 0.9570 0.9550 0.9550
712.882955 0.9540 0.9540 0.9510 0.9480 0.9470
717.795625 0.9470 0.9470 0.9440 0.9420 0.9390
722.708295 0.9390 0.9350 0.9320 0.9300 0.9280
727.620964 0.9260 0.9240 0.9110 0.9040 0.8990
732.533634 0.8910 0.8880 0.8790 0.8760 0.8760
737.446304 0.8770 0.8830 0.8880 0.8930 0.9040
742.358973 0.9160 0.9390 0.9440 0.9460 0.9470
747.271643 0.9480 0.9510 0.9570 0.9590 0.9620
752.184313 0.9650 0.9660 0.9660 0.9670 0.9690
757.096982 0.9690 0.9700 0.9710 0.9710 0.9730
762.009652 0.9730 0.9740 0.9740 0.9750 0.9750
766.922322 0.9750 0.9750 0.9750 0.9750 0.9750
771.834991 0.9740 0.9730 0.9730 0.9730 0.9710
776.747661 0.9710 0.9700 0.9700 0.9670 0.9660
781.660330 0.9650 0.9630 0.9630 0.9610 0.9580
786.573000 0.9530 0.9530 0.9510 0.9510 0.9480
791.485670 0.9460 0.9440 0.9440 0.9430 0.9430
796.398339 0.9420 0.9400 0.9380 0.9380 0.9380
801.311009 0.9380 0.9360 0.9360 0.9350 0.9350
806.223679 0.9340 0.9320 0.9310 0.9310 0.9300
811.136348 0.9300 0.9300 0.9310 0.9310 0.9320
816.049018 0.9340 0.9340 0.9350 0.9360 0.9360
820.961688 0.9390 0.9400 0.9420 0.9420 0.9430
825.874357 0.9430 0.9430 0.9430 0.9440 0.9440
830.787027 0.9440 0.9440 0.9440 0.9440 0.9440
835.699697 0.9430 0.9430 0.9430 0.9420 0.9420
840.612366 0.9420 0.9400 0.9400 0.9400 0.9390
845.525036 0.9380 0.9380 0.9360 0.9360 0.9320
850.437705 0.9260 0.9190 0.9150 0.9150 0.9110
855.350375 0.9060 0.8970 0.8960 0.8950 0.8930
860.263045 0.8850 0.8760 0.8730 0.8720 0.8670
865.175714 0.8640 0.8570 0.8410 0.8380 0.8370
870.088384 0.8340 0.8340 0.8320 0.8290 0.8250
875.001054 0.8210 0.8170 0.8160 0.8050 0.8050
879.913723 0.7980 0.7790 0.7670 0.7630 0.7570
884.826393 0.7350 0.7230 0.7150 0.6970 0.6760
889.739063 0.6720 0.6411 0.6171 0.5731 0.5511
894.651732 0.5190 0.4880 0.4710 0.4710 0.4770
899.564402 0.4810 0.4910 0.4910 0.4870 0.4721
904.477072 0.4560 0.4400 0.4200 0.3950 0.3660
909.389741 0.3460 0.2712 0.2301 0.1572 0.1221
914.302411 0.1040 0.0840 0.0710 0.0560 0.0370
919.215080 0.0340 0.0330 0.0330 0.0340 0.0370
924.127750 0.0420 0.0490 0.0560 0.0630 0.0730
929.040420 0.0870 0.1030 0.1239 0.1509 0.1829
933.953089 0.2010 0.2170 0.2830 0.3480 0.3939
938.865759 0.4239 0.4410 0.4530 0.4630 0.4730
943.778429 0.4870 0.4920 0.4930 0.4920 0.4920
948.691098 0.4870 0.4810 0.4760 0.4710 0.4640
953.603768 0.4610 0.4630 0.4680 0.4710 0.4710
958.516438 0.4680 0.4261 0.4091 0.3931 0.3771
963.429107 0.3610 0.3420 0.3200 0.3180 0.3190
968.341777 0.3300 0.3440 0.3570 0.3889 0.4179
973.254447 0.4200 0.4200 0.4140 0.4080 0.3930
978.167116 0.3700 0.3460 0.3260 0.3021 0.2791
983.079786 0.2550 0.2330 0.2240 0.2140 0.2050
987.992456 0.1970 0.1950 0.1950 0.1970 0.2060
992.905125 0.2140 0.2240 0.2330 0.2840 0.3180
997.817795 0.3430 0.3729 0.3979 0.4877 0.5239
1002.730464 0.5340 0.5430 0.5540 0.5660 0.5710
1007.643134 0.5730 0.5740 0.5750 0.5770 0.5790
1012.555804 0.5860 0.5970 0.6170 0.6330 0.6480
1017.468473 0.6640 0.6810 0.7039 0.7150 0.7190
1022.381143 0.7300 0.7320 0.7360 0.7400 0.7420
1027.293813 0.7440 0.7460 0.7460 0.7440 0.7430
1032.206482 0.7430 0.7400 0.7400 0.7390 0.7360
1037.119152 0.7350 0.7300 0.7280 0.7190 0.7110
1042.031822 0.7030 0.6970 0.6890 0.6790 0.6640
1046.944491 0.6420 0.6330 0.6021 0.5821 0.5661
1051.857161 0.5570 0.5390 0.5240 0.5150 0.5060
1056.769831 0.5030 0.5030 0.5000 0.4970 0.4920
1061.682500 0.4790 0.4680 0.4550 0.4300 0.4140
1066.595170 0.3900 0.3650 0.3480 0.3081 0.2671
1071.507839 0.2090 0.2000 0.1810 0.1670 0.1590
1076.420509 0.1550 0.1510 0.1430 0.1261 0.1141
1081.333179 0.0890 0.0790 0.0720 0.0640 0.0570
1086.245848 0.0560 0.0560 0.0560 0.0570 0.0590
1091.158518 0.0600 0.0610 0.0630 0.0650 0.0650
1096.071188 0.0670 0.0670 0.0640 0.0610 0.0510
1100.983857 0.0450 0.0420 0.0410 0.0410 0.0410
1105.896527 0.0420 0.0440 0.0480 0.0520 0.0560
1110.809197 0.0670 0.0730 0.0830 0.0910 0.0950
1115.721866 0.1120 0.1140 0.1140 0.1120 0.1060
1120.634536 0.0970 0.0920 0.0890 0.0880 0.0890
1125.547206 0.0930 0.1000 0.1070 0.1190 0.1479
1130.459875 0.1891 0.2490 0.2800 0.2970 0.3260
1135.372545 0.3310 0.3300 0.3160 0.3140 0.2931
1140.285214 0.2720 0.2530 0.2440 0.2240 0.2220
1145.197884 0.2240 0.2300 0.2380 0.2749 0.2810
1150.110554 0.3020 0.3260 0.3440 0.3620 0.3770
1155.023223 0.3940 0.4130 0.4330 0.4529 0.4650
1159.935893 0.5140 0.5390 0.5690 0.5790 0.5970
1164.848563 0.6010 0.6160 0.6250 0.6320 0.6340
1169.761232 0.6340 0.6320 0.6290 0.6280 0.6250
1174.673902 0.6140 0.6100 0.6050 0.6020 0.6000
1179.586572 0.5660 0.5420 0.5080 0.4990 0.4800
1184.499241 0.4490 0.4091 0.3661 0.3102 0.2851
1189.411911 0.2570 0.2300 0.2040 0.2040 0.2090
1194.324581 0.2359 0.2420 0.2749 0.3059 0.3189
1199.237250 0.3260 0.3280 0.3300 0.3340 0.3420
1204.149920 0.3470 0.3889 0.4339 0.5058 0.5439
1209.062589 0.5771 0.6460 0.6690 0.7070 0.7190
1213.975259 0.7350 0.7440 0.7590 0.7710 0.7820
1218.887929 0.7890 0.7940 0.7950 0.7970 0.7980
1223.800598 0.7980 0.7980 0.8000 0.8000 0.8010
1228.713268 0.8020 0.8020 0.8040 0.8040 0.8050
1233.625938 0.8050 0.8040 0.8040 0.8040 0.8020
1238.538607 0.8020 0.8010 0.8010 0.8000 0.7980
1243.451277 0.7970 0.7950 0.7930 0.7870 0.7810
1248.363947 0.7710 0.7570 0.7540 0.7540 0.7580
1253.276616 0.7590 0.7670 0.7770 0.7790 0.7820
1258.189286 0.7870 0.7970 0.7980 0.7980 0.7970
1263.101956 0.7950 0.7890 0.7790 0.7710 0.7610
1268.014625 0.7570 0.7510 0.7230 0.7060 0.6810
1272.927295 0.6650 0.6630 0.6640 0.6720 0.6800
1277.839964 0.6880 0.6960 0.7040 0.7160 0.7320
1282.752634 0.7390 0.7460 0.7510 0.7660 0.7780
1287.665304 0.7850 0.7900 0.7940 0.7950 0.7970
1292.577973 0.7980 0.8010 0.8020 0.8050 0.8060
1297.490643 0.8080 0.8100 0.8120 0.8130 0.8130
1302.403313 0.8130 0.8130 0.8130 0.8140 0.8140
1307.315982 0.8140 0.8140 0.8140 0.8140 0.8140
1312.228652 0.8140 0.8140 0.8130 0.8130 0.8130
1317.141322 0.8130 0.8120 0.8120 0.8100 0.8090
1322.053991 0.8080 0.8060 0.8060 0.8040 0.8020
1326.966661 0.8000 0.7980 0.7950 0.7940 0.7910
1331.879331 0.7900 0.7870 0.7830 0.7790 0.7790
1336.792000 0.7730 0.7690 0.7670 0.7650 0.7620
1341.704670 0.7420 0.7360 0.7270 0.7120 0.7080
1346.617340 0.6960 0.6770 0.6560 0.6370 0.5701
1351.530009 0.5201 0.5200 0.5419 0.5420 0.5400
1356.442679 0.5360 0.5320 0.5150 0.4770 0.4600
1361.355348 0.4570 0.4600 0.4760 0.5199 0.5499
1366.268018 0.5700 0.5850 0.5980 0.6250 0.6360
1371.180688 0.6460 0.6610 0.6680 0.6720 0.6720
1376.093357 0.6640 0.6530 0.6370 0.6260 0.6220
1381.006027 0.6020 0.5711 0.5441 0.5440 0.5609
1385.918697 0.6401 0.6720 0.6770 0.6790 0.6960
1390.831366 0.7140 0.7310 0.7440 0.7470 0.7470
1395.744036 0.7420 0.7360 0.7340 0.7230 0.7020
1400.656706 0.6800 0.6590 0.6380 0.6260 0.6120
1405.569375 0.5910 0.5750 0.5620 0.5480 0.4970
1410.482045 0.4491 0.4480 0.4490 0.4590 0.4670
1415.394715 0.4690 0.4690 0.4290 0.4050 0.3850
1420.307384 0.3710 0.3580 0.3400 0.3201 0.3021
1425.220054 0.2810 0.2770 0.2811 0.3550 0.4060
1430.132723 0.5139 0.5629 0.5740 0.5740 0.5740
1435.045393 0.5710 0.5650 0.5480 0.5270 0.5220
1439.958063 0.4930 0.4770 0.4561 0.4530 0.4281
1444.870732 0.4170 0.4130 0.4120 0.4050 0.3540
1449.783402 0.3390 0.3190 0.3020 0.2771 0.2760
1454.696072 0.2770 0.2960 0.3180 0.3380 0.3470
1459.608741 0.3730 0.4000 0.4040 0.4060 0.4080
1464.521411 0.4080 0.4090 0.4090 0.4100 0.4160
1469.434081 0.4260 0.4260 0.4300 0.4320 0.4370
1474.346750 0.4460 0.4681 0.5140 0.5510 0.5740
1479.259420 0.5910 0.6359 0.6709 0.6800 0.6840
1484.172090 0.6920 0.7100 0.7270 0.7340 0.7400
1489.084759 0.7430 0.7530 0.7610 0.7620 0.7660
1493.997429 0.7780 0.7820 0.7850 0.7860 0.7870
1498.910098 0.7950 0.7980 0.8040 0.8090 0.8130
1503.822768 0.8140 0.8170 0.8180 0.8200 0.8220
1508.735438 0.8240 0.8250 0.8250 0.8260 0.8280
1513.648107 0.8290 0.8320 0.8330 0.8360 0.8360
1518.560777 0.8380 0.8380 0.8380 0.8400 0.8400
1523.473447 0.8400 0.8400 0.8410 0.8410 0.8420
1528.386116 0.8420 0.8440 0.8440 0.8440 0.8450
1533.298786 0.8460 0.8460 0.8460 0.8460 0.8460
1538.211456 0.8460 0.8460 0.8460 0.8460 0.8460
1543.124125 0.8460 0.8460 0.8460 0.8460 0.8460
1548.036795 0.8450 0.8450 0.8450 0.8450 0.8450
1552.949465 0.8450 0.8450 0.8450 0.8440 0.8420
1557.862134 0.8420 0.8410 0.8400 0.8380 0.8380
1562.774804 0.8360 0.8340 0.8340 0.8340 0.8330
1567.687473 0.8330 0.8320 0.8320 0.8300 0.8300
1572.600143 0.8290 0.8290 0.8290 0.8290 0.8290
1577.512813 0.8290 0.8300 0.8300 0.8300 0.8300
1582.425482 0.8320 0.8320 0.8330 0.8330 0.8330
1587.338152 0.8330 0.8330 0.8320 0.8300 0.8280
1592.250822 0.8260 0.8250 0.8250 0.8250 0.8240
1597.163491 0.8240 0.8220 0.8220 0.8220 0.8220
1602.076161 0.8210 0.8210 0.8210 0.8200 0.8200
1606.988831 0.8200 0.8180 0.8180 0.8160 0.8130
1611.901500 0.8090 0.8060 0.8040 0.8020 0.8010
1616.814170 0.8000 0.8000 0.8000 0.7980 0.7980
1621.726840 0.7980 0.7970 0.7970 0.7970 0.7950
1626.639509 0.7950 0.7950 0.7950 0.7950 0.7940
1631.552179 0.7930 0.7850 0.7820 0.7780 0.7710
1636.464848 0.7690 0.7610 0.7540 0.7350 0.7230
1641.377518 0.6800 0.6680 0.6520 0.6260 0.6100
1646.290188 0.6050 0.5780 0.5580 0.5470 0.5470
1651.202857 0.6251 0.7000 0.7100 0.7160 0.7220
1656.115527 0.7750 0.7930 0.7980 0.8040 0.8140
1661.028197 0.8170 0.8220 0.8220 0.8240 0.8240
1665.940866 0.8250 0.8280 0.8320 0.8330 0.8340
1670.853536 0.8360 0.8370 0.8370 0.8370 0.8370
1675.766206 0.8380 0.8380 0.8400 0.8400 0.8410
1680.678875 0.8410 0.8410 0.8420 0.8420 0.8420
1685.591545 0.8420 0.8420 0.8420 0.8420 0.8420
1690.504215 0.8440 0.8440 0.8420 0.8420 0.8420
1695.416884 0.8410 0.8410 0.8400 0.8400 0.8380
1700.329554 0.8380 0.8380 0.8380 0.8400 0.8400
1705.242224 0.8400 0.8400 0.8420 0.8440 0.8450
1710.154893 0.8460 0.8460 0.8460 0.8450 0.8450
1715.067563 0.8450 0.8420 0.8410 0.8400 0.8380
1719.980232 0.8380 0.8360 0.8340 0.8340 0.8330
1724.892902 0.8330 0.8320 0.8300 0.8300 0.8290
1729.805572 0.8290 0.8280 0.8280 0.8280 0.8290
1734.718241 0.8290 0.8300 0.8320 0.8330 0.8340
1739.630911 0.8370 0.8380 0.8400 0.8420 0.8440
1744.543581 0.8450 0.8510 0.8520 0.8520 0.8520
1749.456250 0.8530 0.8560 0.8560 0.8590 0.8590
1754.368920 0.8590 0.8600 0.8600 0.8610 0.8610
1759.281590 0.8610 0.8610 0.8610 0.8610 0.8610
1764.194259 0.8610 0.8610 0.8610 0.8600 0.8600
1769.106929 0.8600 0.8600 0.8600 0.8600 0.8600
1774.019599 0.8600 0.8600 0.8600 0.8600 0.8600
1778.932268 0.8600 0.8590 0.8590 0.8590 0.8570
1783.844938 0.8570 0.8570 0.8570 0.8570 0.8570
1788.757607 0.8570 0.8570 0.8570 0.8590 0.8590
1793.670277 0.8570 0.8570 0.8570 0.8570 0.8570
1798.582947 0.8570 0.8570 0.8570 0.8570 0.8570
1803.495616 0.8570 0.8570 0.8590 0.8570 0.8570
1808.408286 0.8590 0.8590 0.8590 0.8570 0.8550
1813.320956 0.8530 0.8520 0.8520 0.8520 0.8520
1818.233625 0.8510 0.8480 0.8480 0.8460 0.8460
1823.146295 0.8460 0.8450 0.8420 0.8410 0.8380
1828.058965 0.8370 0.8360 0.8330 0.8300 0.8290
1832.971634 0.8280 0.8260 0.8220 0.8180 0.8130
1837.884304 0.8090 0.8040 0.7970 0.7940 0.7910
1842.796974 0.7850 0.7790 0.7750 0.7730 0.7700
1847.709643 0.7690 0.7670 0.7660 0.7660 0.7660
1852.622313 0.7670 0.7670 0.7670 0.7690 0.7700
1857.534982 0.7700 0.7730 0.7740 0.7770 0.7810
1862.447652 0.7850 0.7870 0.7900 0.7930 0.7970
1867.360322 0.8010 0.8040 0.8130 0.8140 0.8160
1872.272991 0.8170 0.8200 0.8240 0.8280 0.8330
1877.185661 0.8330 0.8340 0.8360 0.8380 0.8410
1882.098331 0.8420 0.8440 0.8440 0.8450 0.8480
1887.011000 0.8490 0.8510 0.8510 0.8520 0.8530
1891.923670 0.8530 0.8520 0.8520 0.8520 0.8530
1896.836340 0.8550 0.8550 0.8560 0.8560 0.8570
1901.749009 0.8570 0.8590 0.8590 0.8590 0.8600
1906.661679 0.8600 0.8600 0.8590 0.8570 0.8570
1911.574349 0.8570 0.8570 0.8570 0.8570 0.8570
1916.487018 0.8570 0.8560 0.8560 0.8560 0.8560
1921.399688 0.8560 0.8560 0.8560 0.8560 0.8560
1926.312357 0.8560 0.8560 0.8560 0.8560 0.8560
1931.225027 0.8560 0.8560 0.8560 0.8560 0.8560
1936.137697 0.8560 0.8560 0.8560 0.8560 0.8560
1941.050366 0.8560 0.8560 0.8560 0.8560 0.8560
1945.963036 0.8560 0.8560 0.8560 0.8560 0.8560
1950.875706 0.8560 0.8560 0.8560 0.8560 0.8550
1955.788375 0.8550 0.8550 0.8550 0.8550 0.8520
1960.701045 0.8510 0.8510 0.8480 0.8410 0.8370
1965.613715 0.8360 0.8340 0.8340 0.8340 0.8340
1970.526384 0.8330 0.8300 0.8280 0.8280 0.8260
1975.439054 0.8250 0.8250 0.8240 0.8240 0.8220
1980.351724 0.8210 0.8210 0.8200 0.8200 0.8180
1985.264393 0.8180 0.8180 0.8200 0.8200 0.8200
1990.177063 0.8210 0.8220 0.8240 0.8250 0.8250
1995.089732 0.8250 0.8250 0.8260 0.8280 0.8320
2000.002402 0.8340 0.8355 0.8370 0.8385 0.8400
2004.915072 0.8400 0.8400 0.8390 0.8380 0.8375
2009.827741 0.8370 0.8355 0.8340 0.8335 0.8330
2014.740411 0.8330 0.8330 0.8325 0.8320 0.8310
2019.653081 0.8300 0.8295 0.8290 0.8285 0.8280
2024.565750 0.8280 0.8280 0.8280 0.8280 0.8285
2029.478420 0.8290 0.8295 0.8300 0.8300 0.8300
2034.391090 0.8300 0.8300 0.8309 0.8319 0.8325
2039.303759 0.8330 0.8335 0.8340 0.8335 0.8330
2044.216429 0.8325 0.8320 0.8320 0.8320 0.8311
2049.129099 0.8301 0.8300 0.8300 0.8300 0.8300
2054.041768 0.8300 0.8300 0.8300 0.8300 0.8291
2058.954438 0.8281 0.8271 0.8261 0.8255 0.8250
2063.867108 0.8245 0.8240 0.8240 0.8240 0.8240
2068.779777 0.8240 0.8240 0.8240 0.8240 0.8240
2073.692447 0.8245 0.8250 0.8255 0.8259 0.8287
2078.605116 0.8317 0.8325 0.8330 0.8335 0.8340
2083.517786 0.8372 0.8407 0.8433 0.8457 0.8482
2088.430456 0.8507 0.8510 0.8510 0.8514 0.8519
2093.343125 0.8520 0.8520 0.8520 0.8520 0.8524
2098.255795 0.8529 0.8539 0.8549 0.8550 0.8550
2103.168465 0.8550 0.8550 0.8550 0.8550 0.8550
2108.081134 0.8550 0.8541 0.8531 0.8530 0.8530
2112.993804 0.8526 0.8521 0.8516 0.8511 0.8510
2117.906474 0.8510 0.8514 0.8519 0.8524 0.8529
2122.819143 0.8539 0.8549 0.8554 0.8559 0.8564
2127.731813 0.8569 0.8578 0.8588 0.8590 0.8590
2132.644483 0.8590 0.8590 0.8594 0.8599 0.8600
2137.557152 0.8600 0.8596 0.8591 0.8590 0.8590
2142.469822 0.8590 0.8590 0.8590 0.8590 0.8590
2147.382491 0.8590 0.8590 0.8590 0.8590 0.8590
2152.295161 0.8590 0.8590 0.8582 0.8572 0.8578
2157.207831 0.8588 0.8582 0.8572 0.8566 0.8561
2162.120500 0.8564 0.8569 0.8570 0.8570 0.8570
2167.033170 0.8570 0.8578 0.8588 0.8590 0.8590
2171.945840 0.8594 0.8599 0.8604 0.8609 0.8610
2176.858509 0.8610 0.8610 0.8610 0.8610 0.8610
2181.771179 0.8606 0.8601 0.8600 0.8600 0.8600
2186.683849 0.8600 0.8596 0.8591 0.8590 0.8590
2191.596518 0.8582 0.8572 0.8570 0.8570 0.8566
2196.509188 0.8561 0.8560 0.8560 0.8560 0.8560
2201.421858 0.8560 0.8560 0.8560 0.8560 0.8560
2206.334527 0.8560 0.8560 0.8560 0.8560 0.8560
2211.247197 0.8564 0.8569 0.8570 0.8570 0.8578
