##TITLE=1,4-CYCLOHEXADIENE
##JCAMP-DX=4.24
##DATA TYPE=INFRARED SPECTRUM
##CLASS=COBLENTZ
##ORIGIN=US INDUSTRIAL CHEMICALS COMPANY, CINCINNATI, OHIO
##OWNER=COBLENTZ SOCIETY
Collection (C) 2018 copyright by the U.S. Secretary of Commerce
on behalf of the United States of America. All rights reserved.
##DATE=Not specified, most likely prior to 1970
##NAMES=1,4-DIHYDRO BENZENE
##CAS REGISTRY NO=628-41-1
##MOLFORM=C6 H8
##SOURCE REFERENCE=COBLENTZ NO. 2345
##$NIST SOURCE=COBLENTZ
##$NIST IMAGE=cob2345
##SPECTROMETER/DATA SYSTEM=Not specified, most likely a grating spectrometer.
##STATE=LIQUID
##PATH LENGTH=0.00234 CM
##SAMPLING PROCEDURE=TRANSMISSION
##RESOLUTION=4
##DATA PROCESSING=DIGITIZED BY NIST FROM HARD COPY
##XUNITS=MICROMETERS
##YUNITS=TRANSMITTANCE
##XFACTOR=1.000000
##YFACTOR=1
##DELTAX=000.006645
##FIRSTX=2.033
##LASTX=16.0069
##FIRSTY=0.923
##MAXX=16.0069
##MINX=2.033
##MAXY=0.945
##MINY=0.011
##NPOINTS=2104
##XYDATA=(X++(Y..Y))
2.033000 0.9230 0.9230 0.9230 0.9310 0.9330
2.066238 0.9350 0.9350 0.9360 0.9360 0.9360
2.100000 0.9360 0.9360 0.9360 0.9360 0.9360
2.133238 0.9350 0.9330 0.9330 0.9310 0.9280
2.166000 0.9210 0.9200 0.9200 0.9200 0.9200
2.199238 0.9200 0.9210 0.9230 0.9250 0.9250
2.233000 0.9250 0.9250 0.9210 0.9030 0.9000
2.266238 0.8830 0.8760 0.8750 0.8750 0.8780
2.299000 0.8880 0.8900 0.8900 0.8810 0.8800
2.332238 0.8800 0.8830 0.9080 0.9180 0.9230
2.365000 0.9250 0.9250 0.9230 0.9230 0.9230
2.398238 0.9180 0.9110 0.9060 0.9050 0.9030
2.432000 0.9010 0.9000 0.9000 0.8960 0.8960
2.465238 0.8950 0.8950 0.8930 0.8930 0.8910
2.498000 0.8900 0.8900 0.8850 0.8810 0.8810
2.531238 0.8810 0.8900 0.9000 0.9010 0.9030
2.565000 0.9030 0.9030 0.9060 0.9060 0.9100
2.598238 0.9130 0.9160 0.9210 0.9210 0.9150
2.631000 0.9110 0.9050 0.9030 0.9050 0.9060
2.664238 0.9110 0.9130 0.9160 0.9160 0.9180
2.698000 0.9200 0.9200 0.9180 0.9160 0.9130
2.731238 0.9110 0.9100 0.9080 0.9080 0.9060
2.764000 0.9060 0.9060 0.9060 0.9060 0.9080
2.797238 0.9130 0.9180 0.9210 0.9210 0.9230
2.831000 0.9230 0.9230 0.9230 0.9210 0.9210
2.864238 0.9210 0.9230 0.9230 0.9230 0.9250
2.897000 0.9250 0.9250 0.9300 0.9300 0.9280
2.930238 0.9280 0.9280 0.9280 0.9300 0.9300
2.963000 0.9300 0.9300 0.9300 0.9280 0.9280
2.996238 0.9230 0.9180 0.9110 0.9060 0.9050
3.030000 0.9030 0.9030 0.9010 0.9010 0.9010
3.063238 0.8980 0.8960 0.8960 0.8980 0.9100
3.096000 0.9160 0.9200 0.9210 0.9230 0.9260
3.129238 0.9260 0.9250 0.9210 0.9180 0.9160
3.163000 0.9150 0.9130 0.9110 0.9080 0.8960
3.196238 0.8860 0.8630 0.8330 0.7910 0.7430
3.229000 0.7210 0.7150 0.7010 0.6700 0.6000
3.262238 0.5160 0.4680 0.4180 0.2980 0.1180
3.296000 0.0710 0.0700 0.0730 0.1400 0.2100
3.329238 0.2800 0.3350 0.3660 0.4160 0.4560
3.362000 0.4850 0.5110 0.5130 0.5330 0.5760
3.395238 0.6110 0.6650 0.7060 0.7060 0.7010
3.429000 0.6460 0.5930 0.5280 0.4610 0.3250
3.462238 0.1680 0.0600 0.0600 0.0610 0.0630
3.495000 0.0730 0.0810 0.0930 0.1110 0.1500
3.528238 0.1510 0.1500 0.0680 0.0680 0.0710
3.561000 0.1460 0.2310 0.3210 0.4130 0.5780
3.594238 0.6410 0.6860 0.7080 0.7280 0.7460
3.628000 0.7660 0.7830 0.8010 0.8160 0.8260
3.661238 0.8300 0.8350 0.8380 0.8360 0.8330
3.694000 0.8310 0.8330 0.8460 0.8550 0.8600
3.727238 0.8600 0.8350 0.8060 0.7510 0.7500
3.761000 0.7510 0.7660 0.7830 0.8050 0.8330
3.794238 0.8630 0.8950 0.8960 0.9030 0.9100
3.827000 0.9160 0.9200 0.9210 0.9210 0.9230
3.860238 0.9230 0.9250 0.9250 0.9250 0.9230
3.894000 0.9230 0.9230 0.9260 0.9300 0.9310
3.927238 0.9300 0.9300 0.9280 0.9230 0.9180
3.960000 0.9130 0.9110 0.9100 0.9100 0.9130
3.993238 0.9180 0.9210 0.9250 0.9260 0.9280
4.027000 0.9280 0.9280 0.9300 0.9300 0.9280
4.060238 0.9260 0.9200 0.9130 0.9130 0.9150
4.093000 0.9200 0.9230 0.9250 0.9260 0.9280
4.126238 0.9300 0.9350 0.9360 0.9400 0.9380
4.159000 0.9310 0.9300 0.9300 0.9300 0.9260
4.192238 0.9250 0.9160 0.9060 0.8980 0.8910
4.226000 0.8830 0.8780 0.8710 0.8660 0.8650
4.259238 0.8660 0.8700 0.8730 0.8750 0.8760
4.292000 0.8780 0.8800 0.8830 0.8860 0.8900
4.325238 0.8910 0.8930 0.9000 0.9030 0.9110
4.359000 0.9160 0.9200 0.9250 0.9260 0.9280
4.392238 0.9280 0.9280 0.9260 0.9260 0.9260
4.425000 0.9280 0.9300 0.9300 0.9330 0.9360
4.458238 0.9380 0.9310 0.9260 0.9210 0.9210
4.492000 0.9210 0.9200 0.9200 0.9200 0.9200
4.525238 0.9200 0.9210 0.9230 0.9260 0.9300
4.558000 0.9310 0.9310 0.9330 0.9310 0.9210
4.591238 0.9180 0.9110 0.9060 0.9050 0.9080
4.625000 0.9150 0.9210 0.9250 0.9280 0.9300
4.658238 0.9300 0.9310 0.9330 0.9350 0.9360
4.691000 0.9380 0.9360 0.9360 0.9360 0.9380
4.724238 0.9400 0.9400 0.9400 0.9430 0.9430
4.757000 0.9410 0.9400 0.9360 0.9360 0.9380
4.790238 0.9410 0.9450 0.9450 0.9450 0.9450
4.824000 0.9450 0.9410 0.9380 0.9350 0.9330
4.857238 0.9330 0.9330 0.9330 0.9330 0.9310
4.890000 0.9300 0.9280 0.9280 0.9280 0.9300
4.923238 0.9310 0.9310 0.9330 0.9330 0.9330
4.957000 0.9330 0.9330 0.9310 0.9300 0.9300
4.990238 0.9280 0.9280 0.9260 0.9260 0.9260
5.023000 0.9280 0.9280 0.9280 0.9300 0.9310
5.056238 0.9350 0.9350 0.9300 0.9200 0.9200
5.090000 0.9160 0.9150 0.9100 0.9060 0.9010
5.123238 0.8980 0.8910 0.8900 0.8900 0.8900
5.156000 0.8910 0.8910 0.8930 0.8950 0.8930
5.189238 0.8860 0.8780 0.8630 0.8610 0.8650
5.223000 0.8750 0.8830 0.8880 0.8900 0.8900
5.256238 0.8830 0.8660 0.8610 0.8580 0.8550
5.289000 0.8530 0.8510 0.8450 0.8430 0.8450
5.322238 0.8750 0.8830 0.8860 0.8880 0.8960
5.355000 0.9000 0.9010 0.9060 0.9180 0.9250
5.388238 0.9260 0.9300 0.9330 0.9350 0.9360
5.422000 0.9350 0.9260 0.9260 0.9300 0.9380
5.455238 0.9400 0.9380 0.9310 0.9230 0.9210
5.488000 0.9230 0.9280 0.9280 0.9250 0.9210
5.521238 0.9200 0.9160 0.9160 0.9150 0.9160
5.555000 0.9210 0.9230 0.9230 0.9230 0.9260
5.588238 0.9300 0.9310 0.9360 0.9380 0.9380
5.621000 0.9360 0.9330 0.9310 0.9300 0.9380
5.654238 0.9410 0.9430 0.9430 0.9410 0.9360
5.688000 0.9350 0.9330 0.9300 0.9280 0.9250
5.721238 0.9210 0.9180 0.9160 0.9200 0.9210
5.754000 0.9250 0.9250 0.9210 0.9160 0.9110
5.787238 0.9110 0.9150 0.9200 0.9250 0.9300
5.821000 0.9330 0.9310 0.9210 0.9110 0.9100
5.854238 0.9130 0.9130 0.9230 0.9210 0.9160
5.887000 0.9100 0.9060 0.9010 0.8880 0.8850
5.920238 0.8850 0.8780 0.8680 0.8550 0.8350
5.953000 0.8060 0.7910 0.7680 0.7480 0.7200
5.986238 0.7030 0.6960 0.6960 0.6960 0.7160
6.020000 0.7460 0.7600 0.7860 0.8010 0.8010
6.053238 0.8010 0.7850 0.7800 0.7680 0.5800
6.086000 0.5200 0.4600 0.4210 0.3830 0.3450
6.119238 0.3430 0.3460 0.6760 0.7210 0.7760
6.153000 0.7800 0.7810 0.7810 0.7810 0.7800
6.186238 0.7780 0.7750 0.7680 0.7560 0.7550
6.219000 0.7530 0.7600 0.7760 0.7910 0.8030
6.252238 0.8160 0.8280 0.8380 0.8510 0.8610
6.286000 0.8730 0.8810 0.8900 0.8980 0.9060
6.319238 0.9050 0.8900 0.8900 0.8910 0.8910
6.352000 0.8930 0.8980 0.9010 0.9050 0.9060
6.385238 0.9080 0.9080 0.9080 0.9110 0.9130
6.419000 0.9200 0.9260 0.9280 0.9280 0.9260
6.452238 0.9230 0.9180 0.9150 0.9080 0.9060
6.485000 0.9100 0.9130 0.9210 0.9300 0.9300
6.518238 0.9250 0.9250 0.9250 0.9230 0.9180
6.551000 0.9110 0.9080 0.9080 0.9080 0.9100
6.584238 0.9130 0.9200 0.9210 0.9230 0.9210
6.618000 0.9080 0.9030 0.9030 0.9080 0.9250
6.651238 0.9260 0.9250 0.9210 0.9180 0.9130
6.684000 0.9130 0.9110 0.9080 0.9010 0.8980
6.717238 0.8960 0.8860 0.8660 0.8430 0.8180
6.751000 0.8110 0.8100 0.8110 0.8210 0.8260
6.784238 0.8360 0.8510 0.8800 0.8810 0.8810
6.817000 0.8800 0.8780 0.8760 0.8700 0.8650
6.850238 0.8550 0.8530 0.8510 0.8460 0.8360
6.884000 0.8210 0.8080 0.7900 0.7560 0.7260
6.917238 0.7000 0.6710 0.6400 0.6000 0.5060
6.950000 0.4330 0.3600 0.2760 0.2160 0.1550
6.983238 0.1530 0.1560 0.2460 0.3130 0.3710
7.017000 0.4230 0.4950 0.5550 0.5810 0.6210
7.050238 0.6530 0.6560 0.6550 0.6200 0.5630
7.083000 0.5050 0.5010 0.4980 0.5400 0.6030
7.116238 0.6650 0.7000 0.7260 0.7460 0.7630
7.150000 0.7780 0.7930 0.8060 0.8180 0.8260
7.183238 0.8330 0.8330 0.8350 0.8380 0.8410
7.216000 0.8430 0.8430 0.8410 0.8400 0.8360
7.249238 0.8300 0.8250 0.8160 0.8110 0.8050
7.282000 0.8030 0.8000 0.7900 0.7610 0.7410
7.315238 0.7280 0.7050 0.6900 0.6800 0.6750
7.349000 0.6700 0.6680 0.6680 0.6660 0.6650
7.382238 0.6630 0.6610 0.6610 0.6610 0.6810
7.415000 0.7280 0.7500 0.7680 0.7830 0.7960
7.448238 0.8010 0.8100 0.8210 0.8300 0.8360
7.482000 0.8410 0.8430 0.8460 0.8500 0.8560
7.515238 0.8630 0.8710 0.8760 0.8780 0.8800
7.548000 0.8850 0.8880 0.8880 0.8900 0.8910
7.581238 0.8930 0.8950 0.9000 0.9030 0.9060
7.615000 0.9080 0.9080 0.9100 0.9130 0.9150
7.648238 0.9160 0.9180 0.9200 0.9200 0.9200
7.681000 0.9210 0.9230 0.9230 0.9250 0.9260
7.714238 0.9280 0.9280 0.9300 0.9300 0.9300
7.748000 0.9310 0.9310 0.9300 0.9300 0.9300
7.781238 0.9310 0.9310 0.9310 0.9330 0.9330
7.814000 0.9330 0.9330 0.9330 0.9330 0.9330
7.847238 0.9330 0.9330 0.9330 0.9310 0.9300
7.880000 0.9300 0.9300 0.9300 0.9310 0.9330
7.913238 0.9330 0.9350 0.9380 0.9360 0.9330
7.947000 0.9300 0.9280 0.9280 0.9280 0.9280
7.980238 0.9280 0.9280 0.9280 0.9300 0.9300
8.013000 0.9300 0.9300 0.9300 0.9310 0.9310
8.046238 0.9310 0.9300 0.9250 0.9210 0.9210
8.080000 0.9210 0.9210 0.9210 0.9200 0.9200
8.113238 0.9210 0.9210 0.9210 0.9210 0.9200
8.146000 0.9200 0.9180 0.9180 0.9150 0.9130
8.179238 0.9110 0.9110 0.9110 0.9100 0.9100
8.213000 0.9080 0.9080 0.9050 0.9010 0.9000
8.246238 0.9000 0.9000 0.9000 0.8950 0.8930
8.279000 0.8900 0.8880 0.8860 0.8830 0.8800
8.312238 0.8780 0.8760 0.8750 0.8730 0.8700
8.346000 0.8660 0.8610 0.8610 0.8600 0.8600
8.379238 0.8600 0.8580 0.8580 0.8600 0.8650
8.412000 0.8660 0.8660 0.8680 0.8700 0.8730
8.445238 0.8750 0.8750 0.8780 0.8780 0.8780
8.478000 0.8780 0.8780 0.8780 0.8780 0.8780
8.511238 0.8780 0.8780 0.8780 0.8780 0.8760
8.545000 0.8750 0.8710 0.8680 0.8680 0.8660
8.578238 0.8650 0.8610 0.8550 0.8460 0.8350
8.611000 0.8180 0.8050 0.7850 0.7810 0.7810
8.644238 0.7810 0.7880 0.7980 0.8100 0.8180
8.678000 0.8260 0.8380 0.8410 0.8460 0.8500
8.711238 0.8560 0.8650 0.8700 0.8760 0.8810
8.744000 0.8860 0.8900 0.8910 0.8950 0.8980
8.777238 0.9000 0.9010 0.9030 0.9050 0.9080
8.811000 0.9080 0.9080 0.9080 0.9100 0.9100
8.844238 0.9110 0.9110 0.9110 0.9110 0.9110
8.877000 0.9130 0.9130 0.9130 0.9110 0.9110
8.910238 0.9110 0.9110 0.9130 0.9150 0.9150
8.944000 0.9150 0.9150 0.9160 0.9150 0.9150
8.977238 0.9150 0.9150 0.9160 0.9160 0.9160
9.010000 0.9180 0.9180 0.9180 0.9180 0.9180
9.043238 0.9180 0.9180 0.9180 0.9180 0.9180
9.076000 0.9180 0.9180 0.9200 0.9200 0.9200
9.109238 0.9210 0.9210 0.9210 0.9210 0.9210
9.143000 0.9210 0.9210 0.9210 0.9210 0.9200
9.176238 0.9160 0.9160 0.9160 0.9160 0.9160
9.209000 0.9160 0.9160 0.9160 0.9150 0.9130
9.242238 0.9110 0.9100 0.9100 0.9100 0.9100
9.276000 0.9080 0.9080 0.9080 0.9050 0.9030
9.309238 0.9000 0.8980 0.8960 0.8960 0.8960
9.342000 0.8960 0.8960 0.8960 0.8960 0.8960
9.375238 0.8950 0.8950 0.8930 0.8910 0.8910
9.409000 0.8930 0.8930 0.8930 0.8950 0.8950
9.442238 0.8950 0.8950 0.8950 0.8950 0.8950
9.475000 0.8930 0.8910 0.8910 0.8910 0.8910
9.508238 0.8900 0.8860 0.8850 0.8830 0.8810
9.542000 0.8800 0.8800 0.8800 0.8730 0.8700
9.575238 0.8660 0.8650 0.8650 0.8630 0.8610
9.608000 0.8600 0.8560 0.8530 0.8500 0.8450
9.641238 0.8400 0.8380 0.8360 0.8350 0.8330
9.674000 0.8330 0.8330 0.8330 0.8330 0.8360
9.707238 0.8400 0.8410 0.8430 0.8450 0.8480
9.741000 0.8500 0.8510 0.8550 0.8580 0.8600
9.774238 0.8610 0.8630 0.8650 0.8660 0.8680
9.807000 0.8700 0.8700 0.8710 0.8710 0.8710
9.840238 0.8730 0.8730 0.8750 0.8750 0.8730
9.874000 0.8710 0.8700 0.8700 0.8700 0.8700
9.907238 0.8680 0.8650 0.8630 0.8630 0.8630
9.940000 0.8610 0.8600 0.8600 0.8530 0.8500
9.973238 0.8450 0.8360 0.8310 0.8250 0.8250
10.007000 0.8200 0.8110 0.8080 0.8060 0.8050
10.040238 0.8010 0.8000 0.7980 0.7910 0.7900
10.073000 0.7850 0.7810 0.7800 0.7760 0.7700
10.106238 0.7630 0.7580 0.7530 0.7510 0.7430
10.140000 0.7360 0.7300 0.7260 0.7200 0.7060
10.173238 0.7030 0.6980 0.6910 0.6850 0.6750
10.206000 0.6630 0.6500 0.6280 0.6250 0.6130
10.239238 0.6010 0.5910 0.5810 0.5560 0.5360
10.272000 0.5180 0.5050 0.4950 0.4830 0.4560
10.305238 0.4280 0.3980 0.3700 0.3400 0.3080
10.339000 0.2730 0.2380 0.2010 0.1680 0.1350
10.372238 0.1080 0.0850 0.0660 0.0510 0.0410
10.405000 0.0310 0.0250 0.0180 0.0150 0.0150
10.438238 0.0130 0.0110 0.0110 0.0110 0.0110
10.472000 0.0150 0.0250 0.0350 0.0550 0.0600
10.505238 0.0800 0.1000 0.1210 0.1460 0.1710
10.538000 0.2000 0.2280 0.2560 0.2860 0.3150
10.571238 0.3450 0.3750 0.4030 0.4300 0.4550
10.605000 0.4800 0.5200 0.5360 0.5460 0.5580
10.638238 0.5760 0.5830 0.5900 0.5980 0.6060
10.671000 0.6180 0.6310 0.6480 0.6650 0.6810
10.704238 0.6980 0.7150 0.7260 0.7360 0.7460
10.738000 0.7560 0.7700 0.7800 0.7900 0.7960
10.771238 0.8000 0.8010 0.8030 0.8060 0.8100
10.804000 0.8130 0.8150 0.8160 0.8200 0.8300
10.837238 0.8310 0.8350 0.8400 0.8430 0.8450
10.870000 0.8460 0.8460 0.8480 0.8480 0.8500
10.903238 0.8500 0.8510 0.8510 0.8530 0.8550
10.937000 0.8560 0.8580 0.8600 0.8600 0.8630
10.970238 0.8650 0.8650 0.8650 0.8650 0.8650
11.003000 0.8650 0.8650 0.8630 0.8580 0.8550
11.036238 0.8530 0.8510 0.8500 0.8460 0.8410
11.070000 0.8350 0.8330 0.8260 0.8200 0.8130
11.103238 0.8050 0.8010 0.7900 0.7780 0.7710
11.136000 0.7610 0.7530 0.7460 0.7360 0.7110
11.169238 0.6910 0.6780 0.6580 0.6310 0.6000
11.203000 0.5650 0.5230 0.5010 0.4800 0.4350
11.236238 0.3860 0.3300 0.2800 0.2300 0.1630
11.269000 0.1150 0.0850 0.0700 0.0630 0.0610
11.302238 0.0650 0.0780 0.1010 0.1280 0.1610
11.336000 0.2000 0.2480 0.2860 0.3330 0.3780
11.369238 0.4360 0.4700 0.5400 0.5730 0.6030
11.402000 0.6310 0.6550 0.6750 0.6900 0.6980
11.435238 0.7160 0.7310 0.7450 0.7550 0.7660
11.468000 0.7800 0.7800 0.7850 0.7960 0.7980
11.501238 0.8060 0.8150 0.8230 0.8230 0.8250
11.535000 0.8300 0.8330 0.8380 0.8400 0.8460
11.568238 0.8510 0.8530 0.8600 0.8610 0.8630
11.601000 0.8650 0.8710 0.8760 0.8800 0.8800
11.634238 0.8800 0.8800 0.8800 0.8810 0.8810
11.668000 0.8810 0.8810 0.8830 0.8830 0.8830
11.701238 0.8850 0.8850 0.8860 0.8860 0.8860
11.734000 0.8860 0.8860 0.8860 0.8860 0.8880
11.767238 0.8900 0.8900 0.8910 0.8910 0.8930
11.801000 0.8930 0.8930 0.8930 0.8930 0.8930
11.834238 0.8930 0.8930 0.8930 0.8930 0.8960
11.867000 0.8960 0.9000 0.9010 0.9010 0.9010
11.900238 0.9010 0.9010 0.9000 0.9000 0.8980
11.934000 0.8980 0.8960 0.8960 0.8980 0.8980
11.967238 0.8980 0.8960 0.8960 0.8980 0.8980
12.000000 0.9010 0.9030 0.9030 0.9030 0.9010
12.033238 0.9010 0.9010 0.9010 0.9010 0.9010
12.066000 0.9010 0.9010 0.9010 0.9010 0.9010
12.099238 0.9010 0.9010 0.9010 0.9050 0.9060
12.133000 0.9060 0.9060 0.9060 0.9060 0.9010
12.166238 0.9010 0.9010 0.9010 0.9010 0.9010
12.199000 0.9010 0.9010 0.9010 0.9050 0.9050
12.232238 0.9060 0.9060 0.9060 0.9060 0.9060
12.266000 0.9060 0.9060 0.9060 0.9080 0.9080
12.299238 0.9080 0.9100 0.9110 0.9110 0.9100
12.332000 0.9100 0.9110 0.9110 0.9110 0.9080
12.365238 0.9080 0.9050 0.9050 0.9050 0.9050
12.399000 0.9050 0.9010 0.9000 0.9000 0.8980
12.432238 0.8980 0.8980 0.8980 0.8980 0.8980
12.465000 0.8980 0.9000 0.9000 0.9000 0.9010
12.498238 0.9010 0.9010 0.9010 0.9010 0.9010
12.532000 0.9010 0.9010 0.9010 0.9030 0.9060
12.565238 0.9060 0.9050 0.9050 0.9050 0.9050
12.598000 0.9050 0.9050 0.9030 0.9010 0.9010
12.631238 0.9010 0.9010 0.9010 0.9030 0.9050
12.664000 0.9060 0.9060 0.9080 0.9080 0.9080
12.697238 0.9080 0.9080 0.9080 0.9080 0.9080
12.731000 0.9080 0.9100 0.9100 0.9130 0.9130
12.764238 0.9150 0.9150 0.9160 0.9160 0.9160
12.797000 0.9160 0.9160 0.9150 0.9150 0.9160
12.830238 0.9160 0.9160 0.9160 0.9160 0.9180
12.864000 0.9210 0.9210 0.9200 0.9200 0.9200
12.897238 0.9180 0.9180 0.9200 0.9210 0.9230
12.930000 0.9250 0.9250 0.9280 0.9300 0.9300
12.963238 0.9310 0.9310 0.9310 0.9300 0.9300
12.997000 0.9280 0.9280 0.9280 0.9280 0.9300
13.030238 0.9300 0.9300 0.9300 0.9300 0.9300
13.063000 0.9310 0.9310 0.9330 0.9350 0.9350
13.096238 0.9360 0.9360 0.9360 0.9360 0.9380
13.130000 0.9380 0.9380 0.9380 0.9380 0.9380
13.163238 0.9380 0.9360 0.9350 0.9330 0.9350
13.196000 0.9360 0.9400 0.9410 0.9410 0.9400
13.229238 0.9380 0.9380 0.9360 0.9360 0.9360
13.262000 0.9360 0.9360 0.9380 0.9380 0.9380
13.295238 0.9380 0.9380 0.9360 0.9360 0.9360
13.329000 0.9380 0.9380 0.9380 0.9360 0.9360
13.362238 0.9380 0.9400 0.9400 0.9400 0.9410
13.395000 0.9410 0.9400 0.9400 0.9400 0.9380
13.428238 0.9360 0.9330 0.9330 0.9310 0.9310
13.462000 0.9310 0.9310 0.9310 0.9310 0.9310
13.495238 0.9310 0.9300 0.9300 0.9300 0.9300
13.528000 0.9300 0.9300 0.9300 0.9300 0.9300
13.561238 0.9300 0.9300 0.9300 0.9300 0.9300
13.595000 0.9280 0.9280 0.9260 0.9260 0.9250
13.628238 0.9250 0.9250 0.9250 0.9230 0.9230
13.661000 0.9230 0.9230 0.9230 0.9230 0.9230
13.694238 0.9210 0.9210 0.9210 0.9210 0.9200
13.728000 0.9200 0.9200 0.9160 0.9130 0.9130
13.761238 0.9130 0.9130 0.9110 0.9110 0.9100
13.794000 0.9100 0.9050 0.9050 0.9030 0.9010
13.827238 0.9010 0.9010 0.9000 0.8980 0.8980
13.860000 0.8980 0.8960 0.8950 0.8950 0.8950
13.893238 0.8930 0.8900 0.8900 0.8900 0.8860
13.927000 0.8830 0.8810 0.8800 0.8780 0.8760
13.960238 0.8760 0.8750 0.8730 0.8700 0.8700
13.993000 0.8700 0.8700 0.8700 0.8700 0.8660
14.026238 0.8660 0.8630 0.8630 0.8630 0.8630
14.060000 0.8610 0.8610 0.8600 0.8550 0.8530
14.093238 0.8510 0.8510 0.8500 0.8480 0.8430
14.126000 0.8410 0.8410 0.8400 0.8400 0.8360
14.159238 0.8350 0.8330 0.8300 0.8280 0.8280
14.193000 0.8280 0.8280 0.8230 0.8210 0.8200
14.226238 0.8200 0.8200 0.8200 0.8200 0.8200
14.259000 0.8160 0.8150 0.8110 0.8100 0.8060
14.292238 0.8050 0.8030 0.8010 0.8010 0.8010
14.326000 0.8010 0.8010 0.7980 0.7960 0.7930
14.359238 0.7910 0.7910 0.7900 0.7880 0.7880
14.392000 0.7860 0.7850 0.7850 0.7830 0.7810
14.425238 0.7800 0.7800 0.7760 0.7750 0.7730
14.458000 0.7730 0.7710 0.7650 0.7610 0.7600
14.491238 0.7600 0.7560 0.7550 0.7530 0.7480
14.525000 0.7410 0.7360 0.7330 0.7250 0.7200
14.558238 0.7130 0.7100 0.7060 0.7060 0.7050
14.591000 0.7010 0.6960 0.6910 0.6880 0.6800
14.624238 0.6750 0.6680 0.6630 0.6510 0.6410
14.658000 0.6380 0.6280 0.6110 0.6010 0.5900
14.691238 0.5830 0.5760 0.5660 0.5560 0.5330
14.724000 0.5160 0.5060 0.4960 0.4850 0.4650
14.757238 0.4430 0.4380 0.4250 0.4110 0.4010
14.791000 0.3900 0.3810 0.3730 0.3680 0.3610
14.824238 0.3560 0.3560 0.3580 0.3610 0.3650
14.857000 0.3710 0.3760 0.3900 0.4010 0.4100
14.890238 0.4180 0.4210 0.4260 0.4310 0.4400
14.924000 0.4450 0.4500 0.4500 0.4510 0.4600
14.957238 0.4650 0.4680 0.4700 0.4710 0.4710
14.990000 0.4730 0.4780 0.4810 0.4880 0.4910
15.023238 0.4950 0.4980 0.4980 0.4980 0.4980
15.056000 0.4980 0.4980 0.4960 0.4950 0.4910
15.089238 0.4900 0.4900 0.4900 0.4880 0.4860
15.123000 0.4810 0.4810 0.4810 0.4810 0.4810
15.156238 0.4810 0.4810 0.4800 0.4800 0.4800
15.189000 0.4800 0.4800 0.4780 0.4780 0.4760
15.222238 0.4760 0.4750 0.4730 0.4710 0.4710
15.256000 0.4710 0.4700 0.4700 0.4680 0.4660
15.289238 0.4650 0.4650 0.4650 0.4630 0.4630
15.322000 0.4630 0.4630 0.4630 0.4610 0.4610
15.355238 0.4600 0.4600 0.4580 0.4580 0.4560
15.389000 0.4560 0.4530 0.4530 0.4510 0.4430
15.422238 0.4410 0.4400 0.4380 0.4380 0.4380
15.455000 0.4380 0.4360 0.4350 0.4300 0.4250
15.488238 0.4230 0.4230 0.4230 0.4210 0.4180
15.522000 0.4150 0.4130 0.4100 0.4060 0.4030
15.555238 0.4030 0.4010 0.4000 0.3980 0.3930
15.588000 0.3910 0.3900 0.3880 0.3860 0.3860
15.621238 0.3830 0.3800 0.3750 0.3700 0.3680
15.654000 0.3680 0.3650 0.3600 0.3560 0.3530
15.687238 0.3530 0.3510 0.3500 0.3480 0.3460
15.721000 0.3430 0.3380 0.3330 0.3330 0.3330
15.754238 0.3310 0.3300 0.3250 0.3180 0.3150
15.787000 0.3130 0.3130 0.3130 0.3110 0.3110
15.820238 0.3110 0.3110 0.3110 0.3100 0.3010
15.854000 0.2980 0.2960 0.2910 0.2900 0.2900
15.887238 0.2900 0.2900 0.2900 0.2900 0.2900
15.920000 0.2900 0.2900 0.2900 0.2900 0.2900
15.953238 0.2910 0.2910 0.2910 0.2910 0.2910
15.987000 0.3000 0.3000 0.3050 0.3080
##END=
