##TITLE=1-Iodopentane
##JCAMP-DX=4.24
$$ By DXEDIT 1.05 (RS McDonald)
##DATA TYPE=INFRARED SPECTRUM
##CLASS=COBLENTZ III
##ORIGIN=DOW CHEMICAL COMPANY
##OWNER=COPYRIGHT (C) 1988 by COBLENTZ SOCIETY INC.
Collection (C) 2018 copyright by the U.S. Secretary of Commerce
on behalf of the United States of America. All rights reserved.
##DATE=1962/03/08
##CAS REGISTRY NO=628-17-1
##MOLFORM=C5 H11 I
##SOURCE REFERENCE=COBLENTZ NO. 5641
##$NIST SOURCE=COBLENTZ
##$NIST IMAGE=cob5641
##SPECTROMETER/DATA SYSTEM=DOW KBr FOREPRISM-GRATING
$$SPECTRAL CONTAMINATIONS DUE TO CS2 AROUND 850, AND CCl4 AROUND 1550 CM^-^1 HAVE BEEN SUBTRACTED
##INSTRUMENT PARAMETERS=BLAZED AT 3.5, 12.0, 20.0 AND CHANGED AT 5.0, 7.5, 14.9 MICRON
##STATE=SOLUTION (10% CCl4 FOR 3800-1340, 10% CS2 FOR 1340-400)
##PATH LENGTH=0.0107 CM, 0.0103 CM
##SAMPLING PROCEDURE=TRANSMISSION
##RESOLUTION=2
##DATA PROCESSING=DIGITIZED BY COBLENTZ SOCIETY (BATCH I) FROM HARD COPY
##XUNITS=1/CM
##YUNITS=TRANSMITTANCE
##XFACTOR=1
##YFACTOR=1
##DELTAX=1
##FIRSTX=3802
##LASTX=381
##FIRSTY=0.9117
##MAXX=3802
##MINX=381
##MAXY=0.9218
##MINY=0.1194
##NPOINTS=3422
##XYDATA=(X++(Y..Y))
3802.000000 0.9117 0.9115 0.9114 0.9112 0.9111
3797.000000 0.9111 0.9118 0.9109 0.9118 0.9115
3792.000000 0.9114 0.9113 0.9112 0.9110 0.9109
3787.000000 0.9107 0.9106 0.9104 0.9095 0.9088
3782.000000 0.9087 0.9094 0.9097 0.9083 0.9088
3777.000000 0.9089 0.9087 0.9071 0.9082 0.9080
3772.000000 0.9079 0.9078 0.9077 0.9075 0.9074
3767.000000 0.9072 0.9071 0.9069 0.9068 0.9066
3762.000000 0.9065 0.9064 0.9070 0.9069 0.9063
3757.000000 0.9064 0.9066 0.9067 0.9069 0.9070
3752.000000 0.9072 0.9073 0.9075 0.9076 0.9078
3747.000000 0.9083 0.9089 0.9094 0.9099 0.9104
3742.000000 0.9111 0.9116 0.9122 0.9131 0.9144
3737.000000 0.9152 0.9158 0.9163 0.9163 0.9162
3732.000000 0.9175 0.9186 0.9192 0.9195 0.9200
3727.000000 0.9199 0.9199 0.9198 0.9198 0.9198
3722.000000 0.9198 0.9198 0.9198 0.9185 0.9186
3717.000000 0.9194 0.9191 0.9187 0.9183 0.9178
3712.000000 0.9178 0.9179 0.9171 0.9175 0.9172
3707.000000 0.9167 0.9163 0.9159 0.9155 0.9151
3702.000000 0.9146 0.9142 0.9139 0.9137 0.9135
3697.000000 0.9133 0.9119 0.9116 0.9114 0.9111
3692.000000 0.9109 0.9107 0.9106 0.9104 0.9102
3687.000000 0.9096 0.9085 0.9082 0.9081 0.9079
3682.000000 0.9078 0.9076 0.9073 0.9071 0.9069
3677.000000 0.9067 0.9066 0.9065 0.9065 0.9066
3672.000000 0.9067 0.9067 0.9079 0.9071 0.9070
3667.000000 0.9070 0.9071 0.9072 0.9073 0.9073
3662.000000 0.9074 0.9075 0.9076 0.9076 0.9077
3657.000000 0.9078 0.9082 0.9084 0.9086 0.9088
3652.000000 0.9089 0.9092 0.9094 0.9096 0.9098
3647.000000 0.9100 0.9103 0.9105 0.9107 0.9109
3642.000000 0.9112 0.9113 0.9113 0.9113 0.9113
3637.000000 0.9113 0.9113 0.9111 0.9111 0.9113
3632.000000 0.9123 0.9123 0.9119 0.9109 0.9114
3627.000000 0.9121 0.9121 0.9120 0.9120 0.9120
3622.000000 0.9120 0.9119 0.9119 0.9118 0.9118
3617.000000 0.9117 0.9117 0.9116 0.9116 0.9116
3612.000000 0.9116 0.9115 0.9115 0.9113 0.9102
3607.000000 0.9113 0.9113 0.9111 0.9111 0.9106
3602.000000 0.9100 0.9106 0.9100 0.9090 0.9094
3597.000000 0.9098 0.9098 0.9096 0.9094 0.9090
3592.000000 0.9089 0.9087 0.9086 0.9084 0.9082
3587.000000 0.9080 0.9078 0.9076 0.9075 0.9073
3582.000000 0.9071 0.9068 0.9067 0.9066 0.9065
3577.000000 0.9064 0.9060 0.9055 0.9062 0.9061
3572.000000 0.9054 0.9046 0.9046 0.9045 0.9044
3567.000000 0.9043 0.9042 0.9041 0.9041 0.9040
3562.000000 0.9039 0.9038 0.9036 0.9036 0.9036
3557.000000 0.9035 0.9033 0.9044 0.9031 0.9032
3552.000000 0.9043 0.9041 0.9038 0.9032 0.9041
3547.000000 0.9041 0.9041 0.9035 0.9034 0.9041
3542.000000 0.9041 0.9041 0.9033 0.9036 0.9032
3537.000000 0.9037 0.9041 0.9041 0.9041 0.9041
3532.000000 0.9041 0.9041 0.9041 0.9028 0.9028
3527.000000 0.9027 0.9027 0.9027 0.9027 0.9027
3522.000000 0.9027 0.9027 0.9027 0.9027 0.9027
3517.000000 0.9027 0.9027 0.9025 0.9025 0.9025
3512.000000 0.9025 0.9025 0.9025 0.9025 0.9025
3507.000000 0.9025 0.9025 0.9025 0.9025 0.9023
3502.000000 0.9023 0.9023 0.9023 0.9022 0.9022
3497.000000 0.9022 0.9022 0.9022 0.9022 0.9021
3492.000000 0.9021 0.9021 0.9021 0.9021 0.9021
3487.000000 0.9020 0.9020 0.9020 0.9020 0.9019
3482.000000 0.9019 0.9021 0.9023 0.9024 0.9027
3477.000000 0.9031 0.9035 0.9037 0.9040 0.9042
3472.000000 0.9045 0.9048 0.9051 0.9053 0.9056
3467.000000 0.9059 0.9063 0.9065 0.9068 0.9071
3462.000000 0.9074 0.9076 0.9079 0.9082 0.9085
3457.000000 0.9086 0.9091 0.9093 0.9096 0.9099
3452.000000 0.9102 0.9105 0.9108 0.9111 0.9114
3447.000000 0.9118 0.9122 0.9125 0.9128 0.9131
3442.000000 0.9134 0.9137 0.9140 0.9143 0.9147
3437.000000 0.9150 0.9153 0.9156 0.9159 0.9162
3432.000000 0.9165 0.9168 0.9171 0.9174 0.9176
3427.000000 0.9177 0.9179 0.9169 0.9181 0.9183
3422.000000 0.9186 0.9187 0.9190 0.9190 0.9193
3417.000000 0.9195 0.9197 0.9198 0.9200 0.9201
3412.000000 0.9204 0.9206 0.9208 0.9209 0.9211
3407.000000 0.9217 0.9218 0.9212 0.9213 0.9213
3402.000000 0.9214 0.9214 0.9214 0.9214 0.9215
3397.000000 0.9215 0.9216 0.9216 0.9216 0.9216
3392.000000 0.9216 0.9214 0.9212 0.9209 0.9207
3387.000000 0.9205 0.9203 0.9201 0.9199 0.9197
3382.000000 0.9195 0.9193 0.9190 0.9189 0.9186
3377.000000 0.9184 0.9182 0.9177 0.9172 0.9167
3372.000000 0.9161 0.9156 0.9162 0.9147 0.9142
3367.000000 0.9137 0.9134 0.9130 0.9127 0.9124
3362.000000 0.9121 0.9116 0.9113 0.9109 0.9106
3357.000000 0.9102 0.9099 0.9096 0.9092 0.9088
3352.000000 0.9085 0.9084 0.9084 0.9082 0.9082
3347.000000 0.9082 0.9082 0.9091 0.9094 0.9081
3342.000000 0.9091 0.9078 0.9078 0.9078 0.9090
3337.000000 0.9089 0.9086 0.9075 0.9075 0.9073
3332.000000 0.9073 0.9072 0.9072 0.9071 0.9071
3327.000000 0.9070 0.9070 0.9069 0.9069 0.9068
3322.000000 0.9067 0.9066 0.9066 0.9065 0.9065
3317.000000 0.9064 0.9064 0.9063 0.9062 0.9061
3312.000000 0.9073 0.9072 0.9072 0.9071 0.9069
3307.000000 0.9060 0.9069 0.9068 0.9064 0.9054
3302.000000 0.9054 0.9053 0.9052 0.9051 0.9050
3297.000000 0.9048 0.9047 0.9046 0.9045 0.9044
3292.000000 0.9043 0.9042 0.9041 0.9039 0.9038
3287.000000 0.9036 0.9035 0.9034 0.9033 0.9044
3282.000000 0.9040 0.9029 0.9031 0.9040 0.9034
3277.000000 0.9025 0.9028 0.9034 0.9033 0.9032
3272.000000 0.9031 0.9030 0.9029 0.9028 0.9027
3267.000000 0.9025 0.9024 0.9023 0.9022 0.9021
3262.000000 0.9020 0.9019 0.9018 0.9016 0.9014
3257.000000 0.9013 0.9001 0.9011 0.9010 0.9008
3252.000000 0.9007 0.9006 0.9005 0.9004 0.9003
3247.000000 0.9002 0.9001 0.8994 0.8993 0.8997
3242.000000 0.8996 0.8994 0.8992 0.8992 0.8991
3237.000000 0.8989 0.8989 0.8988 0.8987 0.8985
3232.000000 0.8985 0.8984 0.8984 0.8982 0.8982
3227.000000 0.8980 0.8969 0.8972 0.8982 0.8982
3222.000000 0.8982 0.8981 0.8981 0.8980 0.8980
3217.000000 0.8980 0.8981 0.8982 0.8984 0.8985
3212.000000 0.8987 0.8988 0.8989 0.8991 0.8981
3207.000000 0.8979 0.8979 0.8979 0.8979 0.8974
3202.000000 0.8969 0.8967 0.8965 0.8970 0.8959
3197.000000 0.8962 0.8953 0.8961 0.8961 0.8961
3192.000000 0.8962 0.8963 0.8957 0.8958 0.8965
3187.000000 0.8966 0.8958 0.8955 0.8956 0.8957
3182.000000 0.8958 0.8958 0.8958 0.8955 0.8953
3177.000000 0.8950 0.8948 0.8945 0.8941 0.8938
3172.000000 0.8936 0.8933 0.8931 0.8927 0.8926
3167.000000 0.8923 0.8920 0.8916 0.8921 0.8925
3162.000000 0.8915 0.8914 0.8918 0.8917 0.8908
3157.000000 0.8911 0.8904 0.8900 0.8909 0.8909
3152.000000 0.8908 0.8906 0.8905 0.8903 0.8890
3147.000000 0.8888 0.8887 0.8886 0.8885 0.8884
3142.000000 0.8883 0.8886 0.8893 0.8892 0.8892
3137.000000 0.8891 0.8890 0.8889 0.8889 0.8887
3132.000000 0.8887 0.8886 0.8884 0.8884 0.8884
3127.000000 0.8883 0.8882 0.8879 0.8879 0.8878
3122.000000 0.8878 0.8876 0.8876 0.8875 0.8874
3117.000000 0.8873 0.8873 0.8872 0.8871 0.8869
3112.000000 0.8868 0.8866 0.8865 0.8864 0.8863
3107.000000 0.8868 0.8872 0.8870 0.8869 0.8867
3102.000000 0.8866 0.8864 0.8873 0.8874 0.8873
3097.000000 0.8883 0.8894 0.8905 0.8903 0.8901
3092.000000 0.8898 0.8884 0.8881 0.8866 0.8855
3087.000000 0.8856 0.8859 0.8844 0.8834 0.8832
3082.000000 0.8831 0.8829 0.8827 0.8825 0.8830
3077.000000 0.8841 0.8843 0.8840 0.8848 0.8847
3072.000000 0.8835 0.8830 0.8828 0.8812 0.8822
3067.000000 0.8807 0.8804 0.8801 0.8797 0.8784
3062.000000 0.8782 0.8779 0.8780 0.8785 0.8782
3057.000000 0.8771 0.8760 0.8767 0.8768 0.8746
3052.000000 0.8742 0.8746 0.8746 0.8741 0.8736
3047.000000 0.8732 0.8738 0.8735 0.8741 0.8748
3042.000000 0.8756 0.8764 0.8771 0.8765 0.8760
3037.000000 0.8753 0.8735 0.8720 0.8711 0.8692
3032.000000 0.8678 0.8669 0.8655 0.8640 0.8631
3027.000000 0.8617 0.8602 0.8594 0.8586 0.8576
3022.000000 0.8568 0.8545 0.8522 0.8507 0.8484
3017.000000 0.8458 0.8419 0.8390 0.8363 0.8330
3012.000000 0.8298 0.8249 0.8201 0.8127 0.8051
3007.000000 0.7924 0.7811 0.7776 0.7733 0.7716
3002.000000 0.7696 0.7684 0.7678 0.7665 0.7649
2997.000000 0.7635 0.7624 0.7608 0.7594 0.7569
2992.000000 0.7538 0.7504 0.7468 0.7417 0.7367
2987.000000 0.7315 0.7266 0.7134 0.7005 0.6445
2982.000000 0.5885 0.5717 0.5550 0.5442 0.5324
2977.000000 0.5221 0.5126 0.5054 0.4980 0.4544
2972.000000 0.4107 0.3764 0.3423 0.3084 0.2744
2967.000000 0.2401 0.2059 0.1715 0.1375 0.1315
2962.000000 0.1194 0.1255 0.1255 0.1258 0.1259
2957.000000 0.1356 0.1454 0.1678 0.1903 0.2129
2952.000000 0.2353 0.2577 0.2801 0.3026 0.3250
2947.000000 0.3359 0.3468 0.3472 0.3479 0.3483
2942.000000 0.3501 0.3326 0.3166 0.2984 0.2800
2937.000000 0.2617 0.2433 0.2247 0.2063 0.1930
2932.000000 0.1798 0.1794 0.1789 0.1787 0.1785
2927.000000 0.1785 0.1776 0.1789 0.1792 0.1906
2922.000000 0.2019 0.2147 0.2278 0.2407 0.2537
2917.000000 0.2667 0.2798 0.2927 0.3058 0.3188
2912.000000 0.3317 0.3447 0.3578 0.3708 0.3842
2907.000000 0.3974 0.4097 0.4228 0.4358 0.4488
2902.000000 0.4619 0.4749 0.4877 0.5008 0.5139
2897.000000 0.5269 0.5398 0.5529 0.5659 0.5693
2892.000000 0.5729 0.5747 0.5764 0.5774 0.5783
2887.000000 0.5790 0.5798 0.5805 0.5812 0.5816
2882.000000 0.5855 0.5563 0.5307 0.5006 0.4706
2877.000000 0.4398 0.4104 0.3863 0.3616 0.3624
2872.000000 0.3626 0.3671 0.3717 0.3788 0.3859
2867.000000 0.3930 0.4002 0.4074 0.4145 0.4216
2862.000000 0.4289 0.4326 0.4363 0.4379 0.4395
2857.000000 0.4410 0.4426 0.4441 0.4450 0.4602
2852.000000 0.4755 0.4928 0.5100 0.5272 0.5445
2847.000000 0.5618 0.5797 0.5970 0.6140 0.6309
2842.000000 0.6488 0.6607 0.6724 0.6729 0.6742
2837.000000 0.6748 0.6750 0.6758 0.6770 0.6801
2832.000000 0.6833 0.6913 0.6997 0.7224 0.7440
2827.000000 0.7587 0.7728 0.7760 0.7801 0.7854
2822.000000 0.7887 0.7940 0.7982 0.8008 0.8026
2817.000000 0.8052 0.8078 0.8104 0.8130 0.8155
2812.000000 0.8181 0.8205 0.8229 0.8253 0.8284
2807.000000 0.8307 0.8324 0.8339 0.8355 0.8369
2802.000000 0.8384 0.8393 0.8404 0.8413 0.8422
2797.000000 0.8432 0.8442 0.8452 0.8461 0.8471
2792.000000 0.8479 0.8478 0.8492 0.8490 0.8497
2787.000000 0.8504 0.8511 0.8523 0.8536 0.8538
2782.000000 0.8539 0.8552 0.8564 0.8568 0.8573
2777.000000 0.8577 0.8582 0.8588 0.8593 0.8596
2772.000000 0.8602 0.8606 0.8612 0.8616 0.8621
2767.000000 0.8625 0.8630 0.8634 0.8638 0.8641
2762.000000 0.8644 0.8646 0.8648 0.8650 0.8651
2757.000000 0.8651 0.8651 0.8653 0.8654 0.8655
2752.000000 0.8655 0.8657 0.8658 0.8654 0.8650
2747.000000 0.8646 0.8642 0.8638 0.8633 0.8629
2742.000000 0.8625 0.8621 0.8617 0.8612 0.8608
2737.000000 0.8603 0.8599 0.8591 0.8584 0.8576
2732.000000 0.8567 0.8558 0.8547 0.8551 0.8554
2727.000000 0.8559 0.8563 0.8567 0.8571 0.8576
2722.000000 0.8580 0.8583 0.8587 0.8591 0.8595
2717.000000 0.8598 0.8602 0.8603 0.8606 0.8609
2712.000000 0.8612 0.8614 0.8617 0.8619 0.8622
2707.000000 0.8625 0.8628 0.8630 0.8633 0.8635
2702.000000 0.8638 0.8640 0.8643 0.8645 0.8647
2697.000000 0.8647 0.8647 0.8645 0.8644 0.8642
2692.000000 0.8640 0.8638 0.8637 0.8635 0.8634
2687.000000 0.8631 0.8627 0.8623 0.8619 0.8615
2682.000000 0.8612 0.8607 0.8604 0.8600 0.8595
2677.000000 0.8592 0.8589 0.8584 0.8580 0.8578
2672.000000 0.8577 0.8577 0.8578 0.8579 0.8580
2667.000000 0.8581 0.8582 0.8583 0.8585 0.8586
2662.000000 0.8587 0.8588 0.8589 0.8590 0.8593
2657.000000 0.8605 0.8606 0.8607 0.8609 0.8610
2652.000000 0.8610 0.8608 0.8602 0.8602 0.8611
2647.000000 0.8617 0.8620 0.8614 0.8611 0.8612
2642.000000 0.8623 0.8618 0.8614 0.8614 0.8612
2637.000000 0.8610 0.8608 0.8605 0.8616 0.8614
2632.000000 0.8611 0.8597 0.8596 0.8605 0.8603
2627.000000 0.8601 0.8599 0.8597 0.8595 0.8592
2622.000000 0.8589 0.8585 0.8583 0.8580 0.8577
2617.000000 0.8574 0.8572 0.8569 0.8566 0.8562
2612.000000 0.8560 0.8557 0.8554 0.8551 0.8550
2607.000000 0.8547 0.8543 0.8541 0.8539 0.8539
2602.000000 0.8540 0.8540 0.8540 0.8540 0.8541
2597.000000 0.8541 0.8541 0.8541 0.8542 0.8542
2592.000000 0.8542 0.8542 0.8543 0.8543 0.8543
2587.000000 0.8543 0.8543 0.8543 0.8543 0.8545
2582.000000 0.8546 0.8546 0.8547 0.8549 0.8550
2577.000000 0.8550 0.8552 0.8553 0.8553 0.8554
2572.000000 0.8557 0.8558 0.8560 0.8561 0.8561
2567.000000 0.8562 0.8564 0.8564 0.8566 0.8567
2562.000000 0.8568 0.8569 0.8570 0.8571 0.8571
2557.000000 0.8571 0.8571 0.8570 0.8569 0.8568
2552.000000 0.8568 0.8567 0.8566 0.8564 0.8564
2547.000000 0.8564 0.8562 0.8560 0.8560 0.8560
2542.000000 0.8559 0.8557 0.8557 0.8556 0.8556
2537.000000 0.8554 0.8554 0.8553 0.8553 0.8552
2532.000000 0.8550 0.8550 0.8550 0.8549 0.8547
2527.000000 0.8546 0.8546 0.8546 0.8546 0.8544
2522.000000 0.8544 0.8542 0.8542 0.8542 0.8542
2517.000000 0.8541 0.8541 0.8540 0.8540 0.8539
2512.000000 0.8538 0.8537 0.8537 0.8535 0.8535
2507.000000 0.8535 0.8535 0.8534 0.8534 0.8533
2502.000000 0.8533 0.8532 0.8532 0.8531 0.8531
2497.000000 0.8530 0.8530 0.8528 0.8528 0.8527
2492.000000 0.8526 0.8525 0.8524 0.8523 0.8522
2487.000000 0.8520 0.8519 0.8518 0.8517 0.8516
2482.000000 0.8515 0.8521 0.8525 0.8522 0.8522
2477.000000 0.8520 0.8519 0.8519 0.8518 0.8516
2472.000000 0.8515 0.8515 0.8513 0.8512 0.8512
2467.000000 0.8511 0.8509 0.8509 0.8508 0.8506
2462.000000 0.8504 0.8504 0.8503 0.8501 0.8494
2457.000000 0.8491 0.8489 0.8482 0.8480 0.8486
2452.000000 0.8489 0.8487 0.8475 0.8480 0.8481
2447.000000 0.8479 0.8478 0.8476 0.8474 0.8472
2442.000000 0.8470 0.8468 0.8466 0.8462 0.8460
2437.000000 0.8458 0.8455 0.8452 0.8449 0.8446
2432.000000 0.8444 0.8441 0.8438 0.8435 0.8433
2427.000000 0.8430 0.8428 0.8425 0.8423 0.8421
2422.000000 0.8419 0.8417 0.8414 0.8413 0.8410
2417.000000 0.8407 0.8406 0.8403 0.8402 0.8399
2412.000000 0.8398 0.8396 0.8395 0.8397 0.8401
2407.000000 0.8396 0.8402 0.8400 0.8400 0.8400
2402.000000 0.8399 0.8398 0.8397 0.8396 0.8395
2397.000000 0.8393 0.8391 0.8389 0.8387 0.8384
2392.000000 0.8382 0.8380 0.8378 0.8388 0.8385
2387.000000 0.8384 0.8380 0.8379 0.8388 0.8386
2382.000000 0.8386 0.8394 0.8390 0.8406 0.8428
2377.000000 0.8448 0.8469 0.8485 0.8509 0.8530
2372.000000 0.8546 0.8561 0.8577 0.8582 0.8592
2367.000000 0.8594 0.8598 0.8600 0.8618 0.8604
2362.000000 0.8607 0.8608 0.8621 0.8615 0.8618
2357.000000 0.8610 0.8615 0.8602 0.8580 0.8560
2352.000000 0.8541 0.8517 0.8492 0.8476 0.8466
2347.000000 0.8471 0.8470 0.8463 0.8447 0.8440
2342.000000 0.8438 0.8437 0.8437 0.8426 0.8433
2337.000000 0.8434 0.8422 0.8421 0.8432 0.8429
2332.000000 0.8429 0.8429 0.8439 0.8438 0.8438
2327.000000 0.8441 0.8447 0.8450 0.8456 0.8451
2322.000000 0.8448 0.8444 0.8442 0.8436 0.8434
2317.000000 0.8428 0.8422 0.8415 0.8407 0.8400
2312.000000 0.8392 0.8385 0.8379 0.8371 0.8364
2307.000000 0.8355 0.8349 0.8341 0.8336 0.8322
2302.000000 0.8308 0.8294 0.8283 0.8276 0.8273
2297.000000 0.8265 0.8259 0.8252 0.8248 0.8242
2292.000000 0.8237 0.8232 0.8203 0.8228 0.8220
2287.000000 0.8218 0.8219 0.8219 0.8220 0.8210
2282.000000 0.8210 0.8210 0.8211 0.8210 0.8201
2277.000000 0.8201 0.8200 0.8191 0.8191 0.8191
2272.000000 0.8187 0.8179 0.8179 0.8174 0.8167
2267.000000 0.8167 0.8167 0.8161 0.8156 0.8157
2262.000000 0.8159 0.8152 0.8151 0.8152 0.8143
2257.000000 0.8143 0.8144 0.8146 0.8136 0.8139
2252.000000 0.8140 0.8141 0.8132 0.8133 0.8135
2247.000000 0.8138 0.8140 0.8140 0.8135 0.8138
2242.000000 0.8142 0.8145 0.8150 0.8153 0.8157
2237.000000 0.8159 0.8162 0.8157 0.8158 0.8161
2232.000000 0.8166 0.8170 0.8173 0.8176 0.8180
2227.000000 0.8183 0.8186 0.8188 0.8191 0.8194
2222.000000 0.8194 0.8187 0.8188 0.8191 0.8195
2217.000000 0.8196 0.8199 0.8202 0.8205 0.8207
2212.000000 0.8209 0.8211 0.8214 0.8216 0.8220
2207.000000 0.8222 0.8225 0.8227 0.8229 0.8231
2202.000000 0.8234 0.8236 0.8238 0.8239 0.8243
2197.000000 0.8244 0.8244 0.8237 0.8250 0.8247
2192.000000 0.8241 0.8242 0.8246 0.8248 0.8250
2187.000000 0.8251 0.8253 0.8255 0.8264 0.8263
2182.000000 0.8260 0.8262 0.8264 0.8266 0.8278
2177.000000 0.8281 0.8283 0.8285 0.8287 0.8288
2172.000000 0.8292 0.8292 0.8295 0.8294 0.8287
2167.000000 0.8287 0.8290 0.8291 0.8294 0.8294
2162.000000 0.8295 0.8298 0.8298 0.8300 0.8301
2157.000000 0.8302 0.8303 0.8304 0.8305 0.8306
2152.000000 0.8307 0.8308 0.8309 0.8309 0.8310
2147.000000 0.8311 0.8312 0.8313 0.8314 0.8315
2142.000000 0.8316 0.8317 0.8318 0.8318 0.8319
2137.000000 0.8319 0.8319 0.8319 0.8319 0.8319
2132.000000 0.8319 0.8319 0.8319 0.8318 0.8318
2127.000000 0.8318 0.8318 0.8318 0.8318 0.8318
2122.000000 0.8308 0.8317 0.8318 0.8318 0.8318
2117.000000 0.8317 0.8317 0.8317 0.8317 0.8316
2112.000000 0.8316 0.8315 0.8315 0.8315 0.8315
2107.000000 0.8314 0.8314 0.8313 0.8313 0.8312
2102.000000 0.8312 0.8312 0.8311 0.8310 0.8302
2097.000000 0.8298 0.8307 0.8309 0.8299 0.8307
2092.000000 0.8308 0.8307 0.8307 0.8307 0.8307
2087.000000 0.8306 0.8306 0.8306 0.8306 0.8305
2082.000000 0.8305 0.8305 0.8305 0.8304 0.8304
2077.000000 0.8304 0.8304 0.8303 0.8303 0.8303
2072.000000 0.8303 0.8302 0.8302 0.8302 0.8302
2067.000000 0.8301 0.8301 0.8300 0.8300 0.8299
2062.000000 0.8299 0.8296 0.8296 0.8296 0.8296
2057.000000 0.8297 0.8306 0.8305 0.8305 0.8305
2052.000000 0.8299 0.8295 0.8302 0.8294 0.8289
2047.000000 0.8289 0.8289 0.8287 0.8287 0.8286
2042.000000 0.8286 0.8286 0.8285 0.8283 0.8283
2037.000000 0.8283 0.8285 0.8286 0.8286 0.8287
2032.000000 0.8289 0.8289 0.8290 0.8292 0.8296
2027.000000 0.8301 0.8294 0.8301 0.8308 0.8311
2022.000000 0.8313 0.8315 0.8318 0.8320 0.8323
2017.000000 0.8325 0.8328 0.8330 0.8332 0.8335
2012.000000 0.8337 0.8339 0.8342 0.8345 0.8349
2007.000000 0.8353 0.8356 0.8358 0.8362 0.8364
2002.000000 0.8367 0.8368 0.8389 0.8372 0.8369
1997.000000 0.8352 0.8341 0.8331 0.8318 0.8302
1992.000000 0.8274 0.8236 0.8189 0.8139 0.8084
1987.000000 0.8004 0.7875 0.7776 0.7698 0.7627
1982.000000 0.7548 0.7470 0.7404 0.7344 0.7278
1977.000000 0.7234 0.7226 0.7211 0.7225 0.7226
1972.000000 0.7270 0.7338 0.7406 0.7498 0.7648
1967.000000 0.7704 0.7739 0.7715 0.7704 0.7696
1962.000000 0.7677 0.7654 0.7627 0.7597 0.7567
1957.000000 0.7539 0.7512 0.7509 0.7497 0.7502
1952.000000 0.7550 0.7587 0.7622 0.7648 0.7683
1947.000000 0.7718 0.7761 0.7802 0.7841 0.7878
1942.000000 0.7914 0.7948 0.7983 0.8018 0.8045
1937.000000 0.8074 0.8101 0.8130 0.8158 0.8186
1932.000000 0.8214 0.8230 0.8242 0.8249 0.8253
1927.000000 0.8253 0.8272 0.8250 0.8250 0.8241
1922.000000 0.8222 0.8182 0.8128 0.8070 0.8017
1917.000000 0.7973 0.7968 0.7981 0.7981 0.7982
1912.000000 0.8004 0.8031 0.8048 0.8054 0.8056
1907.000000 0.8066 0.8076 0.8085 0.8103 0.8132
1902.000000 0.8160 0.8188 0.8223 0.8264 0.8313
1897.000000 0.8342 0.8366 0.8391 0.8410 0.8425
1892.000000 0.8430 0.8435 0.8440 0.8454 0.8468
1887.000000 0.8481 0.8495 0.8509 0.8527 0.8542
1882.000000 0.8553 0.8563 0.8574 0.8583 0.8590
1877.000000 0.8598 0.8601 0.8615 0.8619 0.8622
1872.000000 0.8625 0.8628 0.8632 0.8635 0.8636
1867.000000 0.8636 0.8636 0.8635 0.8635 0.8634
1862.000000 0.8633 0.8631 0.8630 0.8628 0.8624
1857.000000 0.8627 0.8622 0.8618 0.8618 0.8618
1852.000000 0.8618 0.8618 0.8617 0.8617 0.8617
1847.000000 0.8617 0.8617 0.8617 0.8618 0.8619
1842.000000 0.8621 0.8623 0.8625 0.8627 0.8629
1837.000000 0.8631 0.8629 0.8623 0.8625 0.8627
1832.000000 0.8630 0.8632 0.8633 0.8635 0.8636
1827.000000 0.8638 0.8639 0.8640 0.8641 0.8643
1822.000000 0.8644 0.8645 0.8646 0.8660 0.8661
1817.000000 0.8662 0.8663 0.8664 0.8665 0.8666
1812.000000 0.8667 0.8670 0.8671 0.8668 0.8663
1807.000000 0.8665 0.8668 0.8670 0.8665 0.8662
1802.000000 0.8664 0.8667 0.8668 0.8670 0.8671
