##TITLE=Chloroform
##JCAMP-DX=4.24
##DATA TYPE=INFRARED SPECTRUM
##CLASS=COBLENTZ
##ORIGIN=DOW CHEMICAL COMPANY
##OWNER=Copyright (C) 1987 by the Coblentz Society
Collection (C) 2018 copyright by the U.S. Secretary of Commerce
on behalf of the United States of America. All rights reserved.
##DATE=1964
##NAMES=METHANE, TRICHLORO-
##CAS REGISTRY NO=67-66-3
##MOLFORM=C H Cl3
##SOURCE REFERENCE=COBLENTZ NO. 8823
##$NIST SOURCE=COBLENTZ
##$NIST IMAGE=cob8823
##SPECTROMETER/DATA SYSTEM=DOW KBr FOREPRISM-GRATING
##INSTRUMENT PARAMETERS=GRATING CHANGED AT 5.0, 7.5, 15.0 MICRON
##STATE=GAS (50 mmHg, N2 ADDED, TOTAL PRESSURE 600 mmHg)
##PATH LENGTH=5 CM
##SAMPLING PROCEDURE=TRANSMISSION
##RESOLUTION=2
##DATA PROCESSING=DIGITIZED BY COBLENTZ SOCIETY (BATCH II) FROM HARD COPY
##XUNITS=1/CM
##YUNITS=TRANSMITTANCE
##XFACTOR=1.0
##YFACTOR=1
##FIRSTX=469
##LASTX=3800
##FIRSTY=0.8168
##MAXX=3800
##MINX=469
##MAXY=0.8859
##MINY=0.0023
##NPOINTS=3332
##XYDATA=(X++(Y..Y))
469.000000 0.8168 0.8167 0.8166 0.8165 0.8164
474.000000 0.8163 0.8162 0.8161 0.8159 0.8158
479.000000 0.8157 0.8156 0.8155 0.8154 0.8151
484.000000 0.8148 0.8144 0.8141 0.8138 0.8135
489.000000 0.8132 0.8128 0.8125 0.8122 0.8119
494.000000 0.8115 0.8110 0.8105 0.8100 0.8094
499.000000 0.8089 0.8084 0.8079 0.8074 0.8069
504.000000 0.8063 0.8058 0.8054 0.8052 0.8050
509.000000 0.8048 0.8046 0.8044 0.8042 0.8040
514.000000 0.8043 0.8048 0.8053 0.8058 0.8063
519.000000 0.8067 0.8072 0.8077 0.8083 0.8089
524.000000 0.8095 0.8101 0.8108 0.8114 0.8120
529.000000 0.8126 0.8132 0.8139 0.8145 0.8151
534.000000 0.8157 0.8164 0.8170 0.8176 0.8182
539.000000 0.8189 0.8195 0.8201 0.8207 0.8214
544.000000 0.8220 0.8226 0.8232 0.8239 0.8245
549.000000 0.8249 0.8254 0.8259 0.8264 0.8268
554.000000 0.8273 0.8278 0.8283 0.8287 0.8292
559.000000 0.8297 0.8302 0.8306 0.8311 0.8316
564.000000 0.8320 0.8324 0.8328 0.8331 0.8335
569.000000 0.8339 0.8343 0.8346 0.8350 0.8354
574.000000 0.8358 0.8361 0.8365 0.8369 0.8373
579.000000 0.8376 0.8380 0.8382 0.8383 0.8385
584.000000 0.8386 0.8387 0.8388 0.8389 0.8391
589.000000 0.8392 0.8393 0.8394 0.8425 0.8397
594.000000 0.8398 0.8396 0.8395 0.8393 0.8391
599.000000 0.8389 0.8387 0.8386 0.8384 0.8382
604.000000 0.8380 0.8377 0.8371 0.8366 0.8360
609.000000 0.8355 0.8349 0.8344 0.8338 0.8333
614.000000 0.8329 0.8327 0.8325 0.8323 0.8322
619.000000 0.8320 0.8318 0.8316 0.8315 0.8313
624.000000 0.8311 0.8311 0.8312 0.8313 0.8314
629.000000 0.8314 0.8320 0.8336 0.8351 0.8369
634.000000 0.8393 0.8395 0.8397 0.8399 0.8400
639.000000 0.8399 0.8399 0.8398 0.8394 0.8389
644.000000 0.8385 0.8380 0.8373 0.8364 0.8356
649.000000 0.8347 0.8338 0.8321 0.8305 0.8289
654.000000 0.8272 0.8253 0.8233 0.8214 0.8194
659.000000 0.8169 0.8135 0.8100 0.8042 0.7976
664.000000 0.7908 0.7839 0.7770 0.7694 0.7618
669.000000 0.7542 0.7423 0.7183 0.6633 0.6093
674.000000 0.5801 0.5787 0.6174 0.6890 0.7605
679.000000 0.7918 0.7945 0.7698 0.7438 0.7178
684.000000 0.6918 0.6658 0.6550 0.6518 0.6548
689.000000 0.6599 0.6904 0.7210 0.7517 0.7823
694.000000 0.8167 0.8326 0.8453 0.8546 0.8594
699.000000 0.8643 0.8661 0.8669 0.8670 0.8671
704.000000 0.8672 0.8672 0.8680 0.8670 0.8669
709.000000 0.8664 0.8656 0.8648 0.8639 0.8630
714.000000 0.8621 0.8612 0.8601 0.8590 0.8579
719.000000 0.8568 0.8557 0.8546 0.8535 0.8523
724.000000 0.8512 0.8500 0.8489 0.8477 0.8465
729.000000 0.8450 0.8435 0.8419 0.8401 0.8368
734.000000 0.8313 0.8258 0.8195 0.8106 0.7975
739.000000 0.7803 0.7634 0.7424 0.7176 0.6581
744.000000 0.6385 0.6211 0.6033 0.5843 0.5263
749.000000 0.4679 0.4095 0.3511 0.2602 0.2085
754.000000 0.1861 0.1179 0.0598 0.0440 0.0277
759.000000 0.0145 0.0112 0.0080 0.0060 0.0049
764.000000 0.0042 0.0040 0.0039 0.0041 0.0023
769.000000 0.0043 0.0049 0.0054 0.0059 0.0064
774.000000 0.0068 0.0072 0.0076 0.0080 0.0085
779.000000 0.0092 0.0111 0.0142 0.0238 0.0341
784.000000 0.0435 0.0525 0.0916 0.1420 0.1924
789.000000 0.2428 0.2932 0.3436 0.3940 0.4771
794.000000 0.5244 0.5717 0.6190 0.6662 0.7135
799.000000 0.7608 0.8055 0.8124 0.8228 0.8329
804.000000 0.8393 0.8454 0.8486 0.8518 0.8545
809.000000 0.8562 0.8579 0.8596 0.8613 0.8629
814.000000 0.8636 0.8643 0.8650 0.8657 0.8661
819.000000 0.8665 0.8669 0.8673 0.8675 0.8678
824.000000 0.8681 0.8684 0.8687 0.8686 0.8681
829.000000 0.8676 0.8672 0.8667 0.8662 0.8657
834.000000 0.8653 0.8647 0.8641 0.8635 0.8628
839.000000 0.8622 0.8613 0.8602 0.8591 0.8581
844.000000 0.8570 0.8559 0.8549 0.8538 0.8521
849.000000 0.8500 0.8480 0.8460 0.8440 0.8420
854.000000 0.8405 0.8403 0.8429 0.8441 0.8454
859.000000 0.8466 0.8478 0.8488 0.8496 0.8505
864.000000 0.8513 0.8522 0.8530 0.8534 0.8538
869.000000 0.8541 0.8545 0.8549 0.8553 0.8557
874.000000 0.8561 0.8564 0.8566 0.8568 0.8571
879.000000 0.8573 0.8575 0.8574 0.8572 0.8571
884.000000 0.8570 0.8568 0.8567 0.8566 0.8564
889.000000 0.8563 0.8561 0.8559 0.8557 0.8555
894.000000 0.8553 0.8551 0.8550 0.8548 0.8546
899.000000 0.8540 0.8533 0.8526 0.8519 0.8512
904.000000 0.8505 0.8498 0.8491 0.8484 0.8477
909.000000 0.8470 0.8461 0.8453 0.8444 0.8436
914.000000 0.8427 0.8419 0.8410 0.8401 0.8392
919.000000 0.8383 0.8374 0.8365 0.8356 0.8347
924.000000 0.8337 0.8328 0.8319 0.8310 0.8306
929.000000 0.8303 0.8299 0.8279 0.8309 0.8324
934.000000 0.8350 0.8375 0.8401 0.8426 0.8451
939.000000 0.8471 0.8473 0.8475 0.8478 0.8482
944.000000 0.8488 0.8494 0.8504 0.8514 0.8524
949.000000 0.8534 0.8547 0.8560 0.8573 0.8585
954.000000 0.8597 0.8609 0.8621 0.8631 0.8635
959.000000 0.8639 0.8643 0.8647 0.8651 0.8653
964.000000 0.8655 0.8658 0.8660 0.8663 0.8665
969.000000 0.8668 0.8670 0.8672 0.8674 0.8675
974.000000 0.8675 0.8676 0.8677 0.8677 0.8678
979.000000 0.8678 0.8679 0.8702 0.8680 0.8681
984.000000 0.8682 0.8682 0.8682 0.8682 0.8682
989.000000 0.8682 0.8681 0.8681 0.8681 0.8680
994.000000 0.8680 0.8680 0.8679 0.8674 0.8670
999.000000 0.8666 0.8662 0.8657 0.8653 0.8649
1004.000000 0.8645 0.8640 0.8636 0.8632 0.8628
1009.000000 0.8623 0.8617 0.8609 0.8602 0.8594
1014.000000 0.8586 0.8578 0.8571 0.8563 0.8555
1019.000000 0.8544 0.8534 0.8524 0.8514 0.8504
1024.000000 0.8493 0.8485 0.8481 0.8477 0.8472
1029.000000 0.8468 0.8464 0.8459 0.8455 0.8452
1034.000000 0.8449 0.8445 0.8442 0.8438 0.8435
1039.000000 0.8438 0.8430 0.8452 0.8462 0.8473
1044.000000 0.8482 0.8488 0.8492 0.8491 0.8490
1049.000000 0.8489 0.8488 0.8487 0.8485 0.8485
1054.000000 0.8484 0.8484 0.8483 0.8483 0.8482
1059.000000 0.8482 0.8481 0.8478 0.8476 0.8474
1064.000000 0.8472 0.8470 0.8468 0.8466 0.8464
1069.000000 0.8461 0.8459 0.8458 0.8456 0.8455
1074.000000 0.8454 0.8452 0.8451 0.8450 0.8448
1079.000000 0.8457 0.8475 0.8495 0.8514 0.8527
1084.000000 0.8539 0.8552 0.8564 0.8577 0.8588
1089.000000 0.8599 0.8609 0.8619 0.8630 0.8641
1094.000000 0.8652 0.8663 0.8667 0.8672 0.8676
1099.000000 0.8680 0.8684 0.8689 0.8693 0.8694
1104.000000 0.8695 0.8696 0.8697 0.8698 0.8698
1109.000000 0.8699 0.8700 0.8701 0.8701 0.8702
1114.000000 0.8702 0.8702 0.8702 0.8703 0.8703
1119.000000 0.8703 0.8703 0.8703 0.8701 0.8700
1124.000000 0.8698 0.8696 0.8695 0.8693 0.8692
1129.000000 0.8686 0.8679 0.8673 0.8667 0.8661
1134.000000 0.8655 0.8649 0.8642 0.8636 0.8633
1139.000000 0.8631 0.8629 0.8626 0.8632 0.8648
1144.000000 0.8665 0.8685 0.8694 0.8702 0.8709
1149.000000 0.8713 0.8716 0.8717 0.8718 0.8719
1154.000000 0.8720 0.8720 0.8718 0.8716 0.8714
1159.000000 0.8713 0.8712 0.8711 0.8709 0.8708
1164.000000 0.8707 0.8706 0.8705 0.8701 0.8698
1169.000000 0.8694 0.8691 0.8687 0.8684 0.8678
1174.000000 0.8672 0.8666 0.8660 0.8654 0.8646
1179.000000 0.8638 0.8630 0.8622 0.8614 0.8605
1184.000000 0.8597 0.8589 0.8581 0.8573 0.8558
1189.000000 0.8542 0.8526 0.8505 0.8478 0.8451
1194.000000 0.8424 0.8378 0.8325 0.8272 0.8199
1199.000000 0.8111 0.7996 0.7859 0.7601 0.7426
1204.000000 0.7266 0.7012 0.6774 0.6603 0.6467
1209.000000 0.5654 0.4850 0.4047 0.3243 0.2439
1214.000000 0.1635 0.0956 0.0795 0.0392 0.0360
1219.000000 0.0393 0.0390 0.0471 0.0572 0.0684
1224.000000 0.1273 0.1862 0.2450 0.3039 0.3628
1229.000000 0.4216 0.4805 0.5394 0.5982 0.6398
1234.000000 0.6511 0.6631 0.6757 0.6887 0.7022
1239.000000 0.7159 0.7364 0.7547 0.7702 0.8036
1244.000000 0.8220 0.8281 0.8342 0.8390 0.8427
1249.000000 0.8440 0.8453 0.8466 0.8481 0.8497
1254.000000 0.8504 0.8511 0.8518 0.8523 0.8527
1259.000000 0.8531 0.8535 0.8539 0.8541 0.8542
1264.000000 0.8543 0.8544 0.8544 0.8545 0.8546
1269.000000 0.8546 0.8547 0.8547 0.8548 0.8548
1274.000000 0.8549 0.8549 0.8549 0.8549 0.8549
1279.000000 0.8548 0.8548 0.8548 0.8547 0.8547
1284.000000 0.8547 0.8547 0.8546 0.8546 0.8546
1289.000000 0.8547 0.8547 0.8547 0.8547 0.8548
1294.000000 0.8549 0.8549 0.8550 0.8551 0.8551
1299.000000 0.8552 0.8553 0.8553 0.8554 0.8555
1304.000000 0.8556 0.8556 0.8557 0.8558 0.8586
1309.000000 0.8560 0.8560 0.8561 0.8562 0.8563
1314.000000 0.8564 0.8564 0.8565 0.8566 0.8567
1319.000000 0.8567 0.8568 0.8569 0.8570 0.8571
1324.000000 0.8572 0.8573 0.8573 0.8574 0.8575
1329.000000 0.8576 0.8577 0.8577 0.8578 0.8579
1334.000000 0.8580 0.8580 0.8579 0.8578 0.8576
1339.000000 0.8574 0.8573 0.8567 0.8561 0.8555
1344.000000 0.8549 0.8543 0.8535 0.8527 0.8519
1349.000000 0.8511 0.8504 0.8496 0.8487 0.8479
1354.000000 0.8470 0.8462 0.8453 0.8446 0.8445
1359.000000 0.8444 0.8443 0.8443 0.8442 0.8441
1364.000000 0.8440 0.8439 0.8439 0.8439 0.8439
1369.000000 0.8439 0.8439 0.8439 0.8439 0.8439
1374.000000 0.8439 0.8438 0.8438 0.8437 0.8437
1379.000000 0.8436 0.8436 0.8435 0.8434 0.8432
1384.000000 0.8433 0.8435 0.8437 0.8439 0.8442
1389.000000 0.8450 0.8459 0.8467 0.8474 0.8482
1394.000000 0.8486 0.8489 0.8492 0.8495 0.8494
1399.000000 0.8492 0.8490 0.8488 0.8486 0.8484
1404.000000 0.8481 0.8479 0.8477 0.8475 0.8474
1409.000000 0.8472 0.8471 0.8469 0.8468 0.8466
1414.000000 0.8464 0.8463 0.8461 0.8460 0.8458
1419.000000 0.8457 0.8456 0.8455 0.8454 0.8452
1424.000000 0.8451 0.8450 0.8438 0.8423 0.8401
1429.000000 0.8380 0.8353 0.8323 0.8292 0.8258
1434.000000 0.8224 0.8193 0.8163 0.8133 0.8102
1439.000000 0.8076 0.8050 0.8024 0.8006 0.7996
1444.000000 0.8005 0.7991 0.8000 0.8015 0.8038
1449.000000 0.8071 0.8107 0.8155 0.8211 0.8289
1454.000000 0.8344 0.8384 0.8422 0.8434 0.8445
1459.000000 0.8448 0.8451 0.8453 0.8453 0.8453
1464.000000 0.8455 0.8456 0.8457 0.8458 0.8459
1469.000000 0.8460 0.8462 0.8465 0.8466 0.8468
1474.000000 0.8470 0.8472 0.8474 0.8476 0.8478
1479.000000 0.8480 0.8483 0.8488 0.8493 0.8498
1484.000000 0.8503 0.8507 0.8512 0.8517 0.8522
1489.000000 0.8526 0.8530 0.8535 0.8539 0.8544
1494.000000 0.8549 0.8555 0.8561 0.8567 0.8573
1499.000000 0.8579 0.8585 0.8614 0.8594 0.8597
1504.000000 0.8594 0.8586 0.8579 0.8571 0.8563
1509.000000 0.8555 0.8546 0.8537 0.8528 0.8518
1514.000000 0.8509 0.8500 0.8490 0.8478 0.8467
1519.000000 0.8455 0.8444 0.8432 0.8419 0.8406
1524.000000 0.8392 0.8379 0.8366 0.8353 0.8340
1529.000000 0.8329 0.8318 0.8308 0.8297 0.8287
1534.000000 0.8276 0.8266 0.8255 0.8245 0.8235
1539.000000 0.8228 0.8221 0.8215 0.8208 0.8201
1544.000000 0.8198 0.8198 0.8190 0.8198 0.8211
1549.000000 0.8227 0.8258 0.8298 0.8337 0.8354
1554.000000 0.8354 0.8354 0.8354 0.8356 0.8363
1559.000000 0.8371 0.8382 0.8395 0.8412 0.8432
1564.000000 0.8453 0.8475 0.8496 0.8511 0.8526
1569.000000 0.8541 0.8554 0.8566 0.8579 0.8591
1574.000000 0.8603 0.8611 0.8617 0.8624 0.8630
1579.000000 0.8636 0.8642 0.8647 0.8650 0.8653
1584.000000 0.8656 0.8660 0.8662 0.8663 0.8664
1589.000000 0.8665 0.8666 0.8666 0.8666 0.8667
1594.000000 0.8667 0.8667 0.8667 0.8667 0.8667
1599.000000 0.8667 0.8667 0.8667 0.8667 0.8667
1604.000000 0.8667 0.8666 0.8665 0.8664 0.8662
1609.000000 0.8661 0.8660 0.8659 0.8658 0.8658
1614.000000 0.8657 0.8656 0.8655 0.8654 0.8654
1619.000000 0.8653 0.8652 0.8651 0.8650 0.8650
1624.000000 0.8649 0.8649 0.8649 0.8648 0.8648
1629.000000 0.8648 0.8648 0.8647 0.8647 0.8647
1634.000000 0.8647 0.8647 0.8646 0.8646 0.8646
1639.000000 0.8645 0.8645 0.8644 0.8644 0.8643
1644.000000 0.8643 0.8642 0.8642 0.8641 0.8641
1649.000000 0.8640 0.8640 0.8639 0.8639 0.8638
1654.000000 0.8638 0.8638 0.8637 0.8637 0.8637
1659.000000 0.8636 0.8636 0.8636 0.8635 0.8635
1664.000000 0.8635 0.8634 0.8634 0.8633 0.8633
1669.000000 0.8633 0.8632 0.8630 0.8629 0.8627
1674.000000 0.8626 0.8624 0.8622 0.8621 0.8619
1679.000000 0.8617 0.8616 0.8614 0.8613 0.8611
1684.000000 0.8609 0.8608 0.8606 0.8605 0.8603
1689.000000 0.8601 0.8600 0.8597 0.8592 0.8588
1694.000000 0.8584 0.8579 0.8575 0.8570 0.8566
1699.000000 0.8562 0.8557 0.8553 0.8550 0.8546
1704.000000 0.8542 0.8539 0.8535 0.8531 0.8527
1709.000000 0.8524 0.8520 0.8516 0.8515 0.8514
1714.000000 0.8514 0.8513 0.8513 0.8513 0.8512
1719.000000 0.8512 0.8512 0.8511 0.8511 0.8511
1724.000000 0.8510 0.8510 0.8509 0.8509 0.8509
1729.000000 0.8508 0.8509 0.8511 0.8512 0.8514
1734.000000 0.8515 0.8517 0.8518 0.8520 0.8521
1739.000000 0.8523 0.8525 0.8526 0.8528 0.8530
1744.000000 0.8535 0.8539 0.8544 0.8548 0.8553
1749.000000 0.8557 0.8561 0.8563 0.8565 0.8568
1754.000000 0.8570 0.8572 0.8575 0.8577 0.8579
1759.000000 0.8580 0.8579 0.8579 0.8578 0.8578
1764.000000 0.8577 0.8577 0.8577 0.8578 0.8580
1769.000000 0.8582 0.8584 0.8585 0.8587 0.8589
1774.000000 0.8591 0.8592 0.8597 0.8603 0.8608
1779.000000 0.8614 0.8619 0.8625 0.8631 0.8634
1784.000000 0.8636 0.8639 0.8641 0.8643 0.8646
1789.000000 0.8648 0.8651 0.8653 0.8656 0.8658
1794.000000 0.8661 0.8664 0.8667 0.8669 0.8672
1799.000000 0.8675 0.8678 0.8680 0.8683 0.8686
1804.000000 0.8689 0.8691 0.8694 0.8697 0.8700
1809.000000 0.8702 0.8705 0.8708 0.8709 0.8710
1814.000000 0.8711 0.8712 0.8714 0.8715 0.8716
1819.000000 0.8717 0.8718 0.8720 0.8721 0.8722
1824.000000 0.8723 0.8724 0.8726 0.8727 0.8728
1829.000000 0.8729 0.8730 0.8731 0.8733 0.8733
1834.000000 0.8734 0.8735 0.8736 0.8737 0.8738
1839.000000 0.8739 0.8740 0.8741 0.8742 0.8743
1844.000000 0.8744 0.8745 0.8746 0.8747 0.8748
1849.000000 0.8749 0.8750 0.8751 0.8752 0.8753
1854.000000 0.8753 0.8753 0.8753 0.8753 0.8753
1859.000000 0.8753 0.8753 0.8753 0.8753 0.8753
1864.000000 0.8753 0.8753 0.8754 0.8754 0.8754
1869.000000 0.8754 0.8754 0.8754 0.8754 0.8754
1874.000000 0.8754 0.8754 0.8754 0.8754 0.8754
1879.000000 0.8754 0.8754 0.8754 0.8755 0.8755
1884.000000 0.8755 0.8755 0.8754 0.8753 0.8753
1889.000000 0.8752 0.8751 0.8750 0.8749 0.8748
1894.000000 0.8748 0.8747 0.8746 0.8745 0.8744
1899.000000 0.8743 0.8743 0.8742 0.8741 0.8740
1904.000000 0.8739 0.8739 0.8738 0.8737 0.8736
1909.000000 0.8735 0.8734 0.8734 0.8733 0.8732
1914.000000 0.8731 0.8730 0.8730 0.8729 0.8728
1919.000000 0.8727 0.8726 0.8725 0.8725 0.8724
1924.000000 0.8723 0.8722 0.8722 0.8722 0.8722
1929.000000 0.8722 0.8722 0.8721 0.8721 0.8721
1934.000000 0.8721 0.8721 0.8721 0.8720 0.8720
1939.000000 0.8720 0.8720 0.8720 0.8720 0.8720
1944.000000 0.8719 0.8719 0.8719 0.8719 0.8719
1949.000000 0.8719 0.8719 0.8718 0.8718 0.8718
1954.000000 0.8718 0.8718 0.8718 0.8717 0.8717
1959.000000 0.8717 0.8717 0.8717 0.8717 0.8718
1964.000000 0.8719 0.8720 0.8720 0.8721 0.8722
1969.000000 0.8722 0.8723 0.8724 0.8725 0.8725
1974.000000 0.8726 0.8727 0.8727 0.8728 0.8729
1979.000000 0.8729 0.8730 0.8731 0.8732 0.8732
1984.000000 0.8733 0.8734 0.8734 0.8735 0.8736
1989.000000 0.8736 0.8737 0.8738 0.8738 0.8739
1994.000000 0.8739 0.8739 0.8739 0.8739 0.8740
1999.000000 0.8740 0.8740 0.8740 0.8741 0.8741
2004.000000 0.8741 0.8741 0.8741 0.8741 0.8741
2009.000000 0.8741 0.8742 0.8742 0.8742 0.8742
2014.000000 0.8742 0.8742 0.8742 0.8742 0.8743
2019.000000 0.8743 0.8743 0.8743 0.8743 0.8743
2024.000000 0.8743 0.8743 0.8744 0.8744 0.8744
2029.000000 0.8744 0.8745 0.8745 0.8745 0.8745
2034.000000 0.8746 0.8746 0.8746 0.8746 0.8747
2039.000000 0.8747 0.8747 0.8747 0.8748 0.8748
2044.000000 0.8748 0.8748 0.8749 0.8749 0.8749
2049.000000 0.8749 0.8750 0.8750 0.8750 0.8750
2054.000000 0.8751 0.8751 0.8751 0.8751 0.8752
2059.000000 0.8752 0.8752 0.8752 0.8753 0.8753
2064.000000 0.8753 0.8753 0.8754 0.8754 0.8754
2069.000000 0.8754 0.8755 0.8755 0.8755 0.8755
2074.000000 0.8756 0.8756 0.8757 0.8757 0.8757
2079.000000 0.8757 0.8757 0.8757 0.8757 0.8757
2084.000000 0.8757 0.8757 0.8757 0.8757 0.8757
2089.000000 0.8757 0.8757 0.8757 0.8757 0.8757
2094.000000 0.8757 0.8757 0.8757 0.8757 0.8757
2099.000000 0.8757 0.8757 0.8757 0.8757 0.8757
2104.000000 0.8758 0.8758 0.8758 0.8758 0.8758
2109.000000 0.8758 0.8758 0.8758 0.8758 0.8758
2114.000000 0.8758 0.8758 0.8758 0.8758 0.8758
2119.000000 0.8758 0.8758 0.8758 0.8758 0.8758
2124.000000 0.8758 0.8758 0.8758 0.8758 0.8758
2129.000000 0.8758 0.8758 0.8758 0.8758 0.8758
2134.000000 0.8758 0.8758 0.8758 0.8758 0.8758
2139.000000 0.8758 0.8758 0.8758 0.8758 0.8758
2144.000000 0.8758 0.8757 0.8757 0.8757 0.8757
2149.000000 0.8757 0.8757 0.8757 0.8757 0.8757
2154.000000 0.8757 0.8757 0.8757 0.8757 0.8757
2159.000000 0.8757 0.8757 0.8756 0.8756 0.8756
2164.000000 0.8756 0.8756 0.8756 0.8756 0.8756
2169.000000 0.8756 0.8756 0.8755 0.8755 0.8755
2174.000000 0.8755 0.8754 0.8754 0.8754 0.8754
2179.000000 0.8753 0.8753 0.8752 0.8752 0.8752
2184.000000 0.8752 0.8751 0.8751 0.8750 0.8750
2189.000000 0.8750 0.8750 0.8749 0.8749 0.8749
2194.000000 0.8749 0.8748 0.8748 0.8747 0.8747
2199.000000 0.8747 0.8747 0.8746 0.8746 0.8745
2204.000000 0.8745 0.8745 0.8745 0.8744 0.8744
2209.000000 0.8743 0.8743 0.8743 0.8743 0.8742
2214.000000 0.8742 0.8742 0.8742 0.8742 0.8742
2219.000000 0.8742 0.8743 0.8743 0.8744 0.8744
2224.000000 0.8744 0.8744 0.8745 0.8745 0.8745
2229.000000 0.8745 0.8746 0.8746 0.8746 0.8746
2234.000000 0.8747 0.8747 0.8748 0.8748 0.8748
2239.000000 0.8748 0.8749 0.8749 0.8749 0.8749
2244.000000 0.8750 0.8750 0.8751 0.8751 0.8751
2249.000000 0.8751 0.8752 0.8752 0.8752 0.8752
2254.000000 0.8753 0.8753 0.8753 0.8753 0.8754
2259.000000 0.8754 0.8755 0.8754 0.8754 0.8754
2264.000000 0.8754 0.8754 0.8754 0.8754 0.8754
2269.000000 0.8754 0.8754 0.8754 0.8754 0.8753
2274.000000 0.8753 0.8753 0.8753 0.8753 0.8753
2279.000000 0.8753 0.8753 0.8753 0.8753 0.8753
2284.000000 0.8753 0.8752 0.8752 0.8752 0.8752
2289.000000 0.8752 0.8752 0.8752 0.8752 0.8752
2294.000000 0.8753 0.8753 0.8754 0.8754 0.8755
2299.000000 0.8756 0.8757 0.8757 0.8758 0.8758
2304.000000 0.8759 0.8760 0.8761 0.8761 0.8762
2309.000000 0.8762 0.8763 0.8764 0.8765 0.8765
2314.000000 0.8766 0.8766 0.8767 0.8767 0.8768
2319.000000 0.8768 0.8769 0.8770 0.8771 0.8771
2324.000000 0.8772 0.8772 0.8773 0.8773 0.8774
2329.000000 0.8774 0.8775 0.8775 0.8776 0.8775
2334.000000 0.8774 0.8773 0.8772 0.8770 0.8769
2339.000000 0.8768 0.8767 0.8766 0.8765 0.8764
2344.000000 0.8763 0.8762 0.8761 0.8760 0.8760
2349.000000 0.8759 0.8758 0.8757 0.8757 0.8756
2354.000000 0.8755 0.8754 0.8754 0.8756 0.8758
2359.000000 0.8761 0.8764 0.8767 0.8771 0.8775
2364.000000 0.8780 0.8784 0.8789 0.8792 0.8796
2369.000000 0.8798 0.8800 0.8800 0.8801 0.8798
2374.000000 0.8796 0.8793 0.8791 0.8788 0.8786
2379.000000 0.8783 0.8781 0.8779 0.8778 0.8776
2384.000000 0.8774 0.8772 0.8770 0.8768 0.8766
2389.000000 0.8763 0.8761 0.8758 0.8756 0.8753
2394.000000 0.8751 0.8746 0.8741 0.8736 0.8731
2399.000000 0.8726 0.8721 0.8716 0.8711 0.8704
2404.000000 0.8698 0.8691 0.8684 0.8658 0.8633
2409.000000 0.8589 0.8546 0.8503 0.8460 0.8433
2414.000000 0.8414 0.8406 0.8406 0.8423 0.8440
2419.000000 0.8486 0.8533 0.8571 0.8610 0.8613
2424.000000 0.8617 0.8621 0.8625 0.8630 0.8636
2429.000000 0.8642 0.8648 0.8652 0.8656 0.8659
2434.000000 0.8662 0.8665 0.8668 0.8671 0.8674
2439.000000 0.8676 0.8679 0.8681 0.8684 0.8686
2444.000000 0.8689 0.8692 0.8695 0.8697 0.8700
2449.000000 0.8703 0.8707 0.8710 0.8713 0.8716
2454.000000 0.8720 0.8723 0.8727 0.8730 0.8733
2459.000000 0.8736 0.8739 0.8742 0.8745 0.8748
2464.000000 0.8751 0.8754 0.8757 0.8760 0.8764
2469.000000 0.8767 0.8771 0.8774 0.8778 0.8782
2474.000000 0.8786 0.8789 0.8793 0.8797 0.8801
2479.000000 0.8804 0.8808 0.8812 0.8816 0.8820
2484.000000 0.8824 0.8825 0.8827 0.8827 0.8827
2489.000000 0.8826 0.8826 0.8826 0.8826 0.8825
2494.000000 0.8825 0.8825 0.8825 0.8824 0.8824
2499.000000 0.8823 0.8823 0.8823 0.8823 0.8822
