##TITLE=1,2-DIBROMO-1,2-DICHLORO ETHANE
##JCAMP-DX=4.24
##DATA TYPE=INFRARED SPECTRUM
##CLASS=COBLENTZ
##ORIGIN=DOW CHEMICAL COMPANY
##OWNER=COBLENTZ SOCIETY
Collection (C) 2018 copyright by the U.S. Secretary of Commerce
on behalf of the United States of America. All rights reserved.
##DATE=Not specified, most likely prior to 1970
##NAMES=1,2-dibromo-1,2-dichloroethane
##CAS REGISTRY NO=683-68-1
##MOLFORM=C2 H2 Br2 Cl2
##SOURCE REFERENCE=COBLENTZ NO. 17
##$NIST SOURCE=COBLENTZ
##$NIST IMAGE=cob17
##SPECTROMETER/DATA SYSTEM=Not specified, most likely a prism, grating, or hybrid spectrometer.
##STATE=SOLUTION (10% CCl4 FOR 2.5-7.5, 10% CS2 FOR 7.5-16 MICRONS)
##PATH LENGTH=0.01 CM, 0.01 CM
##SAMPLING PROCEDURE=TRANSMISSION
##RESOLUTION=4
##DATA PROCESSING=DIGITIZED BY NIST FROM HARD COPY
##XUNITS=MICROMETERS
##YUNITS=TRANSMITTANCE
##XFACTOR=1.000000
##YFACTOR=1
##DELTAX=000.006686
##FIRSTX=2.051
##LASTX=15.9321
##FIRSTY=0.841
##MAXX=15.9321
##MINX=2.051
##MAXY=0.905
##MINY=0.193
##NPOINTS=2077
##XYDATA=(X++(Y..Y))
2.051000 0.8410 0.8410 0.8430 0.8430 0.8430
2.084448 0.8430 0.8430 0.8440 0.8440 0.8430
2.117000 0.8430 0.8440 0.8440 0.8440 0.8440
2.150448 0.8440 0.8430 0.8430 0.8410 0.8410
2.184000 0.8390 0.8390 0.8390 0.8390 0.8380
2.217448 0.8380 0.8380 0.8360 0.8360 0.8340
2.251000 0.8340 0.8330 0.8310 0.8310 0.8310
2.284448 0.8300 0.8300 0.8280 0.8280 0.8280
2.318000 0.8280 0.8280 0.8300 0.8300 0.8300
2.351448 0.8300 0.8300 0.8300 0.8300 0.8300
2.385000 0.8310 0.8310 0.8330 0.8330 0.8340
2.418448 0.8360 0.8360 0.8360 0.8380 0.8380
2.452000 0.8410 0.8430 0.8430 0.8440 0.8440
2.485448 0.8460 0.8460 0.8480 0.8480 0.8490
2.519000 0.8490 0.8510 0.8510 0.8510 0.8510
2.552448 0.8510 0.8530 0.8530 0.8530 0.8530
2.585000 0.8530 0.8510 0.8510 0.8490 0.8490
2.618448 0.8490 0.8490 0.8490 0.8490 0.8490
2.652000 0.8490 0.8510 0.8510 0.8510 0.8510
2.685448 0.8510 0.8510 0.8510 0.8510 0.8530
2.719000 0.8540 0.8530 0.8530 0.8530 0.8540
2.752448 0.8540 0.8540 0.8540 0.8540 0.8560
2.786000 0.8560 0.8560 0.8560 0.8560 0.8560
2.819448 0.8560 0.8560 0.8560 0.8580 0.8580
2.853000 0.8580 0.8590 0.8590 0.8590 0.8580
2.886448 0.8540 0.8540 0.8540 0.8560 0.8560
2.920000 0.8560 0.8560 0.8560 0.8580 0.8580
2.953448 0.8580 0.8580 0.8590 0.8590 0.8590
2.987000 0.8610 0.8610 0.8610 0.8610 0.8590
3.020448 0.8590 0.8590 0.8590 0.8590 0.8590
3.053000 0.8580 0.8580 0.8580 0.8580 0.8580
3.086448 0.8580 0.8580 0.8560 0.8560 0.8560
3.120000 0.8560 0.8560 0.8560 0.8560 0.8560
3.153448 0.8560 0.8560 0.8560 0.8560 0.8560
3.187000 0.8560 0.8540 0.8540 0.8530 0.8530
3.220448 0.8510 0.8490 0.8480 0.8430 0.8390
3.254000 0.8340 0.8280 0.8130 0.8000 0.7820
3.287448 0.7730 0.7620 0.7500 0.7490 0.7420
3.321000 0.7400 0.7420 0.7520 0.7830 0.8180
3.354448 0.8670 0.8670 0.8670 0.8670 0.8670
3.388000 0.8660 0.8660 0.8640 0.8630 0.8610
3.421448 0.8610 0.8610 0.8610 0.8590 0.8590
3.455000 0.8610 0.8610 0.8630 0.8630 0.8630
3.488448 0.8630 0.8630 0.8630 0.8630 0.8630
3.522000 0.8630 0.8630 0.8630 0.8610 0.8610
3.555448 0.8630 0.8610 0.8610 0.8610 0.8610
3.588000 0.8610 0.8610 0.8610 0.8610 0.8610
3.621448 0.8610 0.8610 0.8610 0.8610 0.8630
3.655000 0.8630 0.8630 0.8630 0.8610 0.8610
3.688448 0.8630 0.8630 0.8630 0.8610 0.8610
3.722000 0.8610 0.8610 0.8610 0.8610 0.8610
3.755448 0.8630 0.8630 0.8630 0.8630 0.8610
3.789000 0.8610 0.8610 0.8610 0.8610 0.8610
3.822448 0.8610 0.8610 0.8610 0.8610 0.8610
3.856000 0.8630 0.8630 0.8630 0.8630 0.8630
3.889448 0.8610 0.8630 0.8630 0.8610 0.8610
3.923000 0.8590 0.8590 0.8590 0.8590 0.8590
3.956448 0.8590 0.8590 0.8590 0.8590 0.8580
3.990000 0.8590 0.8580 0.8580 0.8580 0.8580
4.023448 0.8560 0.8560 0.8560 0.8560 0.8560
4.056000 0.8560 0.8580 0.8580 0.8590 0.8590
4.089448 0.8630 0.8630 0.8630 0.8630 0.8630
4.123000 0.8610 0.8610 0.8610 0.8610 0.8610
4.156448 0.8630 0.8630 0.8610 0.8590 0.8590
4.190000 0.8590 0.8580 0.8580 0.8580 0.8560
4.223448 0.8560 0.8560 0.8560 0.8560 0.8560
4.257000 0.8560 0.8560 0.8580 0.8580 0.8580
4.290448 0.8590 0.8610 0.8630 0.8630 0.8630
4.324000 0.8630 0.8640 0.8660 0.8660 0.8660
4.357448 0.8670 0.8670 0.8670 0.8670 0.8690
4.391000 0.8690 0.8690 0.8710 0.8710 0.8710
4.424448 0.8710 0.8710 0.8720 0.8720 0.8720
4.458000 0.8720 0.8720 0.8720 0.8710 0.8710
4.491448 0.8710 0.8690 0.8690 0.8690 0.8690
4.525000 0.8690 0.8690 0.8690 0.8690 0.8710
4.558448 0.8690 0.8690 0.8690 0.8690 0.8690
4.591000 0.8710 0.8690 0.8690 0.8690 0.8690
4.624448 0.8710 0.8710 0.8710 0.8710 0.8710
4.658000 0.8710 0.8710 0.8710 0.8710 0.8710
4.691448 0.8710 0.8710 0.8710 0.8710 0.8710
4.725000 0.8690 0.8690 0.8690 0.8690 0.8690
4.758448 0.8690 0.8710 0.8710 0.8710 0.8720
4.792000 0.8710 0.8720 0.8710 0.8710 0.8710
4.825448 0.8720 0.8720 0.8720 0.8720 0.8720
4.859000 0.8720 0.8720 0.8710 0.8690 0.8690
4.892448 0.8710 0.8710 0.8720 0.8710 0.8720
4.926000 0.8720 0.8720 0.8720 0.8720 0.8720
4.959448 0.8740 0.8740 0.8740 0.8740 0.8760
4.993000 0.8760 0.8740 0.8740 0.8740 0.8740
5.026448 0.8740 0.8720 0.8720 0.8720 0.8720
5.059000 0.8720 0.8720 0.8720 0.8720 0.8710
5.092448 0.8710 0.8710 0.8710 0.8710 0.8720
5.126000 0.8720 0.8720 0.8720 0.8740 0.8740
5.159448 0.8760 0.8740 0.8740 0.8720 0.8720
5.193000 0.8720 0.8720 0.8720 0.8740 0.8740
5.226448 0.8740 0.8740 0.8740 0.8740 0.8740
5.260000 0.8740 0.8740 0.8740 0.8740 0.8740
5.293448 0.8740 0.8740 0.8760 0.8760 0.8760
5.327000 0.8760 0.8760 0.8760 0.8760 0.8760
5.360448 0.8760 0.8760 0.8760 0.8760 0.8760
5.394000 0.8760 0.8760 0.8760 0.8760 0.8760
5.427448 0.8760 0.8760 0.8760 0.8760 0.8760
5.461000 0.8760 0.8760 0.8760 0.8760 0.8760
5.494448 0.8760 0.8740 0.8760 0.8760 0.8760
5.527000 0.8760 0.8760 0.8760 0.8760 0.8760
5.560448 0.8760 0.8760 0.8760 0.8760 0.8760
5.594000 0.8760 0.8760 0.8760 0.8760 0.8760
5.627448 0.8760 0.8760 0.8760 0.8760 0.8760
5.661000 0.8760 0.8760 0.8760 0.8760 0.8760
5.694448 0.8760 0.8760 0.8770 0.8770 0.8790
5.728000 0.8770 0.8770 0.8810 0.8820 0.8820
5.761448 0.8820 0.8820 0.8820 0.8820 0.8820
5.795000 0.8820 0.8820 0.8820 0.8820 0.8820
5.828448 0.8820 0.8820 0.8820 0.8810 0.8790
5.862000 0.8790 0.8790 0.8790 0.8790 0.8790
5.895448 0.8790 0.8790 0.8790 0.8790 0.8810
5.929000 0.8790 0.8790 0.8790 0.8790 0.8790
5.962448 0.8790 0.8790 0.8790 0.8810 0.8810
5.996000 0.8810 0.8820 0.8820 0.8820 0.8820
6.029448 0.8820 0.8820 0.8820 0.8820 0.8840
6.062000 0.8840 0.8870 0.8890 0.8910 0.8910
6.095448 0.8920 0.8920 0.8960 0.8960 0.8960
6.129000 0.8970 0.8970 0.8970 0.8990 0.8990
6.162448 0.8990 0.8990 0.8990 0.8990 0.8990
6.196000 0.8990 0.9000 0.9000 0.9000 0.9000
6.229448 0.9020 0.9020 0.9020 0.9020 0.9020
6.263000 0.9020 0.9020 0.9020 0.9000 0.9020
6.296448 0.9020 0.9020 0.9020 0.9020 0.9020
6.330000 0.9020 0.9040 0.9040 0.9050 0.9040
6.363448 0.9040 0.9040 0.9020 0.9020 0.9020
6.397000 0.9020 0.9020 0.9000 0.9000 0.9000
6.430448 0.9000 0.9000 0.9000 0.9000 0.9000
6.464000 0.9000 0.9000 0.8990 0.9000 0.9000
6.497448 0.9000 0.8990 0.8990 0.8960 0.8960
6.530000 0.8940 0.8920 0.8910 0.8910 0.8890
6.563448 0.8890 0.8870 0.8890 0.8890 0.8910
6.597000 0.8910 0.8910 0.8920 0.8920 0.8940
6.630448 0.8940 0.8940 0.8940 0.8960 0.8960
6.664000 0.8960 0.8960 0.8960 0.8960 0.8970
6.697448 0.8970 0.8970 0.8970 0.8970 0.8970
6.731000 0.8970 0.8970 0.8970 0.8970 0.8970
6.764448 0.8970 0.8970 0.8970 0.8970 0.8970
6.798000 0.8970 0.8970 0.8970 0.8970 0.8970
6.831448 0.8970 0.8970 0.8970 0.8970 0.8970
6.865000 0.8970 0.8970 0.8970 0.8970 0.8960
6.898448 0.8960 0.8960 0.8960 0.8960 0.8960
6.932000 0.8960 0.8960 0.8960 0.8960 0.8960
6.965448 0.8960 0.8960 0.8960 0.8960 0.8960
6.999000 0.8960 0.8960 0.8960 0.8960 0.8970
7.032448 0.8970 0.8970 0.8970 0.8970 0.8970
7.065000 0.8970 0.8970 0.8970 0.8970 0.8970
7.098448 0.8960 0.8960 0.8940 0.8940 0.8920
7.132000 0.8920 0.8920 0.8920 0.8940 0.8940
7.165448 0.8940 0.8940 0.8940 0.8940 0.8940
7.199000 0.8940 0.8940 0.8940 0.8940 0.8940
7.232448 0.8920 0.8920 0.8920 0.8920 0.8920
7.266000 0.8920 0.8920 0.8920 0.8920 0.8920
7.299448 0.8920 0.8920 0.8920 0.8920 0.8940
7.333000 0.8940 0.8940 0.8960 0.8960 0.8960
7.366448 0.8960 0.8940 0.8920 0.8910 0.8910
7.400000 0.8910 0.8890 0.8870 0.8870 0.8870
7.433448 0.8870 0.8870 0.8870 0.8870 0.8870
7.467000 0.8910 0.8910 0.8910 0.8910 0.8860
7.500448 0.8820 0.8820 0.8810 0.8810 0.8810
7.533000 0.8810 0.8810 0.8820 0.8820 0.8840
7.566448 0.8840 0.8820 0.8820 0.8840 0.8840
7.600000 0.8840 0.8840 0.8840 0.8820 0.8820
7.633448 0.8820 0.8810 0.8790 0.8740 0.8720
7.667000 0.8720 0.8710 0.8710 0.8670 0.8660
7.700448 0.8660 0.8660 0.8670 0.8660 0.8660
7.734000 0.8660 0.8640 0.8630 0.8610 0.8580
7.767448 0.8560 0.8540 0.8390 0.8340 0.8300
7.801000 0.8180 0.8060 0.8000 0.7970 0.7880
7.834448 0.7820 0.7800 0.7730 0.7700 0.7670
7.868000 0.7590 0.7500 0.7490 0.7440 0.7420
7.901448 0.7420 0.7440 0.7490 0.7520 0.7650
7.935000 0.7720 0.7780 0.7830 0.7880 0.7900
7.968448 0.7920 0.7930 0.7980 0.8000 0.8030
8.001000 0.8130 0.8180 0.8250 0.8300 0.8310
8.034448 0.8310 0.8310 0.8310 0.8310 0.8250
8.068000 0.8230 0.8210 0.8200 0.8180 0.8130
8.101448 0.8110 0.8100 0.8100 0.8080 0.8080
8.135000 0.8080 0.8100 0.8100 0.8110 0.8150
8.168448 0.8180 0.8210 0.8250 0.8280 0.8310
8.202000 0.8310 0.8410 0.8480 0.8490 0.8490
8.235448 0.8490 0.8510 0.8510 0.8510 0.8510
8.269000 0.8510 0.8510 0.8510 0.8490 0.8480
8.302448 0.8460 0.8390 0.8380 0.8330 0.8280
8.336000 0.8210 0.8130 0.8080 0.7980 0.7820
8.369448 0.7800 0.7640 0.7450 0.7270 0.7010
8.403000 0.6930 0.6840 0.6760 0.6710 0.6650
8.436448 0.6480 0.6410 0.6320 0.6280 0.6230
8.470000 0.6230 0.6280 0.6280 0.6330 0.6480
8.503448 0.6580 0.6780 0.6790 0.6880 0.6880
8.536000 0.6780 0.6710 0.6680 0.6630 0.6480
8.569448 0.6330 0.6170 0.6000 0.5890 0.5850
8.603000 0.5820 0.5800 0.5800 0.5800 0.5820
8.636448 0.5840 0.5970 0.6020 0.6080 0.6150
8.670000 0.6220 0.6320 0.6400 0.6500 0.6610
8.703448 0.6890 0.7020 0.7190 0.7310 0.7490
8.737000 0.7620 0.7780 0.7900 0.8030 0.8160
8.770448 0.8230 0.8300 0.8390 0.8460 0.8530
8.804000 0.8610 0.8630 0.8640 0.8690 0.8710
8.837448 0.8720 0.8720 0.8720 0.8740 0.8740
8.871000 0.8760 0.8760 0.8770 0.8770 0.8770
8.904448 0.8790 0.8790 0.8810 0.8820 0.8820
8.938000 0.8840 0.8870 0.8890 0.8890 0.8910
8.971448 0.8920 0.8960 0.8990 0.8990 0.9000
9.004000 0.9000 0.9000 0.9000 0.9000 0.9000
9.037448 0.9000 0.9000 0.9000 0.9000 0.9000
9.071000 0.9000 0.9000 0.9000 0.9000 0.9000
9.104448 0.9000 0.9000 0.9000 0.9000 0.9000
9.138000 0.9000 0.9020 0.9020 0.9020 0.9040
9.171448 0.9040 0.9040 0.9020 0.9020 0.9020
9.205000 0.9020 0.9020 0.9020 0.9020 0.9020
9.238448 0.9020 0.9020 0.9020 0.9020 0.9020
9.272000 0.9020 0.9020 0.9020 0.9020 0.9020
9.305448 0.9020 0.9020 0.9020 0.9020 0.9020
9.339000 0.9040 0.9020 0.9000 0.9000 0.9000
9.372448 0.9000 0.9000 0.9000 0.9000 0.9000
9.406000 0.9000 0.9000 0.9000 0.9000 0.9000
9.439448 0.9000 0.9000 0.8990 0.8990 0.9000
9.473000 0.9000 0.8990 0.8990 0.8990 0.8990
9.506448 0.8990 0.8990 0.8990 0.8990 0.8990
9.539000 0.8990 0.8990 0.8970 0.8960 0.8940
9.572448 0.8940 0.8920 0.8920 0.8910 0.8910
9.606000 0.8910 0.8890 0.8860 0.8860 0.8840
9.639448 0.8820 0.8820 0.8810 0.8810 0.8810
9.673000 0.8790 0.8790 0.8770 0.8720 0.8710
9.706448 0.8690 0.8670 0.8630 0.8560 0.8510
9.740000 0.8480 0.8380 0.8280 0.8180 0.8100
9.773448 0.7930 0.7750 0.7570 0.7390 0.7270
9.807000 0.7140 0.7020 0.6990 0.6980 0.6930
9.840448 0.6930 0.6940 0.6990 0.6990 0.7110
9.874000 0.7270 0.7490 0.7590 0.7800 0.8000
9.907448 0.8030 0.8150 0.8200 0.8280 0.8430
9.941000 0.8490 0.8510 0.8530 0.8560 0.8610
9.974448 0.8640 0.8660 0.8710 0.8720 0.8720
10.007000 0.8740 0.8770 0.8790 0.8810 0.8810
10.040448 0.8820 0.8840 0.8840 0.8840 0.8840
10.074000 0.8840 0.8840 0.8860 0.8860 0.8860
10.107448 0.8840 0.8840 0.8840 0.8860 0.8860
10.141000 0.8860 0.8860 0.8860 0.8860 0.8870
10.174448 0.8870 0.8870 0.8890 0.8890 0.8870
10.208000 0.8870 0.8870 0.8890 0.8890 0.8890
10.241448 0.8890 0.8890 0.8890 0.8910 0.8910
10.275000 0.8890 0.8890 0.8890 0.8890 0.8910
10.308448 0.8910 0.8910 0.8910 0.8890 0.8890
10.342000 0.8890 0.8890 0.8890 0.8890 0.8890
10.375448 0.8890 0.8890 0.8870 0.8860 0.8840
10.409000 0.8820 0.8820 0.8820 0.8820 0.8820
10.442448 0.8820 0.8820 0.8820 0.8820 0.8820
10.475000 0.8820 0.8820 0.8820 0.8820 0.8820
10.508448 0.8820 0.8820 0.8820 0.8820 0.8820
10.542000 0.8820 0.8820 0.8820 0.8820 0.8820
10.575448 0.8820 0.8820 0.8820 0.8820 0.8820
10.609000 0.8840 0.8840 0.8840 0.8840 0.8820
10.642448 0.8820 0.8820 0.8810 0.8810 0.8810
10.676000 0.8790 0.8790 0.8790 0.8790 0.8790
10.709448 0.8790 0.8790 0.8790 0.8810 0.8810
10.743000 0.8820 0.8820 0.8840 0.8840 0.8840
10.776448 0.8860 0.8860 0.8860 0.8860 0.8870
10.810000 0.8870 0.8870 0.8870 0.8870 0.8910
10.843448 0.8910 0.8910 0.8910 0.8910 0.8910
10.877000 0.8910 0.8890 0.8870 0.8870 0.8870
10.910448 0.8860 0.8860 0.8860 0.8860 0.8860
10.944000 0.8860 0.8870 0.8870 0.8870 0.8870
10.977448 0.8870 0.8860 0.8860 0.8860 0.8860
11.010000 0.8860 0.8860 0.8860 0.8860 0.8870
11.043448 0.8890 0.8870 0.8870 0.8870 0.8870
11.077000 0.8870 0.8870 0.8870 0.8870 0.8870
11.110448 0.8870 0.8870 0.8870 0.8890 0.8910
11.144000 0.8910 0.8920 0.8920 0.8920 0.8940
11.177448 0.8940 0.8940 0.8940 0.8920 0.8920
11.211000 0.8920 0.8920 0.8910 0.8920 0.8910
11.244448 0.8910 0.8910 0.8910 0.8910 0.8910
11.278000 0.8910 0.8910 0.8910 0.8910 0.8890
11.311448 0.8920 0.8920 0.8920 0.8920 0.8920
11.345000 0.8920 0.8920 0.8920 0.8920 0.8920
11.378448 0.8920 0.8920 0.8920 0.8920 0.8910
11.412000 0.8910 0.8910 0.8890 0.8890 0.8890
11.445448 0.8890 0.8890 0.8870 0.8870 0.8860
11.478000 0.8860 0.8860 0.8860 0.8840 0.8840
11.511448 0.8840 0.8820 0.8820 0.8820 0.8820
11.545000 0.8820 0.8820 0.8820 0.8840 0.8840
11.578448 0.8840 0.8840 0.8840 0.8840 0.8840
11.612000 0.8840 0.8860 0.8840 0.8840 0.8840
11.645448 0.8840 0.8840 0.8840 0.8840 0.8840
11.679000 0.8840 0.8840 0.8840 0.8840 0.8870
11.712448 0.8890 0.8890 0.8890 0.8910 0.8920
11.746000 0.8920 0.8940 0.8960 0.8960 0.8970
11.779448 0.8970 0.8990 0.8990 0.8990 0.8990
11.813000 0.8990 0.8990 0.8990 0.8990 0.8970
11.846448 0.8970 0.8970 0.8970 0.8970 0.8960
11.880000 0.8970 0.8960 0.8940 0.8940 0.8920
11.913448 0.8920 0.8920 0.8910 0.8910 0.8910
11.947000 0.8890 0.8890 0.8890 0.8910 0.8910
11.980448 0.8890 0.8890 0.8870 0.8860 0.8870
12.013000 0.8870 0.8870 0.8870 0.8870 0.8870
12.046448 0.8870 0.8870 0.8870 0.8870 0.8870
12.080000 0.8870 0.8870 0.8870 0.8860 0.8840
12.113448 0.8840 0.8820 0.8820 0.8820 0.8810
12.147000 0.8810 0.8810 0.8790 0.8790 0.8790
12.180448 0.8790 0.8770 0.8770 0.8760 0.8740
12.214000 0.8720 0.8710 0.8710 0.8710 0.8710
12.247448 0.8710 0.8710 0.8710 0.8690 0.8690
12.281000 0.8690 0.8690 0.8660 0.8640 0.8630
12.314448 0.8610 0.8610 0.8590 0.8540 0.8530
12.348000 0.8510 0.8510 0.8490 0.8480 0.8460
12.381448 0.8440 0.8430 0.8340 0.8330 0.8310
12.415000 0.8280 0.8250 0.8210 0.8200 0.8150
12.448448 0.8110 0.8100 0.8000 0.7980 0.7900
12.481000 0.7870 0.7780 0.7730 0.7640 0.7520
12.514448 0.7450 0.7270 0.7170 0.6960 0.6760
12.548000 0.6550 0.6280 0.6080 0.5940 0.5700
12.581448 0.5440 0.5080 0.4960 0.4850 0.4480
12.615000 0.4250 0.4020 0.3860 0.3760 0.3690
12.648448 0.3590 0.3560 0.3510 0.3510 0.3510
12.682000 0.3510 0.3510 0.3510 0.3580 0.3710
12.715448 0.3810 0.3990 0.4120 0.4200 0.4320
12.749000 0.4420 0.4500 0.4620 0.4880 0.4980
12.782448 0.5190 0.5290 0.5410 0.5490 0.5520
12.816000 0.5520 0.5520 0.5520 0.5520 0.5520
12.849448 0.5520 0.5510 0.5420 0.5310 0.5210
12.883000 0.5160 0.5040 0.5010 0.4980 0.4830
12.916448 0.4750 0.4660 0.4600 0.4570 0.4530
12.949000 0.4530 0.4570 0.4600 0.4630 0.4680
12.982448 0.4860 0.4980 0.5180 0.5240 0.5280
13.016000 0.5490 0.5690 0.5820 0.5970 0.6000
13.049448 0.6030 0.6120 0.6130 0.6150 0.6170
13.083000 0.6170 0.6170 0.6120 0.6080 0.6000
13.116448 0.5890 0.5790 0.5590 0.5460 0.5180
13.150000 0.5080 0.4960 0.4650 0.4380 0.4150
13.183448 0.3870 0.3610 0.3440 0.3280 0.3000
13.217000 0.2720 0.2500 0.2290 0.2210 0.2070
13.250448 0.2010 0.1990 0.1960 0.1940 0.1930
13.284000 0.1940 0.1960 0.1980 0.2010 0.2040
13.317448 0.2070 0.2070 0.2090 0.2090 0.2090
13.351000 0.2090 0.2090 0.2090 0.2090 0.2090
13.384448 0.2070 0.2070 0.2060 0.2040 0.2010
13.418000 0.2010 0.2010 0.1990 0.1990 0.1990
13.451448 0.1990 0.2010 0.2010 0.2090 0.2110
13.484000 0.2320 0.2470 0.2540 0.2700 0.2800
13.517448 0.3000 0.3110 0.3300 0.3590 0.3790
13.551000 0.3990 0.4090 0.4250 0.4380 0.4470
13.584448 0.4580 0.4680 0.4760 0.4810 0.4900
13.618000 0.4910 0.4910 0.4930 0.4910 0.4900
13.651448 0.4830 0.4760 0.4680 0.4620 0.4520
13.685000 0.4420 0.4370 0.4320 0.4300 0.4290
13.718448 0.4300 0.4320 0.4320 0.4350 0.4480
13.752000 0.4500 0.4680 0.4860 0.4980 0.5280
13.785448 0.5460 0.5670 0.5800 0.5970 0.6220
13.819000 0.6410 0.6480 0.6600 0.6780 0.6960
13.852448 0.6990 0.7090 0.7210 0.7290 0.7440
13.886000 0.7470 0.7520 0.7650 0.7680 0.7730
13.919448 0.7780 0.7850 0.7930 0.7970 0.8000
13.952000 0.8010 0.8030 0.8030 0.8050 0.8110
13.985448 0.8130 0.8160 0.8200 0.8230 0.8260
14.019000 0.8300 0.8330 0.8380 0.8390 0.8430
14.052448 0.8430 0.8430 0.8430 0.8430 0.8430
14.086000 0.8430 0.8410 0.8390 0.8360 0.8340
14.119448 0.8330 0.8280 0.8200 0.8160 0.8110
14.153000 0.8080 0.8000 0.7970 0.7880 0.7830
14.186448 0.7820 0.7730 0.7670 0.7600 0.7600
14.220000 0.7590 0.7570 0.7570 0.7570 0.7570
14.253448 0.7590 0.7620 0.7640 0.7670 0.7730
14.287000 0.7780 0.7870 0.7930 0.7980 0.8000
14.320448 0.8010 0.8100 0.8150 0.8200 0.8230
14.354000 0.8280 0.8300 0.8310 0.8330 0.8330
14.387448 0.8360 0.8380 0.8390 0.8410 0.8410
14.421000 0.8410 0.8410 0.8410 0.8410 0.8430
14.454448 0.8430 0.8430 0.8430 0.8430 0.8430
14.487000 0.8430 0.8430 0.8430 0.8430 0.8430
14.520448 0.8430 0.8430 0.8430 0.8430 0.8430
14.554000 0.8430 0.8430 0.8430 0.8430 0.8410
14.587448 0.8390 0.8380 0.8360 0.8340 0.8330
14.621000 0.8310 0.8300 0.8260 0.8250 0.8230
14.654448 0.8200 0.8180 0.8150 0.8110 0.8100
14.688000 0.8030 0.8000 0.7970 0.7880 0.7850
14.721448 0.7770 0.7720 0.7640 0.7590 0.7520
14.755000 0.7470 0.7390 0.7270 0.7140 0.7020
14.788448 0.6930 0.6840 0.6760 0.6660 0.6500
14.822000 0.6280 0.6180 0.6030 0.5950 0.5770
14.855448 0.5590 0.5510 0.5370 0.5280 0.5140
14.889000 0.5080 0.5000 0.4880 0.4750 0.4650
14.922448 0.4530 0.4500 0.4420 0.4320 0.4290
14.955000 0.4250 0.4240 0.4240 0.4220 0.4220
14.988448 0.4220 0.4220 0.4240 0.4270 0.4290
15.022000 0.4330 0.4370 0.4430 0.4520 0.4580
15.055448 0.4660 0.4760 0.4850 0.4930 0.5000
15.089000 0.5190 0.5280 0.5410 0.5540 0.5660
15.122448 0.5750 0.5850 0.5950 0.6030 0.6130
15.156000 0.6250 0.6350 0.6400 0.6460 0.6480
15.189448 0.6550 0.6610 0.6740 0.6810 0.6860
15.223000 0.6930 0.6980 0.7020 0.7060 0.7120
15.256448 0.7170 0.7190 0.7240 0.7270 0.7290
15.290000 0.7320 0.7350 0.7370 0.7390 0.7490
15.323448 0.7680 0.7720 0.7750 0.7780 0.7780
15.357000 0.7780 0.7780 0.7770 0.7770 0.7750
15.390448 0.7730 0.7720 0.7720 0.7700 0.7670
15.423000 0.7650 0.7640 0.7620 0.7600 0.7550
15.456448 0.7540 0.7540 0.7500 0.7500 0.7470
15.490000 0.7440 0.7420 0.7400 0.7390 0.7350
15.523448 0.7350 0.7340 0.7340 0.7320 0.7320
15.557000 0.7310 0.7310 0.7290 0.7270 0.7270
15.590448 0.7270 0.7260 0.7260 0.7260 0.7240
15.624000 0.7220 0.7220 0.7220 0.7220 0.7220
15.657448 0.7220 0.7220 0.7220 0.7220 0.7220
15.691000 0.7220 0.7210 0.7210 0.7210 0.7210
15.724448 0.7190 0.7190 0.7190 0.7190 0.7190
15.758000 0.7190 0.7170 0.7170 0.7170 0.7170
15.791448 0.7170 0.7160 0.7160 0.7160 0.7160
15.825000 0.7140 0.7140 0.7140 0.7140 0.7120
15.858448 0.7120 0.7120 0.7120 0.7120 0.7120
15.892000 0.7120 0.7120 0.7120 0.7120 0.7120
15.925448 0.7120 0.7120
##END=
