##TITLE=1-PENTENE, 4-METHYL-
##JCAMP-DX=4.24
##DATA TYPE=INFRARED SPECTRUM
##CLASS=COBLENTZ III
##ORIGIN=DOW CORNING CORP.
##OWNER=COBLENTZ SOCIETY
Collection (C) 2018 copyright by the U.S. Secretary of Commerce
on behalf of the United States of America. All rights reserved.
##DATE=1966
##NAMES=4-methyl-1-pentene
##CAS REGISTRY NO=691-37-2
##MOLFORM=C6 H12
##SOURCE REFERENCE=COBLENTZ NO. 4268
##$NIST SOURCE=COBLENTZ
##$NIST IMAGE=cob4268
##SPECTROMETER/DATA SYSTEM=PERKIN-ELMER 521 (GRATING)
##INSTRUMENT PARAMETERS=FILTERS AT 3150, 2500, 2000, 1150, 700, 410; GRATING CHANGES AT 2000, 630 CM^-^1
##STATE=SOLUTION (10% IN CCl4 FOR 3800-1300, 10% IN CS2 FOR 1300-650, AND 10% IN CCl4 FOR 650-250 CM^-^1) VERSUS SOLVENT
##PATH LENGTH=0.011, 0.011, AND 0.010 CM (CsBr CELL)
##SAMPLING PROCEDURE=TRANSMISSION
##RESOLUTION=4
##DATA PROCESSING=DIGITIZED BY NIST FROM HARD COPY (FROM TWO SEGMENTS)
##XUNITS=1/CM
##YUNITS=TRANSMITTANCE
##XFACTOR=1.000000
##YFACTOR=1
##DELTAX=1.020410
##FIRSTX=248.98
##LASTX=3801.03
##FIRSTY=0.956
##MAXX=3801.03
##MINX=248.98
##MAXY=0.956
##MINY=0.004
##NPOINTS=3482
##XYDATA=(X++(Y..Y))
248.980000 0.9560 0.9560 0.9560 0.9560 0.9560
254.082051 0.9560 0.9560 0.9560 0.9560 0.9560
259.184103 0.9560 0.9560 0.9540 0.9540 0.9540
264.286154 0.9540 0.9540 0.9540 0.9530 0.9530
269.388205 0.9530 0.9520 0.9500 0.9500 0.9500
274.490257 0.9490 0.9490 0.9470 0.9470 0.9470
279.592308 0.9470 0.9460 0.9460 0.9460 0.9460
284.694359 0.9460 0.9460 0.9470 0.9470 0.9470
289.796411 0.9470 0.9470 0.9470 0.9470 0.9460
294.898462 0.9460 0.9450 0.9450 0.9450 0.9450
300.000513 0.9430 0.9430 0.9420 0.9420 0.9410
305.102565 0.9410 0.9390 0.9390 0.9390 0.9390
310.204616 0.9390 0.9380 0.9380 0.9380 0.9360
315.306667 0.9360 0.9360 0.9360 0.9360 0.9360
320.408719 0.9350 0.9350 0.9350 0.9350 0.9350
325.510770 0.9350 0.9340 0.9340 0.9340 0.9340
330.612821 0.9340 0.9340 0.9340 0.9340 0.9320
335.714873 0.9320 0.9320 0.9310 0.9310 0.9310
340.816924 0.9310 0.9310 0.9310 0.9310 0.9320
345.918975 0.9320 0.9320 0.9320 0.9320 0.9320
351.021027 0.9320 0.9320 0.9320 0.9320 0.9320
356.123078 0.9320 0.9320 0.9320 0.9320 0.9340
361.225129 0.9340 0.9340 0.9340 0.9340 0.9320
366.327181 0.9320 0.9320 0.9320 0.9320 0.9320
371.429232 0.9320 0.9320 0.9320 0.9320 0.9320
376.531283 0.9320 0.9320 0.9310 0.9300 0.9270
381.633335 0.9230 0.9210 0.9200 0.9200 0.9200
386.735386 0.9200 0.9200 0.9200 0.9210 0.9210
391.837437 0.9210 0.9240 0.9260 0.9270 0.9280
396.939489 0.9310 0.9310 0.9310 0.9310 0.9310
402.041540 0.9310 0.9310 0.9310 0.9310 0.9310
407.143591 0.9310 0.9310 0.9310 0.9310 0.9300
412.245643 0.9300 0.9280 0.9270 0.9240 0.9230
417.347694 0.9210 0.9200 0.9190 0.9190 0.9190
422.449745 0.9190 0.9200 0.9200 0.9210 0.9240
427.551797 0.9260 0.9280 0.9310 0.9340 0.9350
432.653848 0.9350 0.9350 0.9350 0.9340 0.9320
437.755899 0.9270 0.9230 0.9150 0.9130 0.9090
442.857951 0.9050 0.9020 0.8980 0.8950 0.8950
447.960002 0.8950 0.8970 0.8980 0.8980 0.9000
453.062053 0.9010 0.9020 0.9040 0.9050 0.9060
458.164105 0.9080 0.9100 0.9120 0.9120 0.9120
463.266156 0.9120 0.9120 0.9100 0.9100 0.9100
468.368207 0.9090 0.9090 0.9080 0.9080 0.9060
473.470259 0.9050 0.9050 0.9040 0.9020 0.9020
478.572310 0.9010 0.9010 0.9000 0.9000 0.8980
483.674362 0.8980 0.8980 0.8970 0.8970 0.8950
488.776413 0.8950 0.8940 0.8940 0.8940 0.8950
493.878464 0.8950 0.8950 0.8950 0.8950 0.8970
498.980516 0.8970 0.8970 0.8970 0.8970 0.8970
504.082567 0.8970 0.8970 0.8970 0.8970 0.8970
509.184618 0.8970 0.8970 0.8980 0.8980 0.8980
514.286670 0.8980 0.8980 0.9000 0.9000 0.9000
519.388721 0.9000 0.9000 0.9000 0.9000 0.9000
524.490772 0.9000 0.9000 0.9000 0.8980 0.8980
529.592824 0.8970 0.8970 0.8950 0.8950 0.8940
534.694875 0.8940 0.8940 0.8930 0.8930 0.8930
539.796926 0.8910 0.8910 0.8900 0.8900 0.8900
544.898978 0.8900 0.8900 0.8900 0.8910 0.8910
550.001029 0.8910 0.8930 0.8930 0.8930 0.8940
555.103080 0.8940 0.8950 0.8950 0.8950 0.8950
560.205132 0.8950 0.8950 0.8970 0.8970 0.8970
565.307183 0.8970 0.8980 0.8980 0.8980 0.8980
570.409234 0.8970 0.8970 0.8950 0.8950 0.8950
575.511286 0.8950 0.8950 0.8950 0.8940 0.8930
580.613337 0.8930 0.8910 0.8890 0.8870 0.8860
585.715388 0.8840 0.8820 0.8800 0.8730 0.8710
590.817440 0.8710 0.8690 0.8680 0.8650 0.8610
595.919491 0.8600 0.8380 0.8300 0.8270 0.8130
601.021542 0.8000 0.7870 0.7800 0.7670 0.7540
606.123594 0.7410 0.7280 0.7060 0.6760 0.6560
611.225645 0.6490 0.6450 0.6390 0.6320 0.6300
616.327696 0.6280 0.6280 0.6280 0.6300 0.6350
621.429748 0.6450 0.6490 0.6540 0.6640 0.6680
626.531799 0.6830 0.6930 0.7020 0.7170 0.7450
631.633850 0.7670 0.7760 0.7800 0.7969 0.8020
636.735902 0.8230 0.8260 0.8260 0.8270 0.8280
641.837953 0.8280 0.8300 0.8310 0.8310 0.8310
646.940004 0.8310 0.8320 0.8320 0.8320 0.8320
652.042056 0.8340 0.8340 0.8340 0.8340 0.8350
657.144107 0.8350 0.8350 0.8350 0.8360 0.8360
662.246158 0.8360 0.8360 0.8380 0.8380 0.8380
667.348210 0.8390 0.8390 0.8410 0.8410 0.8420
672.450261 0.8420 0.8430 0.8430 0.8450 0.8460
677.552312 0.8460 0.8460 0.8470 0.8470 0.8470
682.654364 0.8470 0.8470 0.8470 0.8470 0.8470
687.756415 0.8470 0.8470 0.8470 0.8470 0.8470
692.858466 0.8470 0.8460 0.8460 0.8460 0.8460
697.960518 0.8450 0.8430 0.8430 0.8430 0.8430
703.062569 0.8430 0.8420 0.8420 0.8410 0.8390
708.164620 0.8360 0.8300 0.8270 0.8260 0.8200
713.266672 0.8190 0.8160 0.8160 0.8210 0.8260
718.368723 0.8300 0.8350 0.8360 0.8390 0.8420
723.470774 0.8450 0.8460 0.8470 0.8490 0.8500
728.572826 0.8520 0.8530 0.8540 0.8540 0.8560
733.674877 0.8570 0.8580 0.8580 0.8600 0.8600
738.776928 0.8600 0.8610 0.8610 0.8610 0.8610
743.878980 0.8610 0.8610 0.8610 0.8600 0.8600
748.981031 0.8600 0.8600 0.8600 0.8580 0.8580
754.083082 0.8580 0.8580 0.8570 0.8570 0.8570
759.185134 0.8560 0.8560 0.8560 0.8540 0.8540
764.287185 0.8540 0.8530 0.8530 0.8520 0.8490
769.389236 0.8460 0.8430 0.8420 0.8410 0.8390
774.491288 0.8380 0.8360 0.8360 0.8350 0.8320
779.593339 0.8270 0.8230 0.8170 0.8160 0.8170
784.695390 0.8210 0.8260 0.8270 0.8280 0.8280
789.797442 0.8280 0.8280 0.8280 0.8270 0.8270
794.899493 0.8260 0.8260 0.8240 0.8210 0.8200
800.001544 0.8170 0.8100 0.8040 0.8000 0.7860
805.103596 0.7830 0.7760 0.7670 0.7580 0.7490
810.205647 0.7380 0.7280 0.7200 0.7170 0.7150
815.307698 0.7120 0.7090 0.7080 0.6930 0.6870
820.409750 0.6750 0.6750 0.7100 0.7520 0.7630
825.511801 0.7690 0.7720 0.7870 0.8010 0.8080
830.613852 0.8260 0.8310 0.8320 0.8340 0.8350
835.715904 0.8380 0.8390 0.8410 0.8410 0.8420
840.817955 0.8420 0.8420 0.8410 0.8390 0.8360
845.920006 0.8340 0.8310 0.8230 0.8190 0.8130
851.022058 0.8020 0.7930 0.7860 0.7800 0.7760
856.124109 0.7720 0.7670 0.7580 0.7460 0.7271
861.226160 0.7080 0.6970 0.6860 0.6640 0.6530
866.328212 0.6530 0.6560 0.6640 0.6780 0.6820
871.430263 0.6980 0.7000 0.7010 0.7020 0.7040
876.532314 0.7050 0.7050 0.7040 0.7010 0.6950
881.634366 0.6910 0.6820 0.6680 0.6580 0.6470
886.736417 0.6410 0.6320 0.6260 0.6041 0.5761
891.838468 0.5539 0.5060 0.4780 0.4640 0.4500
896.940520 0.4240 0.3392 0.3260 0.3011 0.2751
902.042571 0.2229 0.1569 0.0910 0.0710 0.0520
907.144622 0.0300 0.0270 0.0270 0.0300 0.0410
912.246674 0.0500 0.0601 0.1190 0.1580 0.2010
917.348725 0.2939 0.3239 0.3998 0.4010 0.4707
922.450776 0.5061 0.5380 0.5670 0.5970 0.6060
927.552828 0.6100 0.6429 0.6749 0.6760 0.6780
932.654879 0.6820 0.6860 0.6890 0.6940 0.6980
937.756931 0.7050 0.7120 0.7150 0.7150 0.7130
942.858982 0.7100 0.7100 0.7090 0.7060 0.7010
947.961033 0.6980 0.6910 0.6900 0.6890 0.6890
953.063085 0.6890 0.6890 0.6890 0.6890 0.6860
958.165136 0.6790 0.6680 0.6530 0.6490 0.6460
963.267187 0.6460 0.6450 0.6430 0.6420 0.6410
968.369239 0.6410 0.6390 0.6350 0.6320 0.6310
973.471290 0.6210 0.6060 0.5950 0.5830 0.5640
978.573341 0.5410 0.5040 0.4611 0.4301 0.3971
983.675393 0.3538 0.2840 0.2570 0.2300 0.1890
988.777444 0.1340 0.1200 0.1200 0.1888 0.2937
993.879495 0.3100 0.3161 0.3910 0.5130 0.5150
998.981547 0.5420 0.5689 0.6598 0.6610 0.6690
1004.083598 0.6760 0.6830 0.6870 0.6930 0.7080
1009.185649 0.7120 0.7150 0.7170 0.7170 0.7190
1014.287701 0.7190 0.7170 0.7170 0.7170 0.7150
1019.389752 0.7150 0.7130 0.7060 0.7000 0.6980
1024.491803 0.6950 0.6940 0.6820 0.6650 0.6500
1029.593855 0.6430 0.6350 0.6280 0.6270 0.6280
1034.695906 0.6300 0.6350 0.6470 0.6710 0.6890
1039.797957 0.7050 0.7100 0.7160 0.7200 0.7230
1044.900009 0.7310 0.7360 0.7420 0.7530 0.7560
1050.002060 0.7600 0.7650 0.7710 0.7710 0.7730
1055.104111 0.7760 0.7790 0.7790 0.7800 0.7820
1060.206163 0.7830 0.7840 0.7860 0.7860 0.7870
1065.308214 0.7870 0.7870 0.7890 0.7890 0.7890
1070.410265 0.7870 0.7870 0.7860 0.7860 0.7840
1075.512317 0.7840 0.7830 0.7830 0.7800 0.7780
1080.614368 0.7750 0.7710 0.7710 0.7680 0.7610
1085.716419 0.7570 0.7500 0.7450 0.7460 0.7490
1090.818471 0.7520 0.7530 0.7540 0.7570 0.7580
1095.920522 0.7600 0.7610 0.7630 0.7630 0.7630
1101.022573 0.7630 0.7610 0.7600 0.7560 0.7470
1106.124625 0.7450 0.7450 0.7470 0.7520 0.7530
1111.226676 0.7600 0.7640 0.7670 0.7680 0.7710
1116.328727 0.7730 0.7750 0.7760 0.7760 0.7760
1121.430779 0.7760 0.7760 0.7780 0.7780 0.7790
1126.532830 0.7790 0.7790 0.7790 0.7780 0.7690
1131.634881 0.7670 0.7650 0.7640 0.7630 0.7600
1136.736933 0.7580 0.7530 0.7500 0.7420 0.7360
1141.838984 0.7310 0.7260 0.7200 0.7170 0.7150
1146.941035 0.7060 0.6870 0.6790 0.6650 0.6570
1152.043087 0.6430 0.6390 0.6340 0.6160 0.5981
1157.145138 0.5900 0.5800 0.5630 0.5450 0.5450
1162.247189 0.5690 0.5760 0.5870 0.5950 0.6468
1167.349241 0.6601 0.6840 0.6950 0.7200 0.7430
1172.451292 0.7470 0.7500 0.7580 0.7650 0.7730
1177.553343 0.7820 0.7840 0.7870 0.7900 0.7910
1182.655395 0.7940 0.7950 0.7970 0.7970 0.7980
1187.757446 0.8000 0.8000 0.8000 0.8000 0.8000
1192.859497 0.8000 0.8000 0.8000 0.8000 0.8000
1197.961549 0.8000 0.7980 0.7980 0.7980 0.7970
1203.063600 0.7970 0.7950 0.7940 0.7930 0.7930
1208.165651 0.7910 0.7900 0.7890 0.7870 0.7870
1213.267703 0.7840 0.7840 0.7830 0.7800 0.7760
1218.369754 0.7730 0.7710 0.7690 0.7640 0.7570
1223.471805 0.7410 0.7360 0.7300 0.7160 0.7130
1228.573857 0.7150 0.7260 0.7390 0.7520 0.7530
1233.675908 0.7540 0.7570 0.7610 0.7630 0.7680
1238.777959 0.7690 0.7690 0.7690 0.7690 0.7690
1243.880011 0.7690 0.7690 0.7680 0.7680 0.7680
1248.982062 0.7670 0.7650 0.7610 0.7600 0.7580
1254.084113 0.7560 0.7540 0.7460 0.7410 0.7390
1259.186165 0.7320 0.7260 0.7190 0.7150 0.7120
1264.288216 0.7100 0.7100 0.7120 0.7130 0.7170
1269.390267 0.7240 0.7300 0.7310 0.7340 0.7360
1274.492319 0.7390 0.7430 0.7450 0.7490 0.7540
1279.594370 0.7580 0.7640 0.7690 0.7730 0.7790
1284.696421 0.7840 0.7890 0.7970 0.8000 0.8020
1289.798473 0.8050 0.8080 0.8100 0.8130 0.8200
1294.900524 0.8210 0.8240 0.8270 0.8270 0.8280
1300.002575 0.8300 0.8300 0.8310 0.8310 0.8310
1305.104627 0.8310 0.8310 0.8300 0.8300 0.8300
1310.206678 0.8280 0.8280 0.8240 0.8210 0.8200
1315.308729 0.8190 0.8170 0.8130 0.8040 0.7870
1320.410781 0.7800 0.7680 0.7470 0.7360 0.7240
1325.512832 0.7090 0.6940 0.6680 0.6650 0.6680
1330.614883 0.6720 0.6800 0.6910 0.7050 0.7200
1335.716935 0.7340 0.7580 0.7630 0.7710 0.7780
1340.818986 0.7840 0.7970 0.7980 0.7980 0.7950
1345.921037 0.7860 0.7750 0.7650 0.7560 0.7490
1351.023089 0.7350 0.7190 0.7009 0.6720 0.6460
1356.125140 0.6340 0.6200 0.5950 0.5690 0.5041
1361.227191 0.4378 0.3748 0.3040 0.3043 0.5150
1366.329243 0.5170 0.5560 0.6319 0.6340 0.6340
1371.431294 0.6130 0.6039 0.5690 0.5640 0.4970
1376.533346 0.4910 0.4710 0.4500 0.3203 0.3200
1381.635397 0.4911 0.5260 0.5531 0.6540 0.6560
1386.737448 0.7340 0.7350 0.7580 0.7600 0.7610
1391.839500 0.7630 0.7630 0.7610 0.7610 0.7580
1396.941551 0.7570 0.7490 0.7410 0.7340 0.7270
1402.043602 0.7200 0.7120 0.6950 0.6800 0.6650
1407.145654 0.6500 0.6430 0.6350 0.6210 0.6649
1412.247705 0.6670 0.6750 0.6830 0.6910 0.6910
1417.349756 0.6900 0.6870 0.6840 0.6820 0.6680
1422.451808 0.6530 0.6460 0.6390 0.6260 0.6200
1427.553859 0.5930 0.5630 0.5211 0.4651 0.4530
1432.655910 0.4390 0.4231 0.4640 0.4830 0.4910
1437.757962 0.5040 0.5150 0.5150 0.5130 0.5020
1442.860013 0.4910 0.4760 0.4680 0.4530 0.4360
1447.962064 0.4320 0.3890 0.3860 0.3800 0.3421
1453.064116 0.3020 0.2870 0.2720 0.2540 0.2380
1458.166167 0.2200 0.2040 0.1870 0.1860 0.1870
1463.268218 0.2101 0.2472 0.3081 0.3380 0.3681
1468.370270 0.5240 0.5690 0.6529 0.6690 0.6860
1473.472321 0.7090 0.7120 0.7280 0.7340 0.7460
1478.574372 0.7640 0.7730 0.7800 0.7830 0.7860
1483.676424 0.7940 0.7970 0.8010 0.8090 0.8130
1488.778475 0.8210 0.8320 0.8420 0.8460 0.8490
1493.880526 0.8500 0.8500 0.8520 0.8530 0.8540
1498.982578 0.8570 0.8600 0.8610 0.8630 0.8630
1504.084629 0.8650 0.8670 0.8680 0.8710 0.8730
1509.186680 0.8730 0.8750 0.8750 0.8750 0.8750
1514.288732 0.8750 0.8750 0.8750 0.8760 0.8780
1519.390783 0.8820 0.8840 0.8890 0.8900 0.8910
1524.492834 0.8930 0.8940 0.8940 0.8940 0.8940
1529.594886 0.8950 0.8950 0.8950 0.8970 0.8970
1534.696937 0.8970 0.8970 0.8980 0.8980 0.8980
1539.798988 0.8980 0.8980 0.8980 0.8980 0.8980
1544.901040 0.8980 0.8980 0.8980 0.8980 0.8980
1550.003091 0.8980 0.8980 0.8980 0.8970 0.8970
1555.105142 0.8970 0.8950 0.8950 0.8950 0.8950
1560.207194 0.8950 0.8940 0.8940 0.8940 0.8940
1565.309245 0.8930 0.8930 0.8910 0.8910 0.8910
1570.411296 0.8910 0.8900 0.8900 0.8900 0.8900
1575.513348 0.8890 0.8890 0.8890 0.8870 0.8870
1580.615399 0.8870 0.8870 0.8860 0.8860 0.8840
1585.717450 0.8840 0.8830 0.8820 0.8820 0.8800
1590.819502 0.8790 0.8760 0.8730 0.8680 0.8650
1595.921553 0.8600 0.8540 0.8500 0.8460 0.8460
1601.023604 0.8420 0.8390 0.8350 0.8340 0.8310
1606.125656 0.8270 0.8200 0.8190 0.8170 0.8160
1611.227707 0.8120 0.8090 0.8060 0.8040 0.8020
1616.329758 0.8010 0.7980 0.7900 0.7890 0.7790
1621.431810 0.7610 0.7470 0.7320 0.7270 0.7011
1626.533861 0.6789 0.6559 0.6319 0.5639 0.5090
1631.635912 0.4780 0.4460 0.3831 0.3261 0.2671
1636.737964 0.2542 0.3201 0.3842 0.5152 0.6980
1641.840015 0.7340 0.7650 0.7680 0.7830 0.7870
1646.942066 0.7950 0.8001 0.8260 0.8340 0.8350
1652.044118 0.8380 0.8410 0.8430 0.8470 0.8470
1657.146169 0.8490 0.8500 0.8500 0.8520 0.8520
1662.248220 0.8530 0.8530 0.8540 0.8540 0.8560
1667.350272 0.8560 0.8570 0.8570 0.8570 0.8570
1672.452323 0.8570 0.8570 0.8570 0.8570 0.8570
1677.554374 0.8570 0.8580 0.8580 0.8580 0.8580
1682.656426 0.8580 0.8580 0.8580 0.8580 0.8580
1687.758477 0.8580 0.8600 0.8600 0.8610 0.8610
1692.860528 0.8610 0.8610 0.8630 0.8640 0.8650
1697.962580 0.8670 0.8680 0.8690 0.8690 0.8690
1703.064631 0.8710 0.8710 0.8710 0.8720 0.8720
1708.166682 0.8720 0.8720 0.8730 0.8730 0.8730
1713.268734 0.8730 0.8750 0.8750 0.8750 0.8750
1718.370785 0.8750 0.8750 0.8750 0.8750 0.8750
1723.472836 0.8750 0.8750 0.8750 0.8750 0.8750
1728.574888 0.8750 0.8750 0.8750 0.8750 0.8750
1733.676939 0.8750 0.8750 0.8760 0.8760 0.8760
1738.778990 0.8760 0.8760 0.8760 0.8760 0.8760
1743.881042 0.8760 0.8760 0.8780 0.8780 0.8780
1748.983093 0.8780 0.8790 0.8790 0.8790 0.8790
1754.085144 0.8790 0.8790 0.8790 0.8790 0.8790
1759.187196 0.8790 0.8790 0.8790 0.8790 0.8790
1764.289247 0.8780 0.8780 0.8760 0.8760 0.8760
1769.391298 0.8750 0.8750 0.8750 0.8750 0.8750
1774.493350 0.8750 0.8750 0.8750 0.8750 0.8750
1779.595401 0.8750 0.8750 0.8750 0.8750 0.8750
1784.697452 0.8750 0.8730 0.8730 0.8730 0.8730
1789.799504 0.8730 0.8720 0.8710 0.8710 0.8710
1794.901555 0.8690 0.8680 0.8640 0.8610 0.8570
1800.003606 0.8530 0.8520 0.8500 0.8490 0.8460
1805.105658 0.8420 0.8380 0.8340 0.8270 0.8200
1810.207709 0.8170 0.8149 0.7980 0.7950 0.7890
1815.309760 0.7820 0.7720 0.7640 0.7580 0.7530
1820.411812 0.7520 0.7530 0.7540 0.7580 0.7610
1825.513863 0.7670 0.7710 0.7790 0.7970 0.8020
1830.615915 0.8200 0.8260 0.8340 0.8360 0.8420
1835.717966 0.8470 0.8520 0.8560 0.8600 0.8630
1840.820017 0.8650 0.8670 0.8690 0.8710 0.8720
1845.922069 0.8730 0.8730 0.8750 0.8760 0.8760
1851.024120 0.8760 0.8760 0.8760 0.8760 0.8760
1856.126171 0.8760 0.8760 0.8760 0.8750 0.8750
1861.228223 0.8750 0.8750 0.8760 0.8760 0.8760
1866.330274 0.8760 0.8760 0.8760 0.8760 0.8780
1871.432325 0.8780 0.8780 0.8780 0.8790 0.8790
1876.534377 0.8790 0.8790 0.8790 0.8790 0.8790
1881.636428 0.8780 0.8780 0.8780 0.8780 0.8780
1886.738479 0.8780 0.8780 0.8780 0.8780 0.8780
1891.840531 0.8780 0.8780 0.8780 0.8780 0.8780
1896.942582 0.8780 0.8790 0.8790 0.8800 0.8800
1902.044633 0.8800 0.8800 0.8800 0.8800 0.8800
1907.146685 0.8800 0.8800 0.8790 0.8790 0.8790
1912.248736 0.8790 0.8790 0.8800 0.8800 0.8820
1917.350787 0.8820 0.8820 0.8820 0.8830 0.8830
1922.452839 0.8830 0.8840 0.8840 0.8840 0.8840
1927.554890 0.8840 0.8830 0.8830 0.8830 0.8830
1932.656941 0.8830 0.8830 0.8830 0.8820 0.8820
1937.758993 0.8820 0.8820 0.8820 0.8820 0.8820
1942.861044 0.8820 0.8820 0.8820 0.8820 0.8820
1947.963095 0.8820 0.8800 0.8800 0.8800 0.8800
1953.065147 0.8800 0.8800 0.8800 0.8800 0.8800
1958.167198 0.8790 0.8790 0.8790 0.8780 0.8780
1963.269249 0.8780 0.8750 0.8750 0.8730 0.8720
1968.371301 0.8710 0.8690 0.8690 0.8690 0.8710
1973.473352 0.8710 0.8720 0.8730 0.8730 0.8750
1978.575403 0.8750 0.8760 0.8780 0.8780 0.8790
1983.677455 0.8790 0.8820 0.8830 0.8840 0.8840
1988.779506 0.8860 0.8860 0.8860 0.8840 0.8840
1993.881557 0.8860 0.8860 0.8860 0.8860 0.8860
1998.983609 0.8860 0.8870 0.8870 0.8870 0.8880
2004.085660 0.8890 0.8890 0.8890 0.8895 0.8900
2009.187711 0.8900 0.8900 0.8905 0.8910 0.8910
2014.289763 0.8910 0.8910 0.8910 0.8910 0.8910
2019.391814 0.8910 0.8910 0.8910 0.8910 0.8910
2024.493865 0.8910 0.8910 0.8910 0.8910 0.8910
2029.595917 0.8905 0.8900 0.8900 0.8900 0.8900
2034.697968 0.8900 0.8900 0.8900 0.8895 0.8890
2039.800019 0.8890 0.8890 0.8890 0.8890 0.8890
2044.902071 0.8889 0.8879 0.8870 0.8870 0.8870
2050.004122 0.8870 0.8870 0.8870 0.8870 0.8870
2055.106173 0.8870 0.8865 0.8860 0.8860 0.8860
2060.208225 0.8860 0.8860 0.8860 0.8860 0.8860
2065.310276 0.8860 0.8860 0.8860 0.8860 0.8859
2070.412327 0.8849 0.8840 0.8840 0.8840 0.8840
2075.514379 0.8840 0.8835 0.8830 0.8830 0.8830
2080.616430 0.8830 0.8829 0.8824 0.8820 0.8820
2085.718481 0.8820 0.8820 0.8819 0.8809 0.8800
2090.820533 0.8800 0.8800 0.8800 0.8799 0.8794
2095.922584 0.8790 0.8790 0.8790 0.8790 0.8790
2101.024635 0.8790 0.8790 0.8790 0.8790 0.8790
2106.126687 0.8790 0.8790 0.8790 0.8790 0.8790
2111.228738 0.8790 0.8790 0.8790 0.8790 0.8790
2116.330789 0.8790 0.8790 0.8790 0.8790 0.8790
2121.432841 0.8790 0.8790 0.8790 0.8790 0.8790
2126.534892 0.8790 0.8790 0.8790 0.8790 0.8790
2131.636943 0.8790 0.8790 0.8790 0.8790 0.8790
2136.738995 0.8790 0.8790 0.8789 0.8784 0.8780
2141.841046 0.8780 0.8780 0.8780 0.8780 0.8780
2146.943097 0.8780 0.8780 0.8780 0.8780 0.8780
2152.045149 0.8780 0.8780 0.8780 0.8780 0.8780
2157.147200 0.8780 0.8780 0.8778 0.8768 0.8760
2162.249251 0.8760 0.8760 0.8760 0.8760 0.8760
2167.351303 0.8759 0.8754 0.8750 0.8750 0.8750
2172.453354 0.8750 0.8750 0.8750 0.8750 0.8750
2177.555405 0.8750 0.8750 0.8750 0.8750 0.8748
2182.657457 0.8738 0.8730 0.8730 0.8730 0.8730
2187.759508 0.8732 0.8742 0.8750 0.8750 0.8751
2192.861559 0.8756 0.8760 0.8760 0.8760 0.8760
2197.963611 0.8762 0.8772 0.8780 0.8780 0.8780
2203.065662 0.8780 0.8780 0.8780 0.8780 0.8780
2208.167713 0.8780 0.8780 0.8780 0.8780 0.8781
2213.269765 0.8786 0.8790 0.8790 0.8790 0.8790
2218.371816 0.8790 0.8790 0.8789 0.8784 0.8780
2223.473867 0.8780 0.8777 0.8767 0.8759 0.8754
2228.575919 0.8750 0.8750 0.8750 0.8750 0.8750
2233.677970 0.8750 0.8750 0.8750 0.8747 0.8737
2238.780021 0.8730 0.8730 0.8730 0.8730 0.8733
2243.882073 0.8743 0.8750 0.8750 0.8750 0.8750
2248.984124 0.8747 0.8737 0.8730 0.8730 0.8730
2254.086175 0.8730 0.8730 0.8730 0.8730 0.8730
2259.188227 0.8730 0.8730 0.8730 0.8730 0.8730
2264.290278 0.8730 0.8730 0.8730 0.8730 0.8730
2269.392329 0.8730 0.8730 0.8730 0.8730 0.8730
2274.494381 0.8730 0.8730 0.8730 0.8730 0.8730
2279.596432 0.8730 0.8730 0.8730 0.8730 0.8733
2284.698484 0.8744 0.8750 0.8750 0.8752 0.8757
2289.800535 0.8760 0.8760 0.8760 0.8760 0.8760
2294.902586 0.8760 0.8760 0.8760 0.8760 0.8760
2300.004638 0.8760 0.8760 0.8760 0.8760 0.8760
2305.106689 0.8760 0.8758 0.8753 0.8750 0.8750
