##TITLE=1-CYCLOPENTENE, 1-METHYL
##JCAMP-DX=4.24
##DATA TYPE=INFRARED SPECTRUM
##CLASS=COBLENTZ III
##ORIGIN=DOW CORNING CORP.
##OWNER=COBLENTZ SOCIETY
Collection (C) 2018 copyright by the U.S. Secretary of Commerce
on behalf of the United States of America. All rights reserved.
##DATE=Not specified, most likely prior to 1970
##NAMES=1-methyl-1-cyclopentene
1-METHYL CYCLOPENTENE
##CAS REGISTRY NO=693-89-0
##MOLFORM=C6 H10
##SOURCE REFERENCE=COBLENTZ NO. 4271
##$NIST SOURCE=COBLENTZ
##$NIST IMAGE=cob4271
##SPECTROMETER/DATA SYSTEM=PERKIN-ELMER 521 (GRATING)
##INSTRUMENT PARAMETERS=FILTERS AT 3150, 2500, 2000, 1150, 700, 410; GRATING CHANGES AT 2000, 630 CM^-^1
##STATE=SOLUTION (10% IN CCl4 FOR 3800-1300, 10% IN CS2 FOR 1300-650, AND 10% IN CCl4 FOR 650-250 CM^-^1) VERSUS SOLVENT
##PATH LENGTH=0.011, 0.011, AND 0.020 CM (CsBr CELL)
##SAMPLING PROCEDURE=TRANSMISSION
##RESOLUTION=4
##DATA PROCESSING=DIGITIZED BY NIST FROM HARD COPY (FROM TWO SEGMENTS)
##XUNITS=1/CM
##YUNITS=TRANSMITTANCE
##XFACTOR=1.000000
##YFACTOR=1
##DELTAX=1.020410
##FIRSTX=248.98
##LASTX=3811.23
##FIRSTY=0.848
##MAXX=3811.23
##MINX=248.98
##MAXY=0.891
##MINY=0.024
##NPOINTS=3492
##XYDATA=(X++(Y..Y))
248.980000 0.8480 0.8500 0.8500 0.8510 0.8510
254.082051 0.8540 0.8550 0.8570 0.8580 0.8580
259.184103 0.8580 0.8580 0.8580 0.8570 0.8570
264.286154 0.8570 0.8580 0.8580 0.8590 0.8590
269.388205 0.8590 0.8590 0.8590 0.8590 0.8590
274.490257 0.8590 0.8590 0.8580 0.8580 0.8580
279.592308 0.8580 0.8590 0.8590 0.8590 0.8590
284.694359 0.8590 0.8590 0.8590 0.8580 0.8580
289.796411 0.8580 0.8570 0.8570 0.8570 0.8550
294.898462 0.8550 0.8540 0.8540 0.8530 0.8510
300.000513 0.8510 0.8500 0.8500 0.8480 0.8470
305.102565 0.8440 0.8430 0.8400 0.8390 0.8320
310.204616 0.8310 0.8290 0.8260 0.8200 0.8140
315.306667 0.8110 0.8070 0.8110 0.8150 0.8200
320.408719 0.8290 0.8500 0.8540 0.8580 0.8610
325.510770 0.8660 0.8660 0.8690 0.8690 0.8720
330.612821 0.8720 0.8730 0.8730 0.8730 0.8750
335.714873 0.8750 0.8750 0.8750 0.8730 0.8730
340.816924 0.8730 0.8730 0.8750 0.8750 0.8770
345.918975 0.8790 0.8790 0.8790 0.8790 0.8770
351.021027 0.8770 0.8760 0.8760 0.8760 0.8760
356.123078 0.8750 0.8750 0.8750 0.8730 0.8730
361.225129 0.8750 0.8760 0.8770 0.8770 0.8790
366.327181 0.8790 0.8790 0.8790 0.8770 0.8760
371.429232 0.8750 0.8730 0.8720 0.8720 0.8700
376.531283 0.8690 0.8650 0.8610 0.8590 0.8590
381.633335 0.8590 0.8590 0.8590 0.8610 0.8610
386.735386 0.8620 0.8650 0.8650 0.8650 0.8650
391.837437 0.8650 0.8640 0.8640 0.8620 0.8620
396.939489 0.8590 0.8580 0.8570 0.8550 0.8540
402.041540 0.8540 0.8510 0.8480 0.8470 0.8440
407.143591 0.8400 0.8260 0.8170 0.8090 0.8000
412.245643 0.7920 0.7840 0.7760 0.7450 0.7340
417.347694 0.7220 0.6901 0.6681 0.6411 0.6042
422.449745 0.5670 0.5240 0.5020 0.4790 0.4361
427.551797 0.3921 0.3701 0.3481 0.3809 0.4158
432.653848 0.4491 0.5240 0.6220 0.6550 0.6850
437.755899 0.7429 0.7480 0.7580 0.7759 0.7840
442.857951 0.8000 0.8100 0.8180 0.8240 0.8320
447.960002 0.8390 0.8420 0.8440 0.8460 0.8470
453.062053 0.8480 0.8510 0.8570 0.8590 0.8610
458.164105 0.8610 0.8620 0.8620 0.8620 0.8620
463.266156 0.8620 0.8620 0.8640 0.8640 0.8640
468.368207 0.8640 0.8650 0.8650 0.8660 0.8660
473.470259 0.8660 0.8660 0.8680 0.8680 0.8680
478.572310 0.8680 0.8700 0.8700 0.8700 0.8700
483.674362 0.8700 0.8700 0.8700 0.8690 0.8690
488.776413 0.8680 0.8660 0.8650 0.8640 0.8640
493.878464 0.8640 0.8640 0.8620 0.8620 0.8610
498.980516 0.8610 0.8610 0.8610 0.8610 0.8610
504.082567 0.8610 0.8610 0.8610 0.8610 0.8610
509.184618 0.8610 0.8610 0.8610 0.8610 0.8610
514.286670 0.8620 0.8620 0.8620 0.8610 0.8610
519.388721 0.8610 0.8610 0.8610 0.8610 0.8610
524.490772 0.8610 0.8610 0.8610 0.8610 0.8610
529.592824 0.8610 0.8590 0.8590 0.8590 0.8580
534.694875 0.8580 0.8580 0.8580 0.8580 0.8590
539.796926 0.8590 0.8590 0.8590 0.8590 0.8590
544.898978 0.8590 0.8590 0.8590 0.8590 0.8590
550.001029 0.8590 0.8590 0.8590 0.8590 0.8590
555.103080 0.8590 0.8590 0.8590 0.8590 0.8590
560.205132 0.8590 0.8590 0.8590 0.8590 0.8590
565.307183 0.8590 0.8590 0.8590 0.8590 0.8610
570.409234 0.8610 0.8610 0.8610 0.8610 0.8610
575.511286 0.8610 0.8620 0.8620 0.8620 0.8620
580.613337 0.8640 0.8640 0.8650 0.8650 0.8650
585.715388 0.8650 0.8660 0.8660 0.8660 0.8660
590.817440 0.8680 0.8680 0.8680 0.8680 0.8680
595.919491 0.8680 0.8680 0.8680 0.8680 0.8680
601.021542 0.8680 0.8680 0.8680 0.8680 0.8680
606.123594 0.8680 0.8680 0.8680 0.8680 0.8680
611.225645 0.8680 0.8660 0.8660 0.8660 0.8660
616.327696 0.8660 0.8640 0.8640 0.8620 0.8570
621.429748 0.8510 0.8470 0.8440 0.8430 0.8420
626.531799 0.8400 0.8360 0.8250 0.8200 0.8140
631.633850 0.8110 0.8060 0.8030 0.7990 0.7880
636.735902 0.7810 0.7780 0.7740 0.7730 0.7700
641.837953 0.7700 0.7690 0.7690 0.7690 0.7700
646.940004 0.7710 0.7770 0.7870 0.7920 0.7930
652.042056 0.7930 0.7950 0.7950 0.7950 0.7960
657.144107 0.7960 0.7960 0.7980 0.7990 0.8020
662.246158 0.8070 0.8100 0.8110 0.8140 0.8150
667.348210 0.8200 0.8210 0.8220 0.8220 0.8220
672.450261 0.8220 0.8240 0.8240 0.8240 0.8240
677.552312 0.8240 0.8240 0.8240 0.8240 0.8240
682.654364 0.8220 0.8220 0.8220 0.8220 0.8220
687.756415 0.8220 0.8220 0.8220 0.8210 0.8210
692.858466 0.8210 0.8210 0.8200 0.8200 0.8200
697.960518 0.8200 0.8200 0.8200 0.8200 0.8200
703.062569 0.8200 0.8200 0.8200 0.8180 0.8180
708.164620 0.8180 0.8180 0.8180 0.8180 0.8170
713.266672 0.8170 0.8170 0.8150 0.8140 0.8140
718.368723 0.8140 0.8130 0.8130 0.8130 0.8110
723.470774 0.8110 0.8100 0.8100 0.8100 0.8090
728.572826 0.8070 0.8070 0.8060 0.8040 0.8030
733.674877 0.8020 0.8000 0.8000 0.7990 0.7980
738.776928 0.7960 0.7950 0.7930 0.7910 0.7890
743.878980 0.7880 0.7870 0.7820 0.7740 0.7700
748.981031 0.7670 0.7670 0.7650 0.7630 0.7620
754.083082 0.7600 0.7590 0.7580 0.7470 0.7430
759.185134 0.7390 0.7290 0.7280 0.7220 0.7180
764.287185 0.7100 0.7010 0.6930 0.6850 0.6770
769.389236 0.6590 0.6460 0.6350 0.6250 0.6090
774.491288 0.5930 0.5710 0.5501 0.5281 0.5151
779.593339 0.5020 0.4780 0.4510 0.4380 0.4250
784.695390 0.4130 0.4030 0.4020 0.4020 0.4050
789.797442 0.4120 0.4170 0.4210 0.4230 0.4320
794.899493 0.4400 0.4460 0.4669 0.4859 0.4970
800.001544 0.5050 0.5130 0.5150 0.5160 0.5160
805.103596 0.5160 0.5160 0.5160 0.5170 0.5190
810.205647 0.5230 0.5260 0.5340 0.5380 0.5480
815.307698 0.5480 0.5600 0.5760 0.6179 0.6449
820.409750 0.6510 0.6530 0.6780 0.7060 0.7100
825.511801 0.7360 0.7540 0.7560 0.7580 0.7600
830.613852 0.7650 0.7820 0.7850 0.7870 0.7890
835.715904 0.7920 0.7950 0.7960 0.7980 0.7990
840.817955 0.8000 0.8020 0.8020 0.8020 0.8000
845.920006 0.8000 0.7990 0.7980 0.7960 0.7950
851.022058 0.7930 0.7920 0.7910 0.7890 0.7880
856.124109 0.7880 0.7870 0.7870 0.7840 0.7840
861.226160 0.7820 0.7800 0.7770 0.7740 0.7730
866.328212 0.7700 0.7690 0.7650 0.7630 0.7620
871.430263 0.7620 0.7630 0.7650 0.7690 0.7770
876.532314 0.7800 0.7810 0.7840 0.7850 0.7850
881.634366 0.7840 0.7820 0.7820 0.7800 0.7780
886.736417 0.7770 0.7760 0.7740 0.7710 0.7650
891.838468 0.7590 0.7560 0.7520 0.7500 0.7440
896.940520 0.7400 0.7340 0.7300 0.7250 0.7170
902.042571 0.7170 0.7440 0.7470 0.7500 0.7540
907.144622 0.7550 0.7560 0.7580 0.7590 0.7600
912.246674 0.7600 0.7590 0.7580 0.7580 0.7550
917.348725 0.7550 0.7540 0.7520 0.7440 0.7340
922.450776 0.7230 0.6970 0.6560 0.6440 0.6190
927.552828 0.6160 0.6190 0.6519 0.6620 0.7447
932.654879 0.7710 0.7780 0.7820 0.7910 0.7930
937.756931 0.7960 0.7980 0.8060 0.8100 0.8150
942.858982 0.8170 0.8180 0.8180 0.8180 0.8200
947.961033 0.8200 0.8210 0.8210 0.8210 0.8210
953.063085 0.8210 0.8180 0.8180 0.8170 0.8170
958.165136 0.8150 0.8150 0.8150 0.8150 0.8150
963.267187 0.8140 0.8110 0.8100 0.8090 0.8090
968.369239 0.8070 0.8070 0.8040 0.8030 0.8000
973.471290 0.7950 0.7870 0.7840 0.7810 0.7770
978.573341 0.7760 0.7700 0.7620 0.7560 0.7500
983.675393 0.7410 0.7340 0.7250 0.7100 0.6990
988.777444 0.6890 0.6620 0.6041 0.5451 0.5121
993.879495 0.4940 0.4760 0.4400 0.4050 0.3690
998.981547 0.3510 0.3330 0.3749 0.4169 0.4608
1004.083598 0.4600 0.4490 0.4380 0.4280 0.4280
1009.185649 0.4360 0.4450 0.4580 0.5088 0.5409
1014.287701 0.5720 0.5790 0.5820 0.5820 0.5790
1019.389752 0.5780 0.5760 0.5780 0.5820 0.5920
1024.491803 0.6070 0.6250 0.6530 0.6860 0.6960
1029.593855 0.6990 0.7040 0.7150 0.7280 0.7290
1034.695906 0.7320 0.7330 0.7340 0.7340 0.7340
1039.797957 0.7330 0.7330 0.7320 0.7300 0.7300
1044.900009 0.7260 0.7190 0.7170 0.7150 0.7070
1050.002060 0.7000 0.6920 0.6820 0.6730 0.6670
1055.104111 0.6590 0.6460 0.6350 0.6230 0.6190
1060.206163 0.6220 0.6270 0.6290 0.6330 0.6370
1065.308214 0.6380 0.6380 0.6400 0.6410 0.6460
1070.410265 0.6510 0.6600 0.6740 0.6780 0.6900
1075.512317 0.6930 0.7070 0.7100 0.7140 0.7260
1080.614368 0.7300 0.7440 0.7450 0.7470 0.7480
1085.716419 0.7510 0.7520 0.7540 0.7550 0.7580
1090.818471 0.7590 0.7590 0.7600 0.7600 0.7620
1095.920522 0.7630 0.7650 0.7660 0.7670 0.7690
1101.022573 0.7690 0.7700 0.7700 0.7710 0.7730
1106.124625 0.7730 0.7710 0.7690 0.7670 0.7650
1111.226676 0.7630 0.7620 0.7620 0.7600 0.7590
1116.328727 0.7560 0.7550 0.7520 0.7510 0.7480
1121.430779 0.7470 0.7450 0.7440 0.7440 0.7480
1126.532830 0.7560 0.7580 0.7580 0.7590 0.7590
1131.634881 0.7600 0.7600 0.7600 0.7600 0.7600
1136.736933 0.7600 0.7620 0.7620 0.7600 0.7580
1141.838984 0.7580 0.7580 0.7580 0.7590 0.7590
1146.941035 0.7590 0.7590 0.7600 0.7630 0.7670
1152.043087 0.7710 0.7730 0.7730 0.7740 0.7740
1157.145138 0.7760 0.7760 0.7770 0.7770 0.7780
1162.247189 0.7800 0.7800 0.7800 0.7800 0.7800
1167.349241 0.7800 0.7800 0.7800 0.7800 0.7780
1172.451292 0.7780 0.7780 0.7770 0.7770 0.7770
1177.553343 0.7740 0.7740 0.7730 0.7710 0.7700
1182.655395 0.7690 0.7670 0.7660 0.7650 0.7630
1187.757446 0.7620 0.7590 0.7580 0.7550 0.7500
1192.859497 0.7440 0.7370 0.7290 0.7260 0.7230
1197.961549 0.6989 0.6750 0.6730 0.6740 0.6850
1203.063600 0.7030 0.7080 0.7100 0.7180 0.7260
1208.165651 0.7430 0.7480 0.7510 0.7520 0.7520
1213.267703 0.7520 0.7520 0.7510 0.7500 0.7500
1218.369754 0.7510 0.7510 0.7510 0.7510 0.7510
1223.471805 0.7520 0.7520 0.7520 0.7520 0.7540
1228.573857 0.7540 0.7540 0.7540 0.7560 0.7560
1233.675908 0.7580 0.7580 0.7580 0.7580 0.7560
1238.777959 0.7540 0.7510 0.7470 0.7440 0.7430
1243.880011 0.7410 0.7390 0.7340 0.7330 0.7290
1248.982062 0.7250 0.7080 0.6810 0.6640 0.6490
1254.084113 0.6490 0.6620 0.6740 0.6860 0.6990
1259.186165 0.7081 0.7430 0.7440 0.7440 0.7450
1264.288216 0.7450 0.7440 0.7430 0.7410 0.7400
1269.390267 0.7370 0.7330 0.7300 0.7290 0.7250
1274.492319 0.7220 0.7190 0.7170 0.7140 0.7110
1279.594370 0.7040 0.7010 0.6950 0.6810 0.6670
1284.696421 0.6590 0.6490 0.6340 0.6190 0.6030
1289.798473 0.5609 0.5300 0.5300 0.5570 0.5590
1294.900524 0.6140 0.6310 0.6510 0.6680 0.7917
1300.002575 0.7930 0.8020 0.8090 0.8100 0.8100
1305.104627 0.8130 0.8130 0.8130 0.8130 0.8110
1310.206678 0.8110 0.8100 0.8070 0.8060 0.8040
1315.308729 0.8020 0.7980 0.7930 0.7840 0.7780
1320.410781 0.7760 0.7620 0.7450 0.7340 0.7220
1325.512832 0.6950 0.6890 0.6441 0.6270 0.6090
1330.614883 0.6851 0.7041 0.7430 0.7700 0.7950
1335.716935 0.8020 0.8100 0.8130 0.8150 0.8200
1340.818986 0.8240 0.8250 0.8260 0.8280 0.8280
1345.921037 0.8290 0.8290 0.8290 0.8280 0.8280
1351.023089 0.8280 0.8260 0.8260 0.8250 0.8250
1356.125140 0.8250 0.8250 0.8240 0.8210 0.8200
1361.227191 0.8180 0.8110 0.8070 0.7980 0.7950
1366.329243 0.7880 0.7770 0.7660 0.7550 0.6971
1371.431294 0.6379 0.5869 0.5369 0.4900 0.4430
1376.533346 0.5459 0.6968 0.6990 0.7190 0.7599
1381.635397 0.7890 0.7930 0.7950 0.8000 0.8070
1386.737448 0.8090 0.8100 0.8110 0.8140 0.8140
1391.839500 0.8140 0.8130 0.8130 0.8110 0.8100
1396.941551 0.8070 0.8040 0.8020 0.7990 0.7980
1402.043602 0.7960 0.7950 0.7920 0.7880 0.7850
1407.145654 0.7840 0.7780 0.7760 0.7700 0.7600
1412.247705 0.7580 0.7510 0.7430 0.7410 0.7400
1417.349756 0.7330 0.7260 0.7000 0.6840 0.6621
1422.451808 0.6350 0.6220 0.6080 0.5790 0.5630
1427.553859 0.5050 0.4690 0.4320 0.4170 0.4020
1432.655910 0.3880 0.3730 0.3650 0.3550 0.3360
1437.757962 0.3170 0.2880 0.2820 0.2481 0.2141
1442.860013 0.1740 0.1730 0.1740 0.1860 0.1990
1447.962064 0.2340 0.3649 0.3660 0.4129 0.5168
1453.064116 0.5350 0.5370 0.5560 0.5720 0.5810
1458.166167 0.5940 0.6030 0.6070 0.6080 0.6090
1463.268218 0.6160 0.6220 0.6310 0.6370 0.6700
1468.370270 0.6770 0.6920 0.7100 0.7430 0.7450
1473.472321 0.7480 0.7500 0.7560 0.7650 0.7710
1478.574372 0.7780 0.7840 0.7930 0.7950 0.7960
1483.676424 0.7990 0.8020 0.8040 0.8060 0.8070
1488.778475 0.8110 0.8130 0.8140 0.8140 0.8170
1493.880526 0.8180 0.8210 0.8220 0.8240 0.8260
1498.982578 0.8290 0.8320 0.8320 0.8330 0.8330
1504.084629 0.8350 0.8390 0.8420 0.8440 0.8470
1509.186680 0.8480 0.8510 0.8510 0.8530 0.8530
1514.288732 0.8540 0.8540 0.8570 0.8570 0.8550
1519.390783 0.8510 0.8500 0.8480 0.8480 0.8480
1524.492834 0.8480 0.8470 0.8470 0.8470 0.8470
1529.594886 0.8460 0.8460 0.8440 0.8420 0.8390
1534.696937 0.8360 0.8350 0.8330 0.8330 0.8330
1539.798988 0.8320 0.8320 0.8320 0.8320 0.8320
1544.901040 0.8320 0.8320 0.8320 0.8320 0.8320
1550.003091 0.8320 0.8320 0.8320 0.8320 0.8320
1555.105142 0.8320 0.8310 0.8310 0.8310 0.8310
1560.207194 0.8310 0.8310 0.8310 0.8310 0.8310
1565.309245 0.8310 0.8310 0.8310 0.8310 0.8310
1570.411296 0.8310 0.8290 0.8290 0.8290 0.8280
1575.513348 0.8280 0.8280 0.8280 0.8280 0.8280
1580.615399 0.8280 0.8290 0.8290 0.8290 0.8310
1585.717450 0.8310 0.8310 0.8320 0.8320 0.8320
1590.819502 0.8320 0.8320 0.8320 0.8310 0.8310
1595.921553 0.8310 0.8290 0.8290 0.8290 0.8290
1601.023604 0.8290 0.8290 0.8310 0.8310 0.8320
1606.125656 0.8320 0.8320 0.8310 0.8310 0.8310
1611.227707 0.8290 0.8290 0.8290 0.8290 0.8280
1616.329758 0.8260 0.8260 0.8250 0.8250 0.8250
1621.431810 0.8250 0.8250 0.8250 0.8250 0.8250
1626.533861 0.8240 0.8240 0.8240 0.8240 0.8240
1631.635912 0.8240 0.8240 0.8240 0.8220 0.8220
1636.737964 0.8210 0.8210 0.8170 0.8140 0.8060
1641.840015 0.8000 0.7950 0.7890 0.7820 0.7760
1646.942066 0.7669 0.7500 0.7299 0.6839 0.6300
1652.044118 0.6300 0.6520 0.6530 0.6710 0.6890
1657.146169 0.7061 0.7442 0.8110 0.8130 0.8140
1662.248220 0.8180 0.8220 0.8320 0.8330 0.8350
1667.350272 0.8350 0.8370 0.8390 0.8430 0.8480
1672.452323 0.8510 0.8530 0.8540 0.8540 0.8550
1677.554374 0.8550 0.8570 0.8570 0.8570 0.8580
1682.656426 0.8580 0.8580 0.8580 0.8590 0.8590
1687.758477 0.8590 0.8590 0.8610 0.8610 0.8610
1692.860528 0.8610 0.8620 0.8620 0.8620 0.8620
1697.962580 0.8620 0.8620 0.8620 0.8620 0.8620
1703.064631 0.8620 0.8620 0.8620 0.8620 0.8620
1708.166682 0.8620 0.8640 0.8640 0.8640 0.8650
1713.268734 0.8650 0.8650 0.8660 0.8660 0.8680
1718.370785 0.8680 0.8680 0.8680 0.8680 0.8680
1723.472836 0.8680 0.8680 0.8690 0.8690 0.8690
1728.574888 0.8690 0.8690 0.8690 0.8690 0.8690
1733.676939 0.8690 0.8690 0.8690 0.8690 0.8690
1738.778990 0.8690 0.8690 0.8690 0.8690 0.8690
1743.881042 0.8690 0.8690 0.8690 0.8690 0.8690
1748.983093 0.8690 0.8690 0.8690 0.8690 0.8690
1754.085144 0.8690 0.8690 0.8690 0.8690 0.8690
1759.187196 0.8690 0.8690 0.8690 0.8690 0.8690
1764.289247 0.8680 0.8680 0.8660 0.8660 0.8660
1769.391298 0.8650 0.8640 0.8620 0.8620 0.8620
1774.493350 0.8620 0.8620 0.8640 0.8640 0.8640
1779.595401 0.8650 0.8680 0.8690 0.8700 0.8700
1784.697452 0.8700 0.8700 0.8690 0.8680 0.8660
1789.799504 0.8650 0.8640 0.8640 0.8640 0.8620
1794.901555 0.8620 0.8620 0.8620 0.8620 0.8620
1800.003606 0.8620 0.8620 0.8620 0.8610 0.8610
1805.105658 0.8610 0.8610 0.8610 0.8620 0.8640
1810.207709 0.8650 0.8650 0.8660 0.8660 0.8650
1815.309760 0.8650 0.8650 0.8650 0.8650 0.8650
1820.411812 0.8650 0.8650 0.8650 0.8660 0.8660
1825.513863 0.8660 0.8680 0.8680 0.8680 0.8680
1830.615915 0.8660 0.8660 0.8660 0.8660 0.8660
1835.717966 0.8690 0.8690 0.8690 0.8700 0.8700
1840.820017 0.8700 0.8700 0.8700 0.8690 0.8690
1845.922069 0.8690 0.8690 0.8680 0.8680 0.8680
1851.024120 0.8660 0.8660 0.8660 0.8660 0.8650
1856.126171 0.8650 0.8650 0.8650 0.8650 0.8650
1861.228223 0.8650 0.8650 0.8650 0.8650 0.8650
1866.330274 0.8650 0.8650 0.8650 0.8660 0.8660
1871.432325 0.8660 0.8660 0.8660 0.8660 0.8680
1876.534377 0.8680 0.8680 0.8680 0.8680 0.8680
1881.636428 0.8690 0.8690 0.8700 0.8700 0.8700
1886.738479 0.8690 0.8690 0.8690 0.8690 0.8690
1891.840531 0.8690 0.8680 0.8680 0.8680 0.8680
1896.942582 0.8680 0.8680 0.8680 0.8680 0.8690
1902.044633 0.8690 0.8690 0.8690 0.8690 0.8700
1907.146685 0.8700 0.8700 0.8700 0.8700 0.8700
1912.248736 0.8700 0.8700 0.8700 0.8700 0.8700
1917.350787 0.8700 0.8700 0.8700 0.8700 0.8700
1922.452839 0.8700 0.8700 0.8700 0.8700 0.8700
1927.554890 0.8700 0.8700 0.8700 0.8700 0.8700
1932.656941 0.8700 0.8720 0.8720 0.8720 0.8720
1937.758993 0.8720 0.8700 0.8700 0.8700 0.8700
1942.861044 0.8700 0.8700 0.8700 0.8700 0.8690
1947.963095 0.8690 0.8690 0.8690 0.8680 0.8680
1953.065147 0.8680 0.8680 0.8680 0.8690 0.8690
1958.167198 0.8690 0.8700 0.8700 0.8700 0.8720
1963.269249 0.8720 0.8720 0.8720 0.8720 0.8720
1968.371301 0.8720 0.8720 0.8720 0.8720 0.8720
1973.473352 0.8720 0.8720 0.8720 0.8720 0.8700
1978.575403 0.8700 0.8700 0.8700 0.8700 0.8700
1983.677455 0.8690 0.8690 0.8690 0.8690 0.8680
1988.779506 0.8680 0.8680 0.8680 0.8680 0.8680
1993.881557 0.8690 0.8690 0.8700 0.8700 0.8720
1998.983609 0.8720 0.8720 0.8725 0.8730 0.8730
2004.085660 0.8730 0.8730 0.8730 0.8730 0.8730
2009.187711 0.8730 0.8730 0.8730 0.8730 0.8730
2014.289763 0.8730 0.8730 0.8730 0.8740 0.8750
2019.391814 0.8750 0.8750 0.8750 0.8750 0.8750
2024.493865 0.8750 0.8750 0.8750 0.8750 0.8750
2029.595917 0.8750 0.8750 0.8750 0.8750 0.8750
2034.697968 0.8750 0.8750 0.8750 0.8750 0.8750
2039.800019 0.8750 0.8750 0.8750 0.8749 0.8739
2044.902071 0.8730 0.8730 0.8730 0.8730 0.8730
2050.004122 0.8725 0.8720 0.8720 0.8720 0.8720
2055.106173 0.8720 0.8720 0.8720 0.8720 0.8720
2060.208225 0.8720 0.8720 0.8720 0.8720 0.8720
2065.310276 0.8720 0.8720 0.8720 0.8720 0.8720
2070.412327 0.8720 0.8720 0.8720 0.8720 0.8720
2075.514379 0.8720 0.8720 0.8720 0.8720 0.8719
2080.616430 0.8709 0.8700 0.8700 0.8700 0.8700
2085.718481 0.8700 0.8700 0.8700 0.8700 0.8700
2090.820533 0.8700 0.8700 0.8700 0.8700 0.8700
2095.922584 0.8700 0.8700 0.8700 0.8700 0.8700
2101.024635 0.8700 0.8700 0.8700 0.8699 0.8694
2106.126687 0.8690 0.8690 0.8690 0.8690 0.8690
2111.228738 0.8690 0.8690 0.8690 0.8690 0.8690
2116.330789 0.8690 0.8690 0.8690 0.8690 0.8690
2121.432841 0.8690 0.8690 0.8690 0.8690 0.8690
2126.534892 0.8689 0.8684 0.8680 0.8680 0.8680
2131.636943 0.8680 0.8680 0.8680 0.8678 0.8668
2136.738995 0.8660 0.8660 0.8660 0.8660 0.8660
2141.841046 0.8660 0.8660 0.8660 0.8660 0.8660
2146.943097 0.8660 0.8660 0.8662 0.8672 0.8680
2152.045149 0.8680 0.8680 0.8680 0.8680 0.8680
2157.147200 0.8680 0.8680 0.8680 0.8680 0.8680
2162.249251 0.8680 0.8680 0.8680 0.8680 0.8680
2167.351303 0.8680 0.8680 0.8678 0.8668 0.8660
2172.453354 0.8660 0.8660 0.8660 0.8660 0.8660
2177.555405 0.8660 0.8660 0.8662 0.8672 0.8680
2182.657457 0.8680 0.8680 0.8680 0.8681 0.8686
2187.759508 0.8690 0.8690 0.8690 0.8690 0.8690
2192.861559 0.8690 0.8690 0.8690 0.8690 0.8690
2197.963611 0.8690 0.8690 0.8690 0.8690 0.8690
2203.065662 0.8690 0.8690 0.8690 0.8690 0.8690
2208.167713 0.8690 0.8690 0.8690 0.8690 0.8690
2213.269765 0.8690 0.8690 0.8690 0.8690 0.8690
2218.371816 0.8690 0.8690 0.8690 0.8690 0.8690
2223.473867 0.8690 0.8689 0.8684 0.8680 0.8680
2228.575919 0.8680 0.8680 0.8680 0.8680 0.8680
2233.677970 0.8680 0.8680 0.8680 0.8680 0.8680
2238.780021 0.8680 0.8680 0.8680 0.8680 0.8680
2243.882073 0.8680 0.8680 0.8680 0.8680 0.8680
2248.984124 0.8680 0.8680 0.8680 0.8680 0.8680
2254.086175 0.8680 0.8680 0.8680 0.8680 0.8680
2259.188227 0.8680 0.8680 0.8680 0.8680 0.8680
2264.290278 0.8680 0.8680 0.8680 0.8680 0.8680
2269.392329 0.8680 0.8680 0.8680 0.8680 0.8680
2274.494381 0.8680 0.8680 0.8680 0.8680 0.8680
2279.596432 0.8680 0.8680 0.8680 0.8680 0.8680
2284.698484 0.8680 0.8680 0.8680 0.8676 0.8666
2289.800535 0.8660 0.8660 0.8660 0.8660 0.8660
2294.902586 0.8660 0.8660 0.8660 0.8660 0.8660
2300.004638 0.8660 0.8660 0.8660 0.8660 0.8660
