##TITLE=PYRIDINE, 1,2,5,6-TETRAHYDRO-
##JCAMP-DX=4.24
##DATA TYPE=INFRARED SPECTRUM
##CLASS=COBLENTZ III
##ORIGIN=WESTERN REGIONAL RES. USDA
##OWNER=COBLENTZ SOCIETY
Collection (C) 2018 copyright by the U.S. Secretary of Commerce
on behalf of the United States of America. All rights reserved.
##DATE=1967/06/13
##NAMES=1,2,3,6-tetrahydropyridine
##CAS REGISTRY NO=694-05-3
##MOLFORM=C5 H9 N
##SOURCE REFERENCE=COBLENTZ NO. 10427
##$NIST SOURCE=COBLENTZ
##$NIST IMAGE=cob10427
##SPECTROMETER/DATA SYSTEM=CARY 90 (GRATING)
##INSTRUMENT PARAMETERS=GRATING CHANGES AT 3000, 2000, 1200 CM^-^1
##STATE=LIQUID (NEAT)
##PATH LENGTH=0.0025 CM
$$ SEE SPECTRUM NO. 7073 FOR THIN RUN
##SAMPLING PROCEDURE=TRANSMISSION
##RESOLUTION=4
##DATA PROCESSING=DIGITIZED BY NIST FROM HARD COPY (FROM TWO SEGMENTS)
##XUNITS=1/CM
##YUNITS=TRANSMITTANCE
##XFACTOR=1.000000
##YFACTOR=1
##DELTAX=0.906005
##FIRSTX=479.728
##LASTX=3982.34
##FIRSTY=0.261
##MAXX=3982.34
##MINX=479.728
##MAXY=0.908
##MINY=0
##NPOINTS=3867
##XYDATA=(X++(Y..Y))
479.728000 0.2610 0.2630 0.2610 0.2630 0.2670
484.258025 0.2690 0.2720 0.2740 0.2770 0.2929
488.788050 0.3270 0.3280 0.3360 0.3420 0.3600
493.318075 0.3889 0.4189 0.4220 0.4320 0.4499
497.848099 0.4590 0.4660 0.5090 0.5140 0.5360
502.378124 0.5400 0.5420 0.5619 0.5630 0.5700
506.908149 0.5770 0.5840 0.5910 0.5940 0.5970
511.438174 0.6000 0.6010 0.6010 0.5990 0.5950
515.968199 0.5820 0.5350 0.5300 0.5230 0.5150
520.498224 0.5080 0.5030 0.5020 0.5020 0.5030
525.028249 0.5130 0.5230 0.5350 0.5500 0.5630
529.558273 0.5780 0.5969 0.6109 0.6329 0.6380
534.088298 0.6430 0.6450 0.6470 0.6510 0.6530
538.618323 0.6540 0.6550 0.6570 0.6590 0.6600
543.148348 0.6610 0.6610 0.6620 0.6620 0.6630
547.678373 0.6630 0.6630 0.6630 0.6630 0.6630
552.208398 0.6630 0.6630 0.6630 0.6630 0.6630
556.738422 0.6630 0.6630 0.6630 0.6620 0.6620
561.268447 0.6620 0.6620 0.6620 0.6620 0.6620
565.798472 0.6610 0.6610 0.6600 0.6600 0.6590
570.328497 0.6590 0.6570 0.6570 0.6560 0.6550
574.858522 0.6550 0.6540 0.6540 0.6530 0.6530
579.388547 0.6520 0.6520 0.6510 0.6480 0.6470
583.918572 0.6460 0.6440 0.6430 0.6420 0.6400
588.448596 0.6400 0.6390 0.6370 0.6350 0.6330
592.978621 0.6310 0.6290 0.6270 0.6250 0.6240
597.508646 0.6210 0.6190 0.6170 0.6140 0.6120
602.038671 0.6100 0.6070 0.6030 0.6010 0.5970
606.568696 0.5930 0.5760 0.5660 0.5660 0.5690
611.098721 0.5820 0.5840 0.5850 0.5840 0.5760
615.628746 0.5700 0.5650 0.5600 0.5570 0.5520
620.158770 0.5480 0.5370 0.5360 0.5261 0.5151
624.688795 0.5060 0.4960 0.4800 0.4600 0.4460
629.218820 0.4310 0.4021 0.3592 0.3102 0.1658
633.748845 0.1290 0.0700 0.0201 0.0150 0.0100
638.278870 0.0070 0.0040 0.0020 0.0000 0.0000
642.808895 0.0000 0.0010 0.0010 0.0020 0.0030
647.338919 0.0060 0.0090 0.0150 0.0210 0.0290
651.868944 0.0380 0.0490 0.0610 0.0720 0.0900
656.398969 0.1089 0.1299 0.1589 0.1749 0.1830
660.928994 0.1910 0.2070 0.2380 0.2630 0.2770
665.459019 0.2939 0.3060 0.3199 0.3220 0.3290
669.989044 0.3520 0.3650 0.3780 0.3860 0.3900
674.519069 0.3910 0.3920 0.3950 0.4000 0.4040
679.049093 0.4050 0.4060 0.4060 0.4050 0.4040
683.579118 0.4030 0.4000 0.3880 0.3810 0.3740
688.109143 0.3560 0.3520 0.3380 0.3220 0.3110
692.639168 0.3020 0.2751 0.2581 0.2480 0.2311
697.169193 0.2190 0.2090 0.2040 0.1780 0.1580
701.699218 0.1490 0.1470 0.1460 0.1440 0.1440
706.229243 0.1460 0.1460 0.1480 0.1490 0.1510
710.759267 0.1550 0.1580 0.1600 0.1640 0.1650
715.289292 0.1680 0.1710 0.1720 0.1730 0.1740
719.819317 0.1750 0.1750 0.1740 0.1730 0.1720
724.349342 0.1690 0.1600 0.1550 0.1520 0.1490
728.879367 0.1440 0.1350 0.1270 0.1210 0.1140
733.409392 0.1070 0.1030 0.0980 0.0930 0.0900
737.939417 0.0880 0.0860 0.0840 0.0830 0.0840
742.469441 0.0870 0.0890 0.0950 0.0980 0.1030
746.999466 0.1080 0.1130 0.1160 0.1289 0.1370
751.529491 0.1460 0.1540 0.1640 0.1750 0.1820
756.059516 0.1870 0.2000 0.2159 0.2319 0.2499
760.589541 0.2590 0.2720 0.2750 0.2710 0.2690
765.119566 0.2540 0.2440 0.2251 0.2041 0.1751
769.649590 0.1590 0.1470 0.1340 0.1250 0.1150
774.179615 0.1100 0.1080 0.1070 0.1060 0.1040
778.709640 0.1000 0.0950 0.0930 0.0920 0.0920
783.239665 0.0910 0.0900 0.0880 0.0880 0.0840
787.769690 0.0800 0.0740 0.0690 0.0640 0.0610
792.299715 0.0600 0.0460 0.0390 0.0360 0.0350
796.829740 0.0300 0.0230 0.0200 0.0180 0.0180
801.359764 0.0160 0.0160 0.0160 0.0160 0.0180
805.889789 0.0180 0.0190 0.0190 0.0200 0.0210
810.419814 0.0230 0.0260 0.0270 0.0290 0.0300
814.949839 0.0330 0.0370 0.0400 0.0440 0.0470
819.479864 0.0500 0.0540 0.0600 0.0670 0.0740
824.009889 0.0780 0.0920 0.0980 0.1060 0.1240
828.539914 0.1420 0.1550 0.1799 0.1900 0.2000
833.069938 0.2160 0.2320 0.2600 0.2760 0.2890
837.599963 0.3040 0.3170 0.3180 0.3150 0.3060
842.129988 0.2970 0.2610 0.2400 0.2320 0.2260
846.660013 0.2250 0.2250 0.2240 0.2210 0.2170
851.190038 0.2110 0.2060 0.2040 0.2030 0.2030
855.720063 0.2040 0.2060 0.2080 0.2100 0.2140
860.250088 0.2180 0.2210 0.2250 0.2290 0.2330
864.780112 0.2370 0.2400 0.2430 0.2480 0.2510
869.310137 0.2530 0.2530 0.2510 0.2440 0.2400
873.840162 0.2330 0.2190 0.2001 0.1890 0.1840
878.370187 0.1830 0.1840 0.2080 0.2340 0.2610
882.900212 0.2800 0.3039 0.3269 0.3479 0.3570
887.430237 0.3660 0.3810 0.4000 0.4020 0.4000
891.960261 0.3561 0.3211 0.3200 0.3349 0.3370
896.490286 0.3490 0.3620 0.3900 0.4120 0.4330
901.020311 0.4330 0.4300 0.3103 0.3090 0.3100
905.550336 0.3210 0.3320 0.3450 0.3560 0.3620
910.080361 0.3680 0.3820 0.4000 0.4159 0.4529
914.610386 0.4790 0.4940 0.5060 0.5200 0.5320
919.140411 0.5410 0.5490 0.5590 0.5700 0.5800
923.670435 0.5870 0.5960 0.6030 0.6090 0.6170
928.200460 0.6170 0.6180 0.6170 0.6120 0.6040
932.730485 0.5950 0.5839 0.5330 0.5230 0.5220
937.260510 0.5230 0.5300 0.5350 0.5400 0.5430
941.790535 0.5500 0.5530 0.5580 0.5660 0.5710
946.320560 0.5730 0.5740 0.5730 0.5650 0.5540
950.850585 0.5220 0.4980 0.4619 0.3270 0.2920
955.380609 0.2590 0.2400 0.2380 0.2400 0.2510
959.910634 0.2550 0.2660 0.2800 0.2890 0.2960
964.440659 0.3050 0.3120 0.3200 0.3260 0.3390
968.970684 0.3420 0.3420 0.3400 0.3190 0.3090
973.500709 0.2890 0.2421 0.1592 0.1271 0.1001
978.030734 0.0800 0.0650 0.0580 0.0570 0.0580
982.560758 0.0600 0.0610 0.0630 0.0650 0.0690
987.090783 0.0710 0.0790 0.0950 0.1060 0.1170
991.620808 0.1310 0.1440 0.1590 0.1750 0.1840
996.150833 0.1920 0.2090 0.2260 0.2500 0.2720
1000.680858 0.2930 0.3140 0.3340 0.3520 0.3600
1005.210883 0.3680 0.3830 0.3960 0.4060 0.4210
1009.740908 0.4300 0.4360 0.4410 0.4500 0.4510
1014.270932 0.4530 0.4540 0.4560 0.4580 0.4640
1018.800957 0.4710 0.4730 0.4740 0.4730 0.4720
1023.330982 0.4660 0.4640 0.4510 0.4310 0.4120
1027.861007 0.3900 0.3441 0.3440 0.3520 0.3600
1032.391032 0.3680 0.4020 0.4290 0.4390 0.4710
1036.921057 0.5069 0.5270 0.5350 0.5430 0.5649
1041.451082 0.5800 0.5920 0.5990 0.6040 0.6080
1045.981106 0.6110 0.6160 0.6200 0.6220 0.6220
1050.511131 0.6210 0.6160 0.6070 0.6010 0.5970
1055.041156 0.5930 0.5880 0.5860 0.5860 0.5880
1059.571181 0.5900 0.5920 0.5940 0.5960 0.5970
1064.101206 0.6000 0.6030 0.6030 0.6000 0.5990
1068.631231 0.5970 0.5970 0.5970 0.5990 0.6020
1073.161256 0.6040 0.6020 0.5970 0.5930 0.5900
1077.691280 0.5860 0.5770 0.5620 0.5320 0.5160
1082.221305 0.5010 0.4860 0.4661 0.4511 0.4500
1086.751330 0.4500 0.4480 0.4430 0.4340 0.4160
1091.281355 0.3481 0.2941 0.1783 0.1302 0.0961
1095.811380 0.0800 0.0770 0.0560 0.0540 0.0560
1100.341405 0.0640 0.0710 0.0710 0.0700 0.0610
1104.871429 0.0520 0.0440 0.0280 0.0220 0.0220
1109.401454 0.0270 0.0520 0.0719 0.1059 0.1369
1113.931479 0.1690 0.1890 0.2080 0.2550 0.2910
1118.461504 0.3200 0.3459 0.3600 0.3730 0.4049
1122.991529 0.4461 0.4810 0.5020 0.5200 0.5360
1127.521554 0.5440 0.5520 0.5630 0.5740 0.5830
1132.051579 0.5910 0.5970 0.6050 0.6130 0.6210
1136.581603 0.6260 0.6330 0.6390 0.6420 0.6430
1141.111628 0.6510 0.6520 0.6530 0.6530 0.6520
1145.641653 0.6510 0.6470 0.6440 0.6430 0.6440
1150.171678 0.6450 0.6480 0.6510 0.6540 0.6550
1154.701703 0.6570 0.6600 0.6610 0.6610 0.6620
1159.231728 0.6620 0.6620 0.6620 0.6610 0.6600
1163.761753 0.6560 0.6460 0.6340 0.6270 0.6160
1168.291777 0.6020 0.5839 0.5320 0.5020 0.4620
1172.821802 0.3601 0.3310 0.3080 0.2861 0.2691
1177.351827 0.2540 0.2420 0.2310 0.2210 0.2110
1181.881852 0.2010 0.1581 0.1241 0.0781 0.0601
1186.411877 0.0600 0.0660 0.0950 0.1320 0.1650
1190.941902 0.1840 0.2020 0.2369 0.2719 0.3049
1195.471926 0.3390 0.3550 0.3710 0.4030 0.4320
1200.001951 0.4590 0.4850 0.5399 0.5580 0.5749
1204.531976 0.5960 0.6100 0.6180 0.6260 0.6370
1209.062001 0.6470 0.6530 0.6570 0.6600 0.6620
1213.592026 0.6620 0.6590 0.6480 0.6370 0.6250
1218.122051 0.6020 0.5311 0.5250 0.5250 0.5360
1222.652076 0.5480 0.5511 0.5830 0.6100 0.6240
1227.182100 0.6250 0.6240 0.6220 0.6050 0.5661
1231.712125 0.4929 0.4630 0.4620 0.4630 0.4810
1236.242150 0.4990 0.5170 0.5330 0.5559 0.5779
1240.772175 0.6121 0.6340 0.6460 0.6620 0.6800
1245.302200 0.6880 0.7030 0.7080 0.7110 0.7120
1249.832225 0.7120 0.7120 0.7130 0.7130 0.7120
1254.362250 0.7080 0.6990 0.6900 0.6820 0.6730
1258.892274 0.6519 0.6220 0.5999 0.5330 0.5330
1263.422299 0.5460 0.5590 0.5620 0.5909 0.6030
1267.952324 0.6160 0.6350 0.6600 0.6780 0.6890
1272.482349 0.6970 0.7020 0.7040 0.7070 0.7100
1277.012374 0.7120 0.7130 0.7130 0.7130 0.7130
1281.542399 0.7120 0.7110 0.7060 0.7020 0.6990
1286.072424 0.6980 0.6970 0.6930 0.6880 0.6800
1290.602448 0.6730 0.6650 0.6540 0.6430 0.6340
1295.132473 0.6250 0.6180 0.6100 0.6020 0.5930
1299.662498 0.5840 0.5740 0.5610 0.4402 0.3093
1304.192523 0.2617 0.1598 0.0830 0.0750 0.0750
1308.722548 0.0840 0.1460 0.1710 0.1940 0.2359
1313.252573 0.2861 0.3151 0.3560 0.3830 0.4090
1317.782597 0.4430 0.4760 0.4970 0.5050 0.5140
1322.312622 0.5150 0.5140 0.5020 0.4890 0.4740
1326.842647 0.4560 0.4370 0.3961 0.2593 0.2291
1331.372672 0.2290 0.2381 0.2701 0.3320 0.3520
1335.902697 0.3700 0.4040 0.4410 0.4749 0.5059
1340.432722 0.5400 0.5530 0.5670 0.5930 0.6190
1344.962747 0.6300 0.6370 0.6420 0.6430 0.6420
1349.492771 0.6390 0.6330 0.6250 0.6140 0.6080
1354.022796 0.5700 0.5330 0.5100 0.4920 0.4681
1358.552821 0.4670 0.4680 0.4790 0.4930 0.5160
1363.082846 0.5280 0.5410 0.5560 0.5760 0.5960
1367.612871 0.6050 0.6130 0.6210 0.6220 0.6210
1372.142896 0.6160 0.6080 0.5960 0.5880 0.5830
1376.672921 0.5659 0.5259 0.4969 0.4559 0.4109
1381.202945 0.3440 0.3440 0.3570 0.3700 0.3870
1385.732970 0.4171 0.4511 0.4811 0.5080 0.5270
1390.262995 0.5350 0.5430 0.5600 0.5750 0.5920
1394.793020 0.6080 0.6160 0.6200 0.6240 0.6280
1399.323045 0.6310 0.6350 0.6370 0.6400 0.6440
1403.853070 0.6450 0.6460 0.6460 0.6460 0.6450
1408.383095 0.6430 0.6400 0.6350 0.6300 0.6270
1412.913119 0.6220 0.6170 0.6080 0.6020 0.5930
1417.443144 0.5780 0.5650 0.5281 0.5080 0.4801
1421.973169 0.4428 0.3559 0.3059 0.2529 0.1430
1426.503194 0.1010 0.0770 0.0740 0.0750 0.0900
1431.033219 0.1000 0.1030 0.1050 0.1080 0.1100
1435.563244 0.1160 0.1230 0.1350 0.1480 0.1640
1440.093268 0.1650 0.1610 0.1440 0.1390 0.1310
1444.623293 0.1270 0.1210 0.1160 0.1140 0.1160
1449.153318 0.1240 0.1410 0.1600 0.1780 0.1860
1453.683343 0.1940 0.2100 0.2250 0.2360 0.2460
1458.213368 0.2540 0.2580 0.2590 0.2650 0.2720
1462.743393 0.2790 0.2890 0.3030 0.3190 0.3370
1467.273418 0.3560 0.3680 0.3780 0.3980 0.4170
1471.803442 0.4410 0.4640 0.4800 0.4920 0.5030
1476.333467 0.5170 0.5270 0.5340 0.5400 0.5450
1480.863492 0.5540 0.5610 0.5660 0.5750 0.5900
1485.393517 0.6000 0.6130 0.6260 0.6340 0.6420
1489.923542 0.6520 0.6610 0.6690 0.6780 0.6880
1494.453567 0.6970 0.7060 0.7130 0.7200 0.7220
1498.983592 0.7240 0.7300 0.7370 0.7440 0.7450
1503.513616 0.7490 0.7560 0.7630 0.7660 0.7670
1508.043641 0.7720 0.7750 0.7810 0.7830 0.7840
1512.573666 0.7850 0.7890 0.7930 0.8010 0.8020
1517.103691 0.8040 0.8060 0.8070 0.8090 0.8100
1521.633716 0.8140 0.8160 0.8180 0.8210 0.8220
1526.163741 0.8230 0.8240 0.8260 0.8270 0.8280
1530.693765 0.8300 0.8310 0.8330 0.8340 0.8360
1535.223790 0.8380 0.8390 0.8400 0.8410 0.8410
1539.753815 0.8420 0.8420 0.8430 0.8430 0.8440
1544.283840 0.8440 0.8450 0.8450 0.8470 0.8470
1548.813865 0.8480 0.8480 0.8490 0.8490 0.8500
1553.343890 0.8500 0.8510 0.8510 0.8510 0.8510
1557.873915 0.8510 0.8510 0.8500 0.8500 0.8490
1562.403939 0.8470 0.8450 0.8430 0.8420 0.8410
1566.933964 0.8400 0.8360 0.8340 0.8320 0.8310
1571.463989 0.8260 0.8230 0.8180 0.8100 0.8050
1575.994014 0.8040 0.8040 0.8020 0.7980 0.7900
1580.524039 0.7840 0.7780 0.7620 0.7590 0.7610
1585.054064 0.7710 0.7790 0.7820 0.7880 0.7890
1589.584089 0.7880 0.7820 0.7800 0.7760 0.7760
1594.114113 0.7720 0.7660 0.7580 0.7490 0.7390
1598.644138 0.7310 0.7150 0.7070 0.7030 0.7020
1603.174163 0.7010 0.7020 0.7040 0.7050 0.7070
1607.704188 0.7100 0.7110 0.7140 0.7190 0.7220
1612.234213 0.7270 0.7280 0.7310 0.7380 0.7410
1616.764238 0.7420 0.7450 0.7480 0.7530 0.7540
1621.294263 0.7540 0.7550 0.7550 0.7560 0.7560
1625.824287 0.7560 0.7560 0.7560 0.7560 0.7550
1630.354312 0.7550 0.7550 0.7550 0.7550 0.7550
1634.884337 0.7550 0.7540 0.7530 0.7530 0.7530
1639.414362 0.7510 0.7470 0.7440 0.7400 0.7390
1643.944387 0.7200 0.7060 0.6940 0.6820 0.6590
1648.474412 0.6299 0.5988 0.5340 0.5170 0.4990
1653.004436 0.4810 0.4800 0.4810 0.4930 0.5070
1657.534461 0.5331 0.5501 0.5671 0.6081 0.6380
1662.064486 0.6680 0.6970 0.7200 0.7280 0.7360
1666.594511 0.7400 0.7500 0.7580 0.7660 0.7720
1671.124536 0.7750 0.7790 0.7800 0.7820 0.7850
1675.654561 0.7870 0.7880 0.7900 0.7920 0.7930
1680.184586 0.7950 0.7960 0.7980 0.8000 0.8010
1684.714610 0.8050 0.8060 0.8080 0.8100 0.8100
1689.244635 0.8130 0.8170 0.8190 0.8210 0.8230
1693.774660 0.8240 0.8250 0.8260 0.8280 0.8310
1698.304685 0.8330 0.8340 0.8350 0.8350 0.8360
1702.834710 0.8360 0.8380 0.8390 0.8390 0.8400
1707.364735 0.8400 0.8400 0.8400 0.8400 0.8400
1711.894760 0.8400 0.8400 0.8390 0.8390 0.8390
1716.424784 0.8380 0.8360 0.8360 0.8360 0.8350
1720.954809 0.8350 0.8350 0.8360 0.8380 0.8420
1725.484834 0.8430 0.8440 0.8450 0.8480 0.8510
1730.014859 0.8520 0.8530 0.8560 0.8590 0.8620
1734.544884 0.8650 0.8680 0.8700 0.8720 0.8720
1739.074909 0.8730 0.8730 0.8740 0.8750 0.8760
1743.604934 0.8770 0.8780 0.8780 0.8790 0.8790
1748.134958 0.8810 0.8820 0.8820 0.8830 0.8830
1752.664983 0.8840 0.8850 0.8850 0.8860 0.8860
1757.195008 0.8870 0.8890 0.8890 0.8900 0.8900
1761.725033 0.8900 0.8900 0.8910 0.8910 0.8910
1766.255058 0.8920 0.8920 0.8920 0.8930 0.8930
1770.785083 0.8930 0.8940 0.8940 0.8940 0.8950
1775.315107 0.8950 0.8950 0.8960 0.8960 0.8980
1779.845132 0.8980 0.8990 0.8990 0.8990 0.9000
1784.375157 0.9000 0.9010 0.9010 0.9010 0.9010
1788.905182 0.9010 0.9020 0.9020 0.9020 0.9020
1793.435207 0.9030 0.9030 0.9030 0.9040 0.9040
1797.965232 0.9040 0.9060 0.9060 0.9060 0.9060
1802.495257 0.9040 0.9040 0.9030 0.9020 0.9020
1807.025281 0.9010 0.9000 0.9000 0.8990 0.8990
1811.555306 0.8980 0.8980 0.8980 0.8960 0.8960
1816.085331 0.8940 0.8940 0.8930 0.8930 0.8920
1820.615356 0.8920 0.8910 0.8910 0.8900 0.8900
1825.145381 0.8890 0.8890 0.8890 0.8890 0.8890
1829.675406 0.8890 0.8890 0.8900 0.8900 0.8900
1834.205431 0.8900 0.8900 0.8910 0.8910 0.8910
1838.735455 0.8910 0.8910 0.8920 0.8920 0.8930
1843.265480 0.8930 0.8940 0.8940 0.8950 0.8950
1847.795505 0.8960 0.8960 0.8980 0.8980 0.8990
1852.325530 0.8990 0.9000 0.9010 0.9010 0.9020
1856.855555 0.9030 0.9030 0.9040 0.9040 0.9060
1861.385580 0.9060 0.9070 0.9070 0.9080 0.9080
1865.915604 0.9080 0.9080 0.9080 0.9080 0.9080
1870.445629 0.9070 0.9070 0.9070 0.9070 0.9070
1874.975654 0.9060 0.9040 0.9040 0.9040 0.9040
1879.505679 0.9040 0.9040 0.9060 0.9060 0.9060
1884.035704 0.9060 0.9060 0.9060 0.9060 0.9060
1888.565729 0.9060 0.9060 0.9060 0.9060 0.9060
1893.095754 0.9040 0.9040 0.9030 0.9030 0.9020
1897.625778 0.9020 0.9020 0.9000 0.8990 0.8980
1902.155803 0.8960 0.8960 0.8950 0.8940 0.8930
1906.685828 0.8920 0.8910 0.8890 0.8870 0.8860
1911.215853 0.8840 0.8830 0.8820 0.8810 0.8780
1915.745878 0.8770 0.8760 0.8750 0.8740 0.8730
1920.275903 0.8720 0.8700 0.8680 0.8670 0.8660
1924.805928 0.8640 0.8620 0.8610 0.8600 0.8590
1929.335952 0.8570 0.8560 0.8560 0.8550 0.8550
1933.865977 0.8530 0.8530 0.8530 0.8530 0.8530
1938.396002 0.8550 0.8550 0.8550 0.8550 0.8560
1942.926027 0.8560 0.8560 0.8560 0.8570 0.8570
1947.456052 0.8570 0.8570 0.8580 0.8580 0.8590
1951.986077 0.8590 0.8600 0.8600 0.8610 0.8620
1956.516102 0.8640 0.8640 0.8650 0.8650 0.8650
1961.046126 0.8660 0.8660 0.8660 0.8670 0.8670
1965.576151 0.8670 0.8680 0.8680 0.8680 0.8690
1970.106176 0.8690 0.8690 0.8690 0.8690 0.8690
1974.636201 0.8690 0.8690 0.8690 0.8690 0.8690
1979.166226 0.8700 0.8700 0.8700 0.8700 0.8700
1983.696251 0.8700 0.8700 0.8700 0.8700 0.8700
1988.226275 0.8700 0.8700 0.8700 0.8700 0.8700
1992.756300 0.8700 0.8700 0.8700 0.8690 0.8690
1997.286325 0.8690 0.8690 0.8690 0.8690 0.8690
2001.816350 0.8690 0.8690 0.8690 0.8685 0.8680
2006.346375 0.8680 0.8680 0.8680 0.8680 0.8680
2010.876400 0.8680 0.8680 0.8680 0.8680 0.8680
2015.406425 0.8680 0.8680 0.8675 0.8670 0.8670
2019.936449 0.8670 0.8670 0.8670 0.8670 0.8670
2024.466474 0.8670 0.8670 0.8670 0.8670 0.8670
2028.996499 0.8670 0.8665 0.8660 0.8660 0.8660
2033.526524 0.8660 0.8660 0.8660 0.8660 0.8655
2038.056549 0.8650 0.8650 0.8650 0.8650 0.8650
2042.586574 0.8650 0.8650 0.8646 0.8641 0.8640
2047.116599 0.8640 0.8640 0.8640 0.8631 0.8621
2051.646623 0.8620 0.8620 0.8616 0.8611 0.8610
2056.176648 0.8610 0.8606 0.8601 0.8600 0.8600
2060.706673 0.8591 0.8581 0.8580 0.8580 0.8576
2065.236698 0.8571 0.8570 0.8570 0.8566 0.8561
2069.766723 0.8556 0.8551 0.8550 0.8550 0.8550
2074.296748 0.8550 0.8542 0.8532 0.8530 0.8530
2078.826772 0.8530 0.8530 0.8538 0.8548 0.8554
2083.356797 0.8559 0.8560 0.8560 0.8564 0.8569
2087.886822 0.8578 0.8588 0.8598 0.8608 0.8622
2092.416847 0.8637 0.8652 0.8667 0.8674 0.8679
2096.946872 0.8684 0.8689 0.8690 0.8690 0.8694
2101.476897 0.8699 0.8700 0.8700 0.8708 0.8717
2106.006922 0.8720 0.8720 0.8720 0.8720 0.8720
2110.536946 0.8720 0.8720 0.8720 0.8720 0.8720
2115.066971 0.8720 0.8720 0.8720 0.8720 0.8720
2119.596996 0.8720 0.8713 0.8703 0.8700 0.8700
2124.127021 0.8700 0.8700 0.8696 0.8691 0.8690
2128.657046 0.8690 0.8690 0.8690 0.8687 0.8682
2133.187071 0.8680 0.8680 0.8680 0.8680 0.8677
2137.717096 0.8672 0.8667 0.8662 0.8660 0.8660
2142.247120 0.8657 0.8652 0.8650 0.8650 0.8647
2146.777145 0.8642 0.8640 0.8640 0.8640 0.8640
2151.307170 0.8643 0.8648 0.8656 0.8666 0.8673
2155.837195 0.8678 0.8683 0.8688 0.8690 0.8690
2160.367220 0.8693 0.8698 0.8700 0.8700 0.8706
2164.897245 0.8716 0.8720 0.8720 0.8720 0.8720
2169.427270 0.8720 0.8720 0.8714 0.8704 0.8700
2173.957294 0.8700 0.8697 0.8692 0.8684 0.8674
2178.487319 0.8667 0.8662 0.8657 0.8652 0.8647
2183.017344 0.8642 0.8640 0.8640 0.8634 0.8624
2187.547369 0.8617 0.8612 0.8607 0.8602 0.8600
2192.077394 0.8600 0.8597 0.8592 0.8587 0.8582
2196.607419 0.8577 0.8572 0.8570 0.8570 0.8570
2201.137443 0.8570 0.8567 0.8562 0.8560 0.8560
2205.667468 0.8560 0.8560 0.8560 0.8560 0.8560
2210.197493 0.8560 0.8560 0.8560 0.8560 0.8560
2214.727518 0.8560 0.8560 0.8560 0.8560 0.8560
2219.257543 0.8560 0.8560 0.8560 0.8560 0.8560
2223.787568 0.8562 0.8567 0.8570 0.8570 0.8572
2228.317593 0.8577 0.8580 0.8580 0.8580 0.8580
2232.847617 0.8582 0.8587 0.8590 0.8590 0.8592
2237.377642 0.8597 0.8602 0.8607 0.8617 0.8632
2241.907667 0.8644 0.8654 0.8662 0.8667 0.8672
2246.437692 0.8677 0.8680 0.8680 0.8680 0.8680
2250.967717 0.8682 0.8687 0.8690 0.8690 0.8690
2255.497742 0.8690 0.8690 0.8690 0.8688 0.8683
2260.027767 0.8678 0.8673 0.8668 0.8663 0.8658
2264.557791 0.8653 0.8648 0.8643 0.8636 0.8626
2269.087816 0.8616 0.8606 0.8596 0.8586 0.8578
2273.617841 0.8573 0.8566 0.8556 0.8546 0.8536
2278.147866 0.8530 0.8530 0.8530 0.8530 0.8533
2282.677891 0.8543 0.8550 0.8550 0.8552 0.8557
2287.207916 0.8562 0.8567 0.8570 0.8570 0.8573
2291.737941 0.8583 0.8592 0.8597 0.8603 0.8613
2296.267965 0.8620 0.8620 0.8623 0.8633 0.8641
2300.797990 0.8646 0.8651 0.8656 0.8660 0.8660
2305.328015 0.8661 0.8666 0.8670 0.8670 0.8671
2309.858040 0.8676 0.8680 0.8680 0.8681 0.8686
2314.388065 0.8691 0.8696 0.8700 0.8700 0.8700
