##TITLE=n-PROPANOL
##JCAMP-DX=4.24
##DATA TYPE=INFRARED SPECTRUM
##CLASS=COBLENTZ
##ORIGIN=DOW CHEMICAL COMPANY
##OWNER=COBLENTZ SOCIETY
Collection (C) 2018 copyright by the U.S. Secretary of Commerce
on behalf of the United States of America. All rights reserved.
##DATE=1965/10/15
##NAMES=1-propanol
##CAS REGISTRY NO=71-23-8
##MOLFORM=C3 H8 O
##SOURCE REFERENCE=COBLENTZ NO. 10490
##$NIST SOURCE=COBLENTZ
##$NIST IMAGE=cob10490
##SPECTROMETER/DATA SYSTEM=DOW KBr FOREPRISM-GRATING
##INSTRUMENT PARAMETERS=BLAZED AT 3.5, 12.0, 20.0 MICRON, CHANGED AT 5.0, 7.5, 14.9 MICRON
##STATE=GAS (SATURATED)
##PATH LENGTH=12.5 CM CELL
##SAMPLING PROCEDURE=TRANSMISSION
##RESOLUTION=4
##DATA PROCESSING=DIGITIZED BY NIST FROM HARD COPY (FROM TWO SEGMENTS)
##XUNITS=1/CM
##YUNITS=TRANSMITTANCE
##XFACTOR=1.000000
##YFACTOR=1
##DELTAX=0.889803
##FIRSTX=455.305
##LASTX=3792.07
##FIRSTY=0.714
##MAXX=3792.07
##MINX=455.305
##MAXY=0.995
##MINY=0.0401399
##NPOINTS=3751
##XYDATA=(X++(Y..Y))
455.305000 0.7140 0.7140 0.7120 0.7120 0.7120
459.754015 0.7110 0.7110 0.7110 0.7100 0.7100
464.203029 0.7100 0.7100 0.7100 0.7100 0.7100
468.652044 0.7110 0.7110 0.7110 0.7110 0.7110
473.101059 0.7110 0.7110 0.7120 0.7120 0.7120
477.550073 0.7140 0.7140 0.7140 0.7150 0.7150
481.999088 0.7170 0.7170 0.7180 0.7180 0.7180
486.448103 0.7190 0.7190 0.7220 0.7230 0.7250
490.897117 0.7280 0.7290 0.7300 0.7320 0.7330
495.346132 0.7360 0.7370 0.7390 0.7400 0.7420
499.795146 0.7440 0.7470 0.7500 0.7530 0.7540
504.244161 0.7550 0.7570 0.7580 0.7580 0.7600
508.693176 0.7600 0.7610 0.7610 0.7610 0.7620
513.142190 0.7620 0.7640 0.7640 0.7640 0.7640
517.591205 0.7640 0.7640 0.7640 0.7640 0.7620
522.040220 0.7620 0.7620 0.7620 0.7620 0.7620
526.489234 0.7620 0.7620 0.7620 0.7620 0.7620
530.938249 0.7620 0.7620 0.7620 0.7620 0.7620
535.387264 0.7620 0.7620 0.7620 0.7620 0.7620
539.836278 0.7620 0.7620 0.7620 0.7620 0.7620
544.285293 0.7620 0.7620 0.7620 0.7620 0.7620
548.734308 0.7620 0.7620 0.7620 0.7620 0.7620
553.183322 0.7640 0.7640 0.7640 0.7640 0.7640
557.632337 0.7650 0.7650 0.7650 0.7650 0.7640
562.081352 0.7620 0.7620 0.7620 0.7610 0.7610
566.530366 0.7610 0.7610 0.7610 0.7610 0.7610
570.979381 0.7610 0.7610 0.7620 0.7620 0.7620
575.428396 0.7620 0.7620 0.7620 0.7640 0.7640
579.877410 0.7650 0.7660 0.7660 0.7680 0.7680
584.326425 0.7690 0.7690 0.7690 0.7690 0.7690
588.775439 0.7690 0.7690 0.7690 0.7690 0.7690
593.224454 0.7690 0.7690 0.7710 0.7710 0.7710
597.673469 0.7720 0.7720 0.7720 0.7730 0.7730
602.122483 0.7730 0.7730 0.7730 0.7750 0.7750
606.571498 0.7750 0.7750 0.7750 0.7760 0.7760
611.020513 0.7760 0.7780 0.7780 0.7780 0.7790
615.469527 0.7790 0.7790 0.7790 0.7790 0.7800
619.918542 0.7800 0.7800 0.7820 0.7820 0.7820
624.367557 0.7820 0.7820 0.7820 0.7830 0.7830
628.816571 0.7830 0.7830 0.7850 0.7850 0.7860
633.265586 0.7860 0.7850 0.7850 0.7850 0.7850
637.714601 0.7860 0.7870 0.7890 0.7890 0.7900
642.163615 0.7900 0.7910 0.7910 0.7910 0.7930
646.612630 0.7930 0.7930 0.7930 0.7930 0.7930
651.061645 0.7930 0.7930 0.7930 0.7930 0.7930
655.510659 0.7930 0.7930 0.7930 0.7930 0.7940
659.959674 0.7940 0.7940 0.7940 0.7940 0.7940
664.408689 0.7940 0.7940 0.7960 0.7960 0.7960
668.857703 0.7960 0.7960 0.7960 0.7960 0.7960
673.306718 0.7960 0.7970 0.7980 0.7980 0.7980
677.755732 0.8000 0.8010 0.8010 0.8030 0.8030
682.204747 0.8030 0.8030 0.8030 0.8030 0.8030
686.653762 0.8010 0.8010 0.8010 0.8010 0.8010
691.102776 0.8030 0.8030 0.8040 0.8040 0.8050
695.551791 0.8050 0.8050 0.8070 0.8070 0.8070
700.000806 0.8070 0.8070 0.8070 0.8050 0.8050
704.449820 0.8050 0.8050 0.8050 0.8070 0.8080
708.898835 0.8080 0.8070 0.8050 0.8050 0.8050
713.347850 0.8050 0.8050 0.8050 0.8050 0.8050
717.796864 0.8050 0.8050 0.8070 0.8070 0.8070
722.245879 0.8070 0.8070 0.8050 0.8050 0.8050
726.694894 0.8050 0.8050 0.8050 0.8050 0.8070
731.143908 0.8070 0.8070 0.8070 0.8070 0.8070
735.592923 0.8070 0.8070 0.8080 0.8080 0.8080
740.041938 0.8070 0.8050 0.8030 0.8030 0.8030
744.490952 0.8010 0.8010 0.8010 0.7980 0.7980
748.939967 0.7970 0.7970 0.7960 0.7960 0.7940
753.388981 0.7940 0.7940 0.7940 0.7960 0.7960
757.837996 0.7960 0.7960 0.7970 0.7970 0.7980
762.287011 0.7980 0.7980 0.7980 0.7980 0.8000
766.736025 0.8000 0.8000 0.8000 0.8000 0.8000
771.185040 0.8010 0.8010 0.8010 0.8010 0.8030
775.634055 0.8030 0.8040 0.8050 0.8050 0.8070
780.083069 0.8070 0.8070 0.8090 0.8090 0.8110
784.532084 0.8110 0.8110 0.8120 0.8120 0.8140
788.981099 0.8140 0.8140 0.8150 0.8150 0.8150
793.430113 0.8160 0.8160 0.8160 0.8160 0.8160
797.879128 0.8160 0.8160 0.8160 0.8160 0.8160
802.328143 0.8160 0.8160 0.8160 0.8150 0.8150
806.777157 0.8150 0.8150 0.8150 0.8140 0.8140
811.226172 0.8140 0.8140 0.8140 0.8120 0.8120
815.675187 0.8110 0.8110 0.8090 0.8080 0.8070
820.124201 0.8070 0.8040 0.8030 0.8010 0.8010
824.573216 0.8000 0.7980 0.7970 0.7960 0.7940
829.022231 0.7930 0.7910 0.7890 0.7870 0.7850
833.471245 0.7830 0.7820 0.7800 0.7790 0.7790
837.920260 0.7780 0.7760 0.7750 0.7720 0.7690
842.369274 0.7680 0.7660 0.7640 0.7620 0.7600
846.818289 0.7600 0.7580 0.7570 0.7550 0.7540
851.267304 0.7530 0.7500 0.7470 0.7460 0.7440
855.716318 0.7420 0.7420 0.7400 0.7400 0.7390
860.165333 0.7390 0.7360 0.7350 0.7300 0.7280
864.614348 0.7250 0.7230 0.7230 0.7190 0.7180
869.063362 0.7170 0.7170 0.7150 0.7150 0.7150
873.512377 0.7140 0.7140 0.7120 0.7120 0.7120
877.961392 0.7110 0.7110 0.7100 0.7080 0.7070
882.410406 0.7050 0.7030 0.7010 0.7000 0.6970
886.859421 0.6960 0.6940 0.6930 0.6920 0.6920
891.308436 0.6900 0.6900 0.6900 0.6900 0.6920
895.757450 0.6920 0.6920 0.6920 0.6930 0.6940
900.206465 0.6940 0.6960 0.6960 0.6970 0.6990
904.655480 0.7010 0.7040 0.7070 0.7080 0.7100
909.104494 0.7140 0.7150 0.7150 0.7170 0.7170
913.553509 0.7170 0.7180 0.7180 0.7190 0.7210
918.002523 0.7220 0.7230 0.7250 0.7250 0.7260
922.451538 0.7280 0.7290 0.7290 0.7290 0.7290
926.900553 0.7290 0.7260 0.7260 0.7250 0.7250
931.349567 0.7230 0.7150 0.7120 0.7080 0.7070
935.798582 0.7010 0.6970 0.6920 0.6900 0.6820
940.247597 0.6790 0.6620 0.6530 0.6440 0.6310
944.696611 0.6170 0.6010 0.5890 0.5750 0.5630
949.145626 0.5490 0.5001 0.4840 0.4601 0.4411
953.594641 0.4270 0.4070 0.3810 0.3480 0.3380
958.043655 0.3300 0.3240 0.3230 0.3210 0.3210
962.492670 0.3230 0.3230 0.3240 0.3240 0.3230
966.941685 0.3170 0.3090 0.2940 0.2461 0.2460
971.390699 0.3520 0.3520 0.3310 0.3030 0.2920
975.839714 0.2810 0.2770 0.2740 0.2730 0.2740
980.288729 0.2810 0.2840 0.2980 0.3130 0.3230
984.737743 0.3310 0.3410 0.3550 0.3730 0.3889
989.186758 0.4020 0.4110 0.4250 0.4390 0.4790
993.635773 0.4820 0.4960 0.4970 0.4990 0.4990
998.084787 0.4990 0.4960 0.4950 0.4860 0.4780
1002.533802 0.4680 0.4590 0.4470 0.4360 0.4250
1006.982816 0.4170 0.4090 0.4060 0.4040 0.4060
1011.431831 0.4070 0.4090 0.4110 0.4160 0.4180
1015.880846 0.4160 0.4100 0.4070 0.4000 0.4000
1020.329860 0.4030 0.4070 0.4170 0.3851 0.3521
1024.778875 0.3390 0.3310 0.3270 0.3250 0.3240
1029.227890 0.3240 0.3230 0.3230 0.3210 0.3200
1033.676904 0.3170 0.3160 0.3070 0.3000 0.2890
1038.125919 0.2810 0.2690 0.2570 0.2421 0.2241
1042.574934 0.2010 0.1630 0.1590 0.1510 0.1450
1047.023948 0.1420 0.1410 0.1400 0.1380 0.1350
1051.472963 0.1300 0.1270 0.1260 0.1240 0.1200
1055.921978 0.1190 0.1150 0.1100 0.1060 0.0940
1060.370992 0.0850 0.0840 0.0840 0.0850 0.0870
1064.820007 0.0900 0.0920 0.0980 0.1020 0.1090
1069.269022 0.1230 0.1350 0.1590 0.1730 0.2050
1073.718036 0.2090 0.2210 0.2340 0.2450 0.2550
1078.167051 0.2570 0.2630 0.2690 0.2710 0.2810
1082.616066 0.2990 0.3060 0.3090 0.3160 0.3240
1087.065080 0.3310 0.3380 0.3460 0.3550 0.3590
1091.514095 0.3710 0.3820 0.3999 0.4070 0.4170
1095.963109 0.4270 0.4360 0.4470 0.4570 0.4660
1100.412124 0.4810 0.5020 0.5100 0.5220 0.5290
1104.861139 0.5320 0.5360 0.5400 0.5490 0.5530
1109.310153 0.5630 0.5640 0.5750 0.5810 0.6009
1113.759168 0.6030 0.6080 0.6170 0.6250 0.6330
1118.208183 0.6440 0.6510 0.6610 0.6670 0.6750
1122.657197 0.6800 0.6850 0.6870 0.6920 0.6960
1127.106212 0.7010 0.7070 0.7080 0.7100 0.7120
1131.555227 0.7150 0.7190 0.7190 0.7210 0.7210
1136.004241 0.7210 0.7220 0.7250 0.7250 0.7260
1140.453256 0.7260 0.7300 0.7330 0.7360 0.7370
1144.902271 0.7370 0.7370 0.7360 0.7360 0.7360
1149.351285 0.7370 0.7390 0.7400 0.7420 0.7420
1153.800300 0.7430 0.7430 0.7430 0.7430 0.7440
1158.249315 0.7440 0.7470 0.7480 0.7480 0.7500
1162.698329 0.7510 0.7510 0.7510 0.7500 0.7480
1167.147344 0.7470 0.7440 0.7440 0.7430 0.7430
1171.596358 0.7430 0.7420 0.7400 0.7370 0.7350
1176.045373 0.7320 0.7290 0.7260 0.7250 0.7250
1180.494388 0.7230 0.7230 0.7190 0.7180 0.7170
1184.943402 0.7140 0.7080 0.7070 0.7030 0.7000
1189.392417 0.6930 0.6930 0.6830 0.6750 0.6640
1193.841432 0.6610 0.6600 0.6530 0.6460 0.6430
1198.290446 0.6350 0.6320 0.6310 0.6180 0.6040
1202.739461 0.6000 0.5920 0.5880 0.5820 0.5750
1207.188476 0.5740 0.5700 0.5640 0.5640 0.5600
1211.637490 0.5520 0.5490 0.5470 0.5460 0.5430
1216.086505 0.5390 0.5380 0.5360 0.5310 0.5280
1220.535520 0.5270 0.5250 0.5240 0.5220 0.5220
1224.984534 0.5220 0.5240 0.5250 0.5250 0.5290
1229.433549 0.5350 0.5390 0.5470 0.5490 0.5530
1233.882564 0.5570 0.5610 0.5640 0.5700 0.5720
1238.331578 0.5740 0.5750 0.5760 0.5820 0.5900
1242.780593 0.6030 0.6040 0.6060 0.6150 0.6190
1247.229608 0.6310 0.6380 0.6440 0.6470 0.6530
1251.678622 0.6600 0.6680 0.6710 0.6750 0.6760
1256.127637 0.6760 0.6800 0.6860 0.6900 0.6920
1260.576651 0.6920 0.6920 0.6920 0.6920 0.6930
1265.025666 0.6930 0.6930 0.6930 0.6930 0.6930
1269.474681 0.6930 0.6930 0.6920 0.6900 0.6900
1273.923695 0.6890 0.6870 0.6860 0.6860 0.6860
1278.372710 0.6860 0.6860 0.6860 0.6850 0.6850
1282.821725 0.6850 0.6850 0.6830 0.6830 0.6820
1287.270739 0.6820 0.6800 0.6790 0.6780 0.6780
1291.719754 0.6780 0.6780 0.6780 0.6780 0.6780
1296.168769 0.6760 0.6760 0.6760 0.6760 0.6760
1300.617783 0.6760 0.6760 0.6760 0.6780 0.6780
1305.066798 0.6800 0.6820 0.6820 0.6820 0.6830
1309.515813 0.6830 0.6830 0.6830 0.6830 0.6820
1313.964827 0.6820 0.6820 0.6800 0.6800 0.6790
1318.413842 0.6780 0.6760 0.6760 0.6760 0.6750
1322.862857 0.6750 0.6740 0.6720 0.6710 0.6690
1327.311871 0.6680 0.6650 0.6640 0.6620 0.6610
1331.760886 0.6600 0.6580 0.6570 0.6560 0.6540
1336.209900 0.6530 0.6510 0.6500 0.6490 0.6490
1340.658915 0.6470 0.6470 0.6460 0.6440 0.6440
1345.107930 0.6430 0.6430 0.6400 0.6400 0.6360
1349.556944 0.6330 0.6330 0.6320 0.6310 0.6290
1354.005959 0.6260 0.6250 0.6240 0.6180 0.6150
1358.454974 0.6140 0.6080 0.6040 0.6030 0.6000
1362.903988 0.5960 0.5950 0.5900 0.5900 0.5890
1367.353003 0.5880 0.5830 0.5810 0.5780 0.5780
1371.802018 0.5740 0.5680 0.5630 0.5610 0.5500
1376.251032 0.5380 0.5280 0.5210 0.5110 0.5040
1380.700047 0.5030 0.4890 0.4790 0.4750 0.4680
1385.149062 0.4670 0.4610 0.4600 0.4590 0.4570
1389.598076 0.4570 0.4560 0.4560 0.4560 0.4560
1394.047091 0.4570 0.4570 0.4630 0.4670 0.4700
1398.496106 0.4770 0.4770 0.4790 0.4780 0.4700
1402.945120 0.4680 0.4720 0.4750 0.4770 0.4790
1407.394135 0.4890 0.4960 0.5140 0.5280 0.5390
1411.843150 0.5540 0.5760 0.6030 0.6040 0.6170
1416.292164 0.6331 0.6750 0.6790 0.6870 0.6900
1420.741179 0.6920 0.6940 0.7000 0.7030 0.7040
1425.190193 0.7050 0.7070 0.7070 0.7070 0.7070
1429.639208 0.7050 0.7050 0.7040 0.7030 0.7010
1434.088223 0.7000 0.6940 0.6930 0.6900 0.6860
1438.537237 0.6820 0.6790 0.6780 0.6760 0.6640
1442.986252 0.6470 0.6320 0.6260 0.6180 0.6150
1447.435267 0.6110 0.6100 0.6060 0.6040 0.6000
1451.884281 0.5920 0.5880 0.5760 0.5750 0.5740
1456.333296 0.5700 0.5680 0.5650 0.5640 0.5650
1460.782311 0.5680 0.5680 0.5540 0.5330 0.5320
1465.231325 0.5320 0.5330 0.5350 0.5360 0.5390
1469.680340 0.5450 0.5540 0.5610 0.5610 0.5560
1474.129355 0.5490 0.5350 0.5180 0.5180 0.5399
1478.578369 0.5630 0.5650 0.5720 0.5740 0.5860
1483.027384 0.6070 0.6100 0.6130 0.6180 0.6190
1487.476399 0.6320 0.6400 0.6440 0.6470 0.6530
1491.925413 0.6580 0.6610 0.6760 0.6780 0.6830
1496.374428 0.6920 0.6930 0.7000 0.7050 0.7080
1500.823443 0.7150 0.7220 0.7230 0.7470 0.7600
1505.272457 0.7600 0.7650 0.7690 0.7710 0.7710
1509.721472 0.7760 0.7900 0.8000 0.8050 0.8120
1514.170486 0.8150 0.8160 0.8190 0.8210 0.8220
1518.619501 0.8230 0.8280 0.8300 0.8320 0.8320
1523.068516 0.8340 0.8360 0.8390 0.8410 0.8430
1527.517530 0.8440 0.8460 0.8480 0.8500 0.8510
1531.966545 0.8510 0.8510 0.8510 0.8510 0.8520
1536.415560 0.8540 0.8540 0.8520 0.8520 0.8510
1540.864574 0.8500 0.8500 0.8520 0.8540 0.8550
1545.313589 0.8610 0.8610 0.8620 0.8620 0.8640
1549.762604 0.8640 0.8640 0.8640 0.8640 0.8640
1554.211618 0.8620 0.8610 0.8590 0.8580 0.8570
1558.660633 0.8540 0.8520 0.8540 0.8590 0.8650
1563.109648 0.8680 0.8680 0.8660 0.8660 0.8650
1567.558662 0.8650 0.8640 0.8620 0.8620 0.8620
1572.007677 0.8650 0.8660 0.8660 0.8660 0.8650
1576.456692 0.8640 0.8640 0.8660 0.8680 0.8690
1580.905706 0.8710 0.8710 0.8710 0.8720 0.8720
1585.354721 0.8730 0.8750 0.8750 0.8730 0.8730
1589.803735 0.8730 0.8730 0.8720 0.8730 0.8730
1594.252750 0.8730 0.8730 0.8730 0.8730 0.8730
1598.701765 0.8730 0.8730 0.8730 0.8730 0.8730
1603.150779 0.8750 0.8730 0.8730 0.8730 0.8730
1607.599794 0.8730 0.8730 0.8730 0.8730 0.8750
1612.048809 0.8760 0.8770 0.8790 0.8770 0.8770
1616.497823 0.8770 0.8770 0.8790 0.8820 0.8830
1620.946838 0.8830 0.8820 0.8800 0.8800 0.8800
1625.395853 0.8820 0.8820 0.8820 0.8820 0.8800
1629.844867 0.8790 0.8770 0.8730 0.8710 0.8710
1634.293882 0.8690 0.8680 0.8690 0.8690 0.8720
1638.742897 0.8720 0.8720 0.8720 0.8720 0.8720
1643.191911 0.8720 0.8720 0.8710 0.8680 0.8680
1647.640926 0.8660 0.8660 0.8660 0.8710 0.8660
1652.089941 0.8590 0.8570 0.8570 0.8590 0.8640
1656.538955 0.8660 0.8660 0.8690 0.8680 0.8660
1660.987970 0.8650 0.8640 0.8640 0.8650 0.8650
1665.436985 0.8660 0.8650 0.8640 0.8620 0.8620
1669.885999 0.8620 0.8620 0.8620 0.8640 0.8610
1674.335014 0.8590 0.8590 0.8590 0.8610 0.8620
1678.784028 0.8620 0.8620 0.8610 0.8590 0.8590
1683.233043 0.8580 0.8580 0.8610 0.8620 0.8640
1687.682058 0.8640 0.8640 0.8620 0.8620 0.8620
1692.131072 0.8610 0.8590 0.8580 0.8580 0.8570
1696.580087 0.8570 0.8570 0.8550 0.8510 0.8510
1701.029102 0.8590 0.8650 0.8650 0.8640 0.8640
1705.478116 0.8640 0.8650 0.8650 0.8660 0.8680
1709.927131 0.8690 0.8690 0.8690 0.8650 0.8650
1714.376146 0.8650 0.8650 0.8640 0.8640 0.8650
1718.825160 0.8680 0.8690 0.8710 0.8710 0.8710
1723.274175 0.8710 0.8710 0.8720 0.8720 0.8720
1727.723190 0.8710 0.8690 0.8690 0.8690 0.8660
1732.172204 0.8650 0.8640 0.8640 0.8650 0.8690
1736.621219 0.8690 0.8690 0.8690 0.8690 0.8710
1741.070234 0.8710 0.8710 0.8710 0.8720 0.8720
1745.519248 0.8720 0.8720 0.8720 0.8720 0.8720
1749.968263 0.8720 0.8730 0.8730 0.8750 0.8760
1754.417278 0.8760 0.8760 0.8760 0.8760 0.8760
1758.866292 0.8770 0.8770 0.8770 0.8770 0.8770
1763.315307 0.8790 0.8790 0.8790 0.8770 0.8770
1767.764321 0.8770 0.8770 0.8770 0.8770 0.8770
1772.213336 0.8770 0.8790 0.8790 0.8800 0.8820
1776.662351 0.8830 0.8830 0.8830 0.8820 0.8830
1781.111365 0.8820 0.8820 0.8820 0.8820 0.8830
1785.560380 0.8840 0.8840 0.8830 0.8820 0.8800
1790.009395 0.8790 0.8790 0.8800 0.8830 0.8830
1794.458409 0.8830 0.8830 0.8830 0.8830 0.8830
1798.907424 0.8840 0.8840 0.8840 0.8860 0.8860
1803.356439 0.8860 0.8840 0.8840 0.8840 0.8830
1807.805453 0.8830 0.8830 0.8830 0.8840 0.8840
1812.254468 0.8860 0.8860 0.8860 0.8840 0.8840
1816.703483 0.8840 0.8840 0.8840 0.8840 0.8840
1821.152497 0.8830 0.8830 0.8820 0.8820 0.8830
1825.601512 0.8830 0.8830 0.8830 0.8830 0.8840
1830.050527 0.8840 0.8840 0.8840 0.8840 0.8840
1834.499541 0.8840 0.8840 0.8840 0.8840 0.8840
1838.948556 0.8840 0.8830 0.8820 0.8820 0.8820
1843.397570 0.8830 0.8830 0.8860 0.8860 0.8860
1847.846585 0.8860 0.8860 0.8860 0.8860 0.8860
1852.295600 0.8870 0.8870 0.8870 0.8870 0.8870
1856.744614 0.8860 0.8860 0.8860 0.8860 0.8860
1861.193629 0.8860 0.8860 0.8860 0.8860 0.8840
1865.642644 0.8860 0.8860 0.8860 0.8860 0.8860
1870.091658 0.8870 0.8900 0.8900 0.8900 0.8900
1874.540673 0.8900 0.8900 0.8900 0.8900 0.8900
1878.989688 0.8900 0.8900 0.8900 0.8900 0.8890
1883.438702 0.8890 0.8890 0.8890 0.8890 0.8890
1887.887717 0.8890 0.8890 0.8890 0.8890 0.8890
1892.336732 0.8890 0.8890 0.8890 0.8890 0.8900
1896.785746 0.8900 0.8910 0.8910 0.8900 0.8900
1901.234761 0.8890 0.8870 0.8870 0.8870 0.8870
1905.683776 0.8860 0.8860 0.8860 0.8860 0.8860
1910.132790 0.8860 0.8840 0.8830 0.8830 0.8820
1914.581805 0.8800 0.8800 0.8800 0.8800 0.8800
1919.030820 0.8800 0.8800 0.8790 0.8790 0.8790
1923.479834 0.8790 0.8790 0.8790 0.8790 0.8770
1927.928849 0.8770 0.8790 0.8790 0.8790 0.8770
1932.377863 0.8770 0.8770 0.8770 0.8770 0.8770
1936.826878 0.8770 0.8770 0.8770 0.8770 0.8770
1941.275893 0.8770 0.8770 0.8770 0.8770 0.8790
1945.724907 0.8790 0.8790 0.8790 0.8790 0.8790
1950.173922 0.8800 0.8800 0.8820 0.8860 0.8870
1954.622937 0.8870 0.8890 0.8890 0.8900 0.8900
1959.071951 0.8900 0.8900 0.8910 0.8910 0.8910
1963.520966 0.8910 0.8910 0.8910 0.8910 0.8910
1967.969981 0.8910 0.8910 0.8910 0.8910 0.8900
1972.418995 0.8900 0.8910 0.8910 0.8910 0.8910
1976.868010 0.8910 0.8910 0.8900 0.8900 0.8910
1981.317025 0.8930 0.8930 0.8940 0.8940 0.8940
1985.766039 0.8930 0.8910 0.8910 0.8910 0.8930
1990.215054 0.8930 0.8940 0.8940 0.8950 0.8950
1994.664069 0.8940 0.8910 0.8900 0.8890 0.8890
1999.113083 0.8890 0.8890 0.8890 0.8890 0.8890
2003.562098 0.8890 0.8890 0.8890 0.8890 0.8890
2008.011112 0.8890 0.8890 0.8890 0.8890 0.8895
2012.460127 0.8900 0.8900 0.8900 0.8900 0.8900
2016.909142 0.8900 0.8900 0.8900 0.8900 0.8900
2021.358156 0.8900 0.8905 0.8910 0.8910 0.8910
2025.807171 0.8905 0.8900 0.8900 0.8900 0.8900
2030.256186 0.8900 0.8900 0.8900 0.8900 0.8900
2034.705200 0.8895 0.8890 0.8890 0.8889 0.8879
2039.154215 0.8869 0.8864 0.8860 0.8860 0.8860
2043.603230 0.8860 0.8859 0.8849 0.8840 0.8840
2048.052244 0.8839 0.8834 0.8830 0.8830 0.8830
2052.501259 0.8830 0.8830 0.8830 0.8831 0.8836
2056.950274 0.8840 0.8840 0.8839 0.8834 0.8830
2061.399288 0.8830 0.8830 0.8830 0.8829 0.8824
2065.848303 0.8820 0.8820 0.8820 0.8820 0.8821
2070.297318 0.8826 0.8830 0.8830 0.8833 0.8848
2074.746332 0.8861 0.8866 0.8870 0.8870 0.8870
2079.195347 0.8870 0.8870 0.8870 0.8873 0.8888
2083.644362 0.8900 0.8900 0.8901 0.8906 0.8910
2088.093376 0.8910 0.8913 0.8923 0.8930 0.8930
2092.542391 0.8933 0.8943 0.8954 0.8969 0.8980
2096.991405 0.8980 0.8983 0.8993 0.9000 0.9000
2101.440420 0.9000 0.9000 0.9000 0.9000 0.9000
2105.889435 0.9000 0.9000 0.9000 0.9000 0.9000
2110.338449 0.9000 0.9000 0.9000 0.9000 0.9000
2114.787464 0.9000 0.9000 0.9000 0.9000 0.9000
2119.236479 0.9000 0.9000 0.9000 0.9000 0.9002
2123.685493 0.9007 0.9012 0.9017 0.9020 0.9020
2128.134508 0.9020 0.9020 0.9020 0.9020 0.9020
2132.583523 0.9020 0.9020 0.9020 0.9024 0.9034
2137.032537 0.9040 0.9040 0.9040 0.9040 0.9040
2141.481552 0.9040 0.9040 0.9040 0.9040 0.9040
2145.930567 0.9040 0.9040 0.9040 0.9040 0.9040
2150.379581 0.9040 0.9040 0.9040 0.9040 0.9040
2154.828596 0.9040 0.9040 0.9040 0.9040 0.9040
2159.277611 0.9040 0.9040 0.9040 0.9040 0.9040
2163.726625 0.9040 0.9040 0.9040 0.9040 0.9042
2168.175640 0.9047 0.9050 0.9050 0.9050 0.9050
2172.624655 0.9050 0.9050 0.9048 0.9043 0.9040
2177.073669 0.9040 0.9040 0.9040 0.9040 0.9040
2181.522684 0.9040 0.9040 0.9043 0.9048 0.9050
2185.971698 0.9050 0.9050 0.9050 0.9050 0.9050
2190.420713 0.9050 0.9050 0.9047 0.9042 0.9040
2194.869728 0.9040 0.9043 0.9048 0.9050 0.9050
2199.318742 0.9050 0.9050 0.9047 0.9042 0.9040
2203.767757 0.9040 0.9040 0.9040 0.9040 0.9040
2208.216772 0.9043 0.9048 0.9050 0.9050 0.9050
2212.665786 0.9050 0.9056 0.9066 0.9070 0.9070
2217.114801 0.9070 0.9070 0.9070 0.9070 0.9070
2221.563816 0.9070 0.9073 0.9078 0.9080 0.9080
2226.012830 0.9080 0.9080 0.9080 0.9080 0.9080
2230.461845 0.9080 0.9083 0.9088 0.9090 0.9090
2234.910860 0.9090 0.9090 0.9097 0.9107 0.9110
2239.359874 0.9110 0.9110 0.9110 0.9110 0.9110
2243.808889 0.9110 0.9110 0.9110 0.9110 0.9110
2248.257904 0.9110 0.9110 0.9110 0.9110 0.9110
2252.706918 0.9103 0.9093 0.9090 0.9090 0.9090
2257.155933 0.9090 0.9090 0.9090 0.9097 0.9107
2261.604947 0.9110 0.9110 0.9110 0.9110 0.9114
