##TITLE=Ethane, 1,1,1-trichloro-
##JCAMP-DX=4.24
##DATA TYPE=INFRARED SPECTRUM
##CLASS=COBLENTZ
##ORIGIN=DOW CHEMICAL COMPANY
##OWNER=Copyright (C) 1987 by the Coblentz Society
Collection (C) 2018 copyright by the U.S. Secretary of Commerce
on behalf of the United States of America. All rights reserved.
##DATE=1964
##NAMES=1,1,1-trichloroethane
METHYL CHLOROFORM
##CAS REGISTRY NO=71-55-6
##MOLFORM=C2 H3 Cl3
##SOURCE REFERENCE=COBLENTZ NO. 8851
##$NIST SOURCE=COBLENTZ
##$NIST IMAGE=cob8851
##SPECTROMETER/DATA SYSTEM=DOW KBr FOREPRISM-GRATING
##INSTRUMENT PARAMETERS=GRATING CHANGED AT 5.0, 7.5, 15.0 MICRON
##STATE=GAS (90 mmHg, N2 ADDED, TOTAL PRESSURE 600 mmHg)
##PATH LENGTH=5 CM
##SAMPLING PROCEDURE=TRANSMISSION
##RESOLUTION=2
##DATA PROCESSING=DIGITIZED BY COBLENTZ SOCIETY (BATCH II) FROM HARD COPY
##XUNITS=1/CM
##YUNITS=TRANSMITTANCE
##XFACTOR=1.0
##YFACTOR=1
##FIRSTX=458
##LASTX=3796
##FIRSTY=0.857
##MAXX=3796
##MINX=458
##MAXY=0.9112
##MINY=0.0002
##NPOINTS=3339
##XYDATA=(X++(Y..Y))
458.000000 0.8570 0.8567 0.8564 0.8562 0.8560
463.000000 0.8554 0.8549 0.8543 0.8537 0.8531
468.000000 0.8525 0.8519 0.8514 0.8508 0.8504
473.000000 0.8499 0.8516 0.8491 0.8487 0.8483
478.000000 0.8478 0.8474 0.8476 0.8480 0.8484
483.000000 0.8488 0.8492 0.8496 0.8515 0.8533
488.000000 0.8552 0.8571 0.8589 0.8608 0.8627
493.000000 0.8642 0.8650 0.8657 0.8655 0.8654
498.000000 0.8652 0.8650 0.8643 0.8621 0.8591
503.000000 0.8548 0.8491 0.8433 0.8377 0.8321
508.000000 0.8262 0.8176 0.8089 0.7997 0.7902
513.000000 0.7794 0.7631 0.7373 0.6968 0.6546
518.000000 0.6170 0.6028 0.5856 0.5774 0.5722
523.000000 0.5688 0.5654 0.5522 0.5171 0.4820
528.000000 0.4469 0.4118 0.3767 0.3612 0.3608
533.000000 0.5496 0.6203 0.6192 0.6037 0.5824
538.000000 0.5611 0.5398 0.5355 0.5402 0.5690
543.000000 0.5978 0.6267 0.6555 0.6760 0.6872
548.000000 0.7038 0.7196 0.7388 0.7559 0.7652
553.000000 0.7794 0.7965 0.8041 0.8076 0.8083
558.000000 0.8090 0.8096 0.8102 0.8132 0.8196
563.000000 0.8264 0.8332 0.8389 0.8416 0.8296
568.000000 0.8177 0.8186 0.8242 0.8403 0.8564
573.000000 0.8560 0.8548 0.8540 0.8531 0.8524
578.000000 0.8518 0.8513 0.8540 0.8580 0.8624
583.000000 0.8674 0.8711 0.8741 0.8764 0.8774
588.000000 0.8785 0.8795 0.8800 0.8803 0.8805
593.000000 0.8807 0.8810 0.8812 0.8813 0.8813
598.000000 0.8813 0.8813 0.8813 0.8813 0.8812
603.000000 0.8810 0.8809 0.8808 0.8806 0.8805
608.000000 0.8795 0.8782 0.8769 0.8756 0.8729
613.000000 0.8711 0.8709 0.8711 0.8720 0.8729
618.000000 0.8739 0.8748 0.8757 0.8766 0.8778
623.000000 0.8790 0.8802 0.8814 0.8827 0.8840
628.000000 0.8854 0.8868 0.8883 0.8897 0.8911
633.000000 0.8926 0.8940 0.8955 0.8970 0.8975
638.000000 0.8977 0.8979 0.8982 0.8984 0.8981
643.000000 0.8976 0.8971 0.8966 0.8961 0.8956
648.000000 0.8951 0.8941 0.8930 0.8919 0.8908
653.000000 0.8897 0.8937 0.8874 0.8863 0.8852
658.000000 0.8841 0.8825 0.8807 0.8788 0.8770
663.000000 0.8752 0.8733 0.8719 0.8708 0.8707
668.000000 0.8734 0.8761 0.8770 0.8758 0.8637
673.000000 0.8357 0.8204 0.8095 0.7988 0.7864
678.000000 0.7612 0.7360 0.7108 0.6856 0.6604
683.000000 0.6351 0.6099 0.5847 0.5598 0.5371
688.000000 0.5223 0.5121 0.5078 0.5075 0.5134
693.000000 0.5199 0.5260 0.5257 0.5249 0.5218
698.000000 0.5159 0.5058 0.4919 0.4570 0.4005
703.000000 0.3625 0.3246 0.2866 0.2487 0.2108
708.000000 0.1728 0.1349 0.0969 0.0128 0.0051
713.000000 0.0024 0.0018 0.0014 0.0014 0.0016
718.000000 0.0019 0.0021 0.0021 0.0021 0.0021
723.000000 0.0021 0.0002 0.0021 0.0021 0.0021
728.000000 0.0021 0.0023 0.0026 0.0029 0.0031
733.000000 0.0042 0.0055 0.0078 0.0118 0.0200
738.000000 0.0283 0.0537 0.1051 0.1566 0.2080
743.000000 0.2594 0.3108 0.3622 0.4136 0.4651
748.000000 0.5265 0.5294 0.5312 0.5331 0.5363
753.000000 0.5417 0.5667 0.5834 0.5985 0.6207
758.000000 0.6603 0.6762 0.6903 0.6998 0.7034
763.000000 0.7069 0.7121 0.7175 0.7229 0.7283
768.000000 0.7337 0.7391 0.7445 0.7499 0.7553
773.000000 0.7607 0.7648 0.7656 0.7669 0.7683
778.000000 0.7699 0.7770 0.7872 0.7931 0.8007
783.000000 0.8096 0.8189 0.8241 0.8275 0.8280
788.000000 0.8285 0.8298 0.8270 0.8254 0.8212
793.000000 0.8006 0.7899 0.7773 0.7697 0.7672
798.000000 0.7670 0.7663 0.7685 0.7724 0.7798
803.000000 0.7890 0.7908 0.7891 0.7877 0.7873
808.000000 0.7869 0.7880 0.7906 0.7951 0.8020
813.000000 0.8134 0.8239 0.8264 0.8282 0.8292
818.000000 0.8302 0.8313 0.8323 0.8333 0.8346
823.000000 0.8360 0.8393 0.8429 0.8460 0.8489
828.000000 0.8513 0.8526 0.8540 0.8554 0.8567
833.000000 0.8581 0.8594 0.8608 0.8622 0.8641
838.000000 0.8661 0.8681 0.8699 0.8710 0.8721
843.000000 0.8732 0.8743 0.8747 0.8748 0.8774
848.000000 0.8750 0.8748 0.8735 0.8723 0.8709
853.000000 0.8686 0.8663 0.8640 0.8604 0.8568
858.000000 0.8532 0.8479 0.8421 0.8362 0.8304
863.000000 0.8246 0.8187 0.8129 0.8070 0.8012
868.000000 0.7953 0.7895 0.7836 0.7800 0.7808
873.000000 0.7801 0.7733 0.7675 0.7617 0.7558
878.000000 0.7500 0.7441 0.7383 0.7324 0.7266
883.000000 0.7208 0.7185 0.7655 0.7773 0.7812
888.000000 0.7517 0.7506 0.7509 0.7510 0.7546
893.000000 0.7647 0.8071 0.8356 0.8461 0.8520
898.000000 0.8579 0.8638 0.8697 0.8756 0.8807
903.000000 0.8844 0.8881 0.8913 0.8927 0.8941
908.000000 0.8956 0.8970 0.8981 0.8985 0.8990
913.000000 0.8995 0.8998 0.8998 0.8999 0.8999
918.000000 0.9000 0.9000 0.9001 0.9000 0.8999
923.000000 0.9024 0.8997 0.8995 0.8994 0.8993
928.000000 0.8990 0.8987 0.8983 0.8980 0.8977
933.000000 0.8973 0.8970 0.8966 0.8961 0.8954
938.000000 0.8947 0.8940 0.8933 0.8926 0.8919
943.000000 0.8905 0.8890 0.8875 0.8858 0.8837
948.000000 0.8815 0.8793 0.8772 0.8752 0.8733
953.000000 0.8714 0.8695 0.8676 0.8656 0.8638
958.000000 0.8631 0.8624 0.8596 0.8621 0.8628
963.000000 0.8637 0.8651 0.8667 0.8685 0.8703
968.000000 0.8721 0.8740 0.8759 0.8779 0.8798
973.000000 0.8815 0.8827 0.8838 0.8850 0.8854
978.000000 0.8854 0.8854 0.8849 0.8881 0.8811
983.000000 0.8780 0.8736 0.8684 0.8627 0.8569
988.000000 0.8510 0.8452 0.8397 0.8342 0.8287
993.000000 0.8201 0.8108 0.8022 0.7947 0.7879
998.000000 0.7840 0.7824 0.7814 0.7804 0.7756
1003.000000 0.7659 0.7561 0.7432 0.7307 0.7207
1008.000000 0.7122 0.7053 0.7032 0.7060 0.7131
1013.000000 0.7192 0.7184 0.7094 0.7005 0.6941
1018.000000 0.6964 0.7348 0.7704 0.8060 0.8381
1023.000000 0.8607 0.8674 0.8697 0.8702 0.8707
1028.000000 0.8711 0.8705 0.8708 0.8693 0.8686
1033.000000 0.8677 0.8665 0.8653 0.8635 0.8616
1038.000000 0.8596 0.8573 0.8543 0.8512 0.8472
1043.000000 0.8431 0.8369 0.8295 0.8221 0.8146
1048.000000 0.8072 0.7991 0.7874 0.7639 0.7306
1053.000000 0.6974 0.6641 0.6407 0.6125 0.5780
1058.000000 0.5449 0.4591 0.3579 0.2568 0.1909
1063.000000 0.1758 0.1603 0.1435 0.1310 0.1209
1068.000000 0.1080 0.0916 0.0752 0.0588 0.0424
1073.000000 0.0410 0.0406 0.0399 0.0388 0.0371
1078.000000 0.0339 0.0291 0.0230 0.0154 0.0088
1083.000000 0.0060 0.0040 0.0040 0.0040 0.0040
1088.000000 0.0043 0.0046 0.0049 0.0059 0.0056
1093.000000 0.0059 0.0063 0.0066 0.0070 0.0073
1098.000000 0.0077 0.0091 0.0405 0.0495 0.0741
1103.000000 0.1054 0.1366 0.1679 0.1991 0.2304
1108.000000 0.2616 0.3055 0.3216 0.3602 0.3846
1113.000000 0.4027 0.4109 0.4190 0.4271 0.4423
1118.000000 0.4587 0.4799 0.5172 0.5304 0.5447
1123.000000 0.5603 0.6102 0.6525 0.6585 0.6644
1128.000000 0.6703 0.6754 0.6802 0.6851 0.6897
1133.000000 0.6942 0.6988 0.7031 0.7073 0.7109
1138.000000 0.7141 0.7177 0.7209 0.7243 0.7276
1143.000000 0.7309 0.7343 0.7382 0.7409 0.7437
1148.000000 0.7481 0.7524 0.7567 0.7642 0.8055
1153.000000 0.8209 0.8351 0.8469 0.8577 0.8645
1158.000000 0.8711 0.8759 0.8799 0.8838 0.8872
1163.000000 0.8904 0.8936 0.8960 0.8981 0.9002
1168.000000 0.9023 0.9035 0.9046 0.9057 0.9062
1173.000000 0.9062 0.9058 0.9052 0.9046 0.9039
1178.000000 0.9033 0.9026 0.9019 0.9025 0.9046
1183.000000 0.9061 0.9075 0.9080 0.9079 0.9078
1188.000000 0.9077 0.9076 0.9074 0.9072 0.9070
1193.000000 0.9068 0.9065 0.9061 0.9058 0.9055
1198.000000 0.9051 0.9048 0.9044 0.9041 0.9038
1203.000000 0.9036 0.9034 0.9031 0.9029 0.9026
1208.000000 0.9022 0.9014 0.9007 0.9000 0.8993
1213.000000 0.8985 0.8971 0.8949 0.8927 0.8905
1218.000000 0.8876 0.8842 0.8808 0.8773 0.8734
1223.000000 0.8695 0.8656 0.8616 0.8568 0.8519
1228.000000 0.8469 0.8421 0.8380 0.8339 0.8298
1233.000000 0.8258 0.8223 0.8189 0.8155 0.8121
1238.000000 0.8037 0.7924 0.7715 0.7628 0.7543
1243.000000 0.7456 0.7395 0.7378 0.7378 0.7378
1248.000000 0.7370 0.7396 0.7412 0.7432 0.7451
1253.000000 0.7489 0.7532 0.7586 0.7644 0.7713
1258.000000 0.7782 0.7835 0.7888 0.7941 0.8016
1263.000000 0.8109 0.8218 0.8289 0.8306 0.8316
1268.000000 0.8326 0.8336 0.8351 0.8378 0.8428
1273.000000 0.8495 0.8569 0.8624 0.8650 0.8676
1278.000000 0.8696 0.8698 0.8722 0.8702 0.8698
1283.000000 0.8694 0.8690 0.8684 0.8671 0.8658
1288.000000 0.8645 0.8623 0.8600 0.8577 0.8554
1293.000000 0.8530 0.8509 0.8524 0.8521 0.8531
1298.000000 0.8546 0.8561 0.8575 0.8590 0.8604
1303.000000 0.8619 0.8633 0.8647 0.8658 0.8668
1308.000000 0.8678 0.8688 0.8698 0.8708 0.8718
1313.000000 0.8727 0.8736 0.8743 0.8750 0.8758
1318.000000 0.8765 0.8772 0.8780 0.8787 0.8793
1323.000000 0.8799 0.8804 0.8810 0.8815 0.8821
1328.000000 0.8827 0.8832 0.8838 0.8844 0.8849
1333.000000 0.8855 0.8860 0.8866 0.8871 0.8877
1338.000000 0.8882 0.8887 0.8893 0.8898 0.8904
1343.000000 0.8907 0.8907 0.8907 0.8907 0.8907
1348.000000 0.8907 0.8907 0.8907 0.8888 0.8902
1353.000000 0.8898 0.8895 0.8891 0.8888 0.8884
1358.000000 0.8872 0.8856 0.8840 0.8824 0.8792
1363.000000 0.8756 0.8720 0.8685 0.8614 0.8540
1368.000000 0.8433 0.8289 0.8144 0.7997 0.7667
1373.000000 0.7260 0.6853 0.6446 0.6039 0.5632
1378.000000 0.5226 0.5028 0.4887 0.4826 0.4863
1383.000000 0.5130 0.5427 0.5724 0.6020 0.6135
1388.000000 0.4928 0.2425 0.1239 0.2660 0.5972
1393.000000 0.5666 0.5286 0.4906 0.4526 0.4146
1398.000000 0.3988 0.4041 0.4245 0.5137 0.6081
1403.000000 0.7004 0.7603 0.8069 0.8178 0.8213
1408.000000 0.8226 0.8234 0.8238 0.8225 0.8194
1413.000000 0.8100 0.8006 0.7912 0.7818 0.7724
1418.000000 0.7630 0.7536 0.7442 0.7348 0.7254
1423.000000 0.7162 0.7162 0.7159 0.7147 0.6997
1428.000000 0.6837 0.6677 0.6517 0.6357 0.6268
1433.000000 0.6540 0.7049 0.7044 0.7049 0.6991
1438.000000 0.6937 0.6846 0.6664 0.6465 0.6266
1443.000000 0.6067 0.5868 0.5668 0.5469 0.5324
1448.000000 0.5276 0.5271 0.5284 0.5362 0.5497
1453.000000 0.5631 0.5766 0.5879 0.5891 0.4892
1458.000000 0.4135 0.3531 0.3531 0.4051 0.5069
1463.000000 0.6086 0.6162 0.6143 0.6121 0.6100
1468.000000 0.6095 0.6107 0.6123 0.6429 0.6718
1473.000000 0.7007 0.7296 0.7584 0.7742 0.7818
1478.000000 0.7965 0.8108 0.8193 0.8278 0.8346
1483.000000 0.8395 0.8445 0.8494 0.8533 0.8572
1488.000000 0.8609 0.8636 0.8664 0.8677 0.8680
1493.000000 0.8678 0.8700 0.8742 0.8768 0.8761
1498.000000 0.8751 0.8740 0.8728 0.8723 0.8741
1503.000000 0.8759 0.8780 0.8808 0.8832 0.8815
1508.000000 0.8774 0.8728 0.8691 0.8705 0.8727
1513.000000 0.8750 0.8777 0.8799 0.8794 0.8789
1518.000000 0.8782 0.8776 0.8766 0.8751 0.8736
1523.000000 0.8721 0.8707 0.8712 0.8728 0.8744
1528.000000 0.8760 0.8776 0.8789 0.8799 0.8809
1533.000000 0.8817 0.8811 0.8806 0.8797 0.8787
1538.000000 0.8777 0.8767 0.8757 0.8744 0.8731
1543.000000 0.8719 0.8724 0.8729 0.8734 0.8744
1548.000000 0.8756 0.8768 0.8780 0.8789 0.8787
1553.000000 0.8785 0.8780 0.8774 0.8768 0.8761
1558.000000 0.8738 0.8716 0.8692 0.8692 0.8692
1563.000000 0.8718 0.8743 0.8775 0.8795 0.8807
1568.000000 0.8806 0.8803 0.8798 0.8795 0.8793
1573.000000 0.8792 0.8803 0.8802 0.8779 0.8753
1578.000000 0.8723 0.8699 0.8732 0.8764 0.8796
1583.000000 0.8825 0.8838 0.8852 0.8858 0.8861
1588.000000 0.8862 0.8863 0.8864 0.8864 0.8862
1593.000000 0.8860 0.8858 0.8856 0.8854 0.8852
1598.000000 0.8848 0.8844 0.8841 0.8837 0.8834
1603.000000 0.8830 0.8826 0.8823 0.8819 0.8814
1608.000000 0.8810 0.8806 0.8801 0.8797 0.8792
1613.000000 0.8788 0.8784 0.8778 0.8769 0.8761
1618.000000 0.8753 0.8745 0.8744 0.8747 0.8750
1623.000000 0.8750 0.8750 0.8750 0.8746 0.8742
1628.000000 0.8738 0.8734 0.8729 0.8725 0.8720
1633.000000 0.8712 0.8705 0.8697 0.8690 0.8684
1638.000000 0.8678 0.8672 0.8668 0.8670 0.8672
1643.000000 0.8675 0.8677 0.8678 0.8675 0.8671
1648.000000 0.8668 0.8659 0.8648 0.8638 0.8628
1653.000000 0.8617 0.8636 0.8595 0.8623 0.8661
1658.000000 0.8691 0.8721 0.8743 0.8757 0.8770
1663.000000 0.8780 0.8784 0.8788 0.8790 0.8791
1668.000000 0.8792 0.8792 0.8793 0.8794 0.8794
1673.000000 0.8795 0.8795 0.8796 0.8796 0.8793
1678.000000 0.8789 0.8784 0.8779 0.8774 0.8769
1683.000000 0.8753 0.8738 0.8725 0.8721 0.8716
1688.000000 0.8723 0.8735 0.8763 0.8786 0.8801
1693.000000 0.8811 0.8811 0.8806 0.8792 0.8778
1698.000000 0.8759 0.8738 0.8721 0.8710 0.8723
1703.000000 0.8737 0.8748 0.8760 0.8760 0.8760
1708.000000 0.8760 0.8761 0.8779 0.8794 0.8804
1713.000000 0.8804 0.8789 0.8773 0.8758 0.8737
1718.000000 0.8716 0.8711 0.8710 0.8716 0.8740
1723.000000 0.8764 0.8771 0.8773 0.8774 0.8778
1728.000000 0.8781 0.8775 0.8768 0.8761 0.8754
1733.000000 0.8747 0.8744 0.8741 0.8738 0.8735
1738.000000 0.8746 0.8762 0.8764 0.8767 0.8770
1743.000000 0.8773 0.8776 0.8778 0.8781 0.8783
1748.000000 0.8784 0.8786 0.8788 0.8789 0.8791
1753.000000 0.8791 0.8789 0.8787 0.8785 0.8783
1758.000000 0.8781 0.8779 0.8777 0.8775 0.8771
1763.000000 0.8767 0.8763 0.8759 0.8755 0.8751
1768.000000 0.8744 0.8734 0.8723 0.8712 0.8702
1773.000000 0.8691 0.8689 0.8695 0.8701 0.8707
1778.000000 0.8713 0.8715 0.8718 0.8721 0.8723
1783.000000 0.8722 0.8720 0.8718 0.8714 0.8698
1788.000000 0.8682 0.8666 0.8650 0.8635 0.8618
1793.000000 0.8599 0.8580 0.8589 0.8599 0.8610
1798.000000 0.8621 0.8632 0.8641 0.8650 0.8671
1803.000000 0.8677 0.8683 0.8689 0.8695 0.8702
1808.000000 0.8710 0.8717 0.8725 0.8733 0.8740
1813.000000 0.8747 0.8755 0.8761 0.8766 0.8772
1818.000000 0.8769 0.8765 0.8762 0.8758 0.8755
1823.000000 0.8751 0.8748 0.8744 0.8741 0.8737
1828.000000 0.8739 0.8741 0.8744 0.8747 0.8749
1833.000000 0.8752 0.8755 0.8760 0.8765 0.8770
1838.000000 0.8775 0.8780 0.8786 0.8791 0.8793
1843.000000 0.8792 0.8791 0.8791 0.8790 0.8790
1848.000000 0.8792 0.8794 0.8797 0.8799 0.8801
1853.000000 0.8801 0.8800 0.8800 0.8800 0.8800
1858.000000 0.8800 0.8800 0.8800 0.8800 0.8799
1863.000000 0.8799 0.8798 0.8797 0.8796 0.8795
1868.000000 0.8794 0.8793 0.8792 0.8792 0.8793
1873.000000 0.8794 0.8795 0.8796 0.8797 0.8798
1878.000000 0.8799 0.8797 0.8794 0.8791 0.8789
1883.000000 0.8786 0.8783 0.8781 0.8778 0.8775
1888.000000 0.8772 0.8770 0.8769 0.8767 0.8766
1893.000000 0.8764 0.8763 0.8761 0.8760 0.8759
1898.000000 0.8757 0.8756 0.8754 0.8753 0.8751
1903.000000 0.8750 0.8748 0.8747 0.8745 0.8744
1908.000000 0.8743 0.8745 0.8747 0.8748 0.8750
1913.000000 0.8752 0.8754 0.8755 0.8757 0.8759
1918.000000 0.8761 0.8762 0.8764 0.8766 0.8768
1923.000000 0.8769 0.8771 0.8773 0.8775 0.8777
1928.000000 0.8778 0.8780 0.8782 0.8784 0.8785
1933.000000 0.8785 0.8786 0.8787 0.8788 0.8789
1938.000000 0.8790 0.8791 0.8791 0.8791 0.8791
1943.000000 0.8791 0.8791 0.8791 0.8791 0.8791
1948.000000 0.8790 0.8790 0.8790 0.8788 0.8786
1953.000000 0.8784 0.8781 0.8779 0.8776 0.8774
1958.000000 0.8772 0.8769 0.8767 0.8764 0.8762
1963.000000 0.8760 0.8757 0.8755 0.8754 0.8753
1968.000000 0.8752 0.8752 0.8751 0.8751 0.8752
1973.000000 0.8753 0.8754 0.8755 0.8757 0.8758
1978.000000 0.8759 0.8760 0.8762 0.8763 0.8764
1983.000000 0.8765 0.8764 0.8764 0.8763 0.8762
1988.000000 0.8762 0.8761 0.8760 0.8760 0.8759
1993.000000 0.8758 0.8758 0.8757 0.8756 0.8755
1998.000000 0.8752 0.8750 0.8748 0.8745 0.8743
2003.000000 0.8742 0.8741 0.8739 0.8738 0.8736
2008.000000 0.8734 0.8732 0.8730 0.8728 0.8727
2013.000000 0.8723 0.8719 0.8713 0.8708 0.8703
2018.000000 0.8698 0.8703 0.8709 0.8714 0.8720
2023.000000 0.8726 0.8732 0.8738 0.8744 0.8747
2028.000000 0.8750 0.8753 0.8756 0.8759 0.8763
2033.000000 0.8765 0.8767 0.8767 0.8768 0.8768
2038.000000 0.8769 0.8769 0.8769 0.8769 0.8770
2043.000000 0.8770 0.8770 0.8770 0.8770 0.8770
2048.000000 0.8770 0.8770 0.8770 0.8770 0.8770
2053.000000 0.8770 0.8770 0.8770 0.8770 0.8770
2058.000000 0.8770 0.8770 0.8770 0.8771 0.8772
2063.000000 0.8773 0.8774 0.8775 0.8776 0.8776
2068.000000 0.8777 0.8776 0.8776 0.8775 0.8774
2073.000000 0.8773 0.8773 0.8772 0.8772 0.8771
2078.000000 0.8771 0.8770 0.8770 0.8769 0.8768
2083.000000 0.8765 0.8762 0.8759 0.8757 0.8754
2088.000000 0.8752 0.8749 0.8746 0.8743 0.8741
2093.000000 0.8738 0.8736 0.8733 0.8730 0.8727
2098.000000 0.8725 0.8722 0.8720 0.8713 0.8707
2103.000000 0.8698 0.8690 0.8681 0.8673 0.8665
2108.000000 0.8657 0.8646 0.8636 0.8623 0.8610
2113.000000 0.8597 0.8585 0.8572 0.8560 0.8552
2118.000000 0.8545 0.8537 0.8530 0.8523 0.8516
2123.000000 0.8510 0.8505 0.8499 0.8494 0.8482
2128.000000 0.8470 0.8452 0.8435 0.8413 0.8392
2133.000000 0.8370 0.8349 0.8330 0.8312 0.8299
2138.000000 0.8286 0.8275 0.8264 0.8265 0.8266
2143.000000 0.8267 0.8241 0.8271 0.8274 0.8277
2148.000000 0.8281 0.8295 0.8310 0.8330 0.8351
2153.000000 0.8372 0.8393 0.8414 0.8436 0.8458
2158.000000 0.8480 0.8502 0.8525 0.8538 0.8552
2163.000000 0.8565 0.8578 0.8591 0.8604 0.8617
2168.000000 0.8631 0.8640 0.8649 0.8658 0.8668
2173.000000 0.8677 0.8687 0.8696 0.8706 0.8713
2178.000000 0.8721 0.8726 0.8732 0.8738 0.8744
2183.000000 0.8749 0.8755 0.8759 0.8764 0.8767
2188.000000 0.8771 0.8775 0.8779 0.8782 0.8786
2193.000000 0.8789 0.8793 0.8797 0.8801 0.8803
2198.000000 0.8806 0.8807 0.8808 0.8809 0.8811
2203.000000 0.8812 0.8814 0.8815 0.8817 0.8818
2208.000000 0.8820 0.8821 0.8823 0.8823 0.8823
2213.000000 0.8823 0.8823 0.8823 0.8824 0.8824
2218.000000 0.8824 0.8824 0.8824 0.8824 0.8824
2223.000000 0.8824 0.8825 0.8825 0.8825 0.8825
2228.000000 0.8825 0.8825 0.8826 0.8826 0.8826
2233.000000 0.8826 0.8826 0.8826 0.8826 0.8826
2238.000000 0.8826 0.8826 0.8826 0.8825 0.8825
2243.000000 0.8825 0.8825 0.8825 0.8825 0.8825
2248.000000 0.8825 0.8825 0.8825 0.8825 0.8825
2253.000000 0.8825 0.8825 0.8825 0.8825 0.8825
2258.000000 0.8825 0.8825 0.8825 0.8825 0.8825
2263.000000 0.8825 0.8825 0.8824 0.8824 0.8824
2268.000000 0.8824 0.8823 0.8823 0.8823 0.8824
2273.000000 0.8822 0.8822 0.8822 0.8822 0.8821
2278.000000 0.8821 0.8821 0.8821 0.8820 0.8820
2283.000000 0.8823 0.8826 0.8829 0.8832 0.8835
2288.000000 0.8838 0.8841 0.8844 0.8847 0.8850
2293.000000 0.8853 0.8857 0.8861 0.8865 0.8869
2298.000000 0.8874 0.8878 0.8882 0.8886 0.8891
2303.000000 0.8895 0.8899 0.8903 0.8907 0.8911
2308.000000 0.8916 0.8920 0.8925 0.8929 0.8933
2313.000000 0.8937 0.8942 0.8946 0.8951 0.8955
2318.000000 0.8960 0.8964 0.8969 0.8973 0.8978
2323.000000 0.8983 0.8988 0.8993 0.8999 0.9004
2328.000000 0.9010 0.9015 0.9021 0.9026 0.9032
2333.000000 0.9037 0.9043 0.9048 0.9054 0.9059
2338.000000 0.9065 0.9071 0.9077 0.9083 0.9089
2343.000000 0.9095 0.9101 0.9106 0.9112 0.9111
2348.000000 0.9111 0.9110 0.9110 0.9109 0.9109
2353.000000 0.9108 0.9108 0.9107 0.9107 0.9106
2358.000000 0.9106 0.9105 0.9105 0.9104 0.9104
2363.000000 0.9102 0.9101 0.9097 0.9093 0.9087
2368.000000 0.9081 0.9072 0.9063 0.9054 0.9045
2373.000000 0.9035 0.9026 0.9013 0.9001 0.8987
2378.000000 0.8973 0.8958 0.8943 0.8927 0.8912
2383.000000 0.8897 0.8882 0.8875 0.8868 0.8861
2388.000000 0.8854 0.8847 0.8840 0.8835 0.8830
2393.000000 0.8828 0.8826 0.8823 0.8821 0.8818
2398.000000 0.8816 0.8814 0.8812 0.8809 0.8807
2403.000000 0.8805 0.8804 0.8802 0.8801 0.8799
2408.000000 0.8797 0.8795 0.8794 0.8792 0.8791
2413.000000 0.8789 0.8787 0.8784 0.8782 0.8777
2418.000000 0.8772 0.8767 0.8763 0.8758 0.8753
2423.000000 0.8748 0.8744 0.8739 0.8734 0.8722
2428.000000 0.8710 0.8698 0.8687 0.8675 0.8664
2433.000000 0.8652 0.8641 0.8615 0.8590 0.8562
2438.000000 0.8534 0.8506 0.8478 0.8449 0.8420
2443.000000 0.8391 0.8362 0.8333 0.8304 0.8274
2448.000000 0.8245 0.8203 0.8162 0.8114 0.8066
2453.000000 0.8050 0.8034 0.8035 0.8037 0.8061
2458.000000 0.8086 0.8135 0.8185 0.8217 0.8249
2463.000000 0.8277 0.8306 0.8337 0.8369 0.8402
2468.000000 0.8436 0.8469 0.8503 0.8535 0.8568
2473.000000 0.8600 0.8632 0.8658 0.8684 0.8698
2478.000000 0.8713 0.8727 0.8741 0.8750 0.8760
2483.000000 0.8767 0.8775 0.8780 0.8785 0.8787
