##TITLE=METHYL BROMIDE
##JCAMP-DX=4.24
##DATA TYPE=INFRARED SPECTRUM
##CLASS=COBLENTZ
##ORIGIN=DOW CHEMICAL COMPANY
##OWNER=COBLENTZ SOCIETY
Collection (C) 2018 copyright by the U.S. Secretary of Commerce
on behalf of the United States of America. All rights reserved.
##DATE=1964
##NAMES=bromomethane
##CAS REGISTRY NO=74-83-9
##MOLFORM=C H3 Br
##SOURCE REFERENCE=COBLENTZ NO. 8843
##$NIST SOURCE=COBLENTZ
##$NIST IMAGE=cob8843
##SPECTROMETER/DATA SYSTEM=DOW KBr FOREPRISM
##INSTRUMENT PARAMETERS=GRATING CHANGED AT 5.0, 7.5, 15.0 MICRON
##STATE=GAS (100 mmHg DILUTED TO A TOTAL PRESSURE OF 600 mmHg WITH N2)
##PATH LENGTH=5 CM
##SAMPLING PROCEDURE=TRANSMISSION
##RESOLUTION=4
##DATA PROCESSING=DIGITIZED BY NIST FROM HARD COPY (FROM TWO SEGMENTS)
##XUNITS=1/CM
##YUNITS=TRANSMITTANCE
##XFACTOR=1.000000
##YFACTOR=1
##DELTAX=0.934000
##FIRSTX=460.772
##LASTX=3803.56
##FIRSTY=0.914
##MAXX=3803.56
##MINX=460.772
##MAXY=0.986
##MINY=0.282005
##NPOINTS=3580
##XYDATA=(X++(Y..Y))
460.772000 0.9140 0.9140 0.9140 0.9140 0.9140
465.442002 0.9140 0.9140 0.9140 0.9140 0.9140
470.112003 0.9160 0.9160 0.9160 0.9160 0.9160
474.782005 0.9160 0.9160 0.9160 0.9160 0.9160
479.452006 0.9160 0.9160 0.9160 0.9160 0.9160
484.122008 0.9160 0.9160 0.9170 0.9160 0.9160
488.792009 0.9160 0.9160 0.9160 0.9140 0.9140
493.462011 0.9140 0.9140 0.9140 0.9130 0.9130
498.132013 0.9140 0.9140 0.9140 0.9140 0.9140
502.802014 0.9140 0.9140 0.9140 0.9140 0.9140
507.472016 0.9140 0.9140 0.9160 0.9160 0.9140
512.142017 0.9140 0.9140 0.9140 0.9140 0.9140
516.812019 0.9130 0.9130 0.9130 0.9130 0.9130
521.482020 0.9130 0.9130 0.9130 0.9130 0.9140
526.152022 0.9140 0.9140 0.9140 0.9140 0.9160
530.822024 0.9140 0.9140 0.9140 0.9130 0.9130
535.492025 0.9130 0.9130 0.9130 0.9140 0.9140
540.162027 0.9140 0.9140 0.9140 0.9140 0.9160
544.832028 0.9140 0.9140 0.9140 0.9140 0.9140
549.502030 0.9140 0.9140 0.9140 0.9140 0.9140
554.172031 0.9140 0.9130 0.9130 0.9130 0.9120
558.842033 0.9120 0.9100 0.9090 0.9070 0.9060
563.512034 0.9040 0.9000 0.8970 0.8950 0.8940
568.182036 0.8910 0.8900 0.8820 0.8780 0.8720
572.852038 0.8660 0.8630 0.8530 0.8400 0.8260
577.522039 0.8220 0.8120 0.8000 0.7811 0.7661
582.192041 0.7590 0.7440 0.7140 0.7050 0.6960
586.862042 0.6800 0.6641 0.6560 0.6261 0.5862
591.532044 0.5730 0.5610 0.5490 0.5380 0.5260
596.202045 0.5140 0.5110 0.5110 0.5140 0.5210
600.872047 0.5300 0.5300 0.5290 0.5290 0.5519
605.542049 0.5949 0.6558 0.7078 0.7110 0.6016
610.212050 0.4910 0.4570 0.7457 0.7520 0.7410
614.882052 0.6971 0.6522 0.5614 0.5510 0.5361
619.552053 0.4660 0.4500 0.4350 0.4260 0.4230
624.222055 0.4260 0.4320 0.4440 0.4599 0.4759
628.892056 0.4880 0.5320 0.5859 0.6149 0.6489
633.562058 0.7018 0.7369 0.7808 0.8218 0.8568
638.232060 0.8810 0.8970 0.9120 0.9130 0.9220
642.902061 0.9260 0.9290 0.9320 0.9340 0.9340
647.572063 0.9340 0.9340 0.9350 0.9350 0.9350
652.242064 0.9350 0.9350 0.9350 0.9360 0.9360
656.912066 0.9360 0.9360 0.9360 0.9360 0.9360
661.582067 0.9360 0.9360 0.9360 0.9360 0.9380
666.252069 0.9380 0.9380 0.9380 0.9380 0.9380
670.922071 0.9380 0.9380 0.9380 0.9380 0.9380
675.592072 0.9380 0.9380 0.9380 0.9360 0.9380
680.262074 0.9380 0.9360 0.9360 0.9360 0.9360
684.932075 0.9360 0.9350 0.9350 0.9350 0.9350
689.602077 0.9360 0.9350 0.9350 0.9350 0.9350
694.272078 0.9350 0.9350 0.9350 0.9350 0.9350
698.942080 0.9350 0.9350 0.9350 0.9350 0.9350
703.612082 0.9350 0.9350 0.9350 0.9350 0.9350
708.282083 0.9350 0.9350 0.9350 0.9350 0.9350
712.952085 0.9350 0.9350 0.9360 0.9360 0.9360
717.622086 0.9360 0.9360 0.9380 0.9380 0.9360
722.292088 0.9360 0.9360 0.9360 0.9380 0.9380
726.962089 0.9360 0.9360 0.9360 0.9380 0.9360
731.632091 0.9360 0.9360 0.9360 0.9360 0.9360
736.302093 0.9360 0.9360 0.9360 0.9360 0.9350
740.972094 0.9350 0.9360 0.9360 0.9360 0.9360
745.642096 0.9360 0.9360 0.9360 0.9380 0.9380
750.312097 0.9380 0.9380 0.9360 0.9360 0.9360
754.982099 0.9360 0.9360 0.9360 0.9380 0.9380
759.652100 0.9360 0.9360 0.9360 0.9360 0.9360
764.322102 0.9360 0.9360 0.9360 0.9360 0.9360
768.992103 0.9360 0.9360 0.9360 0.9360 0.9380
773.662105 0.9390 0.9410 0.9410 0.9420 0.9420
778.332107 0.9410 0.9390 0.9410 0.9410 0.9420
783.002108 0.9420 0.9420 0.9420 0.9420 0.9420
787.672110 0.9420 0.9410 0.9410 0.9390 0.9390
792.342111 0.9380 0.9380 0.9360 0.9360 0.9360
797.012113 0.9360 0.9360 0.9360 0.9360 0.9360
801.682114 0.9360 0.9360 0.9360 0.9360 0.9360
806.352116 0.9360 0.9360 0.9360 0.9360 0.9360
811.022118 0.9380 0.9380 0.9380 0.9380 0.9380
815.692119 0.9380 0.9380 0.9360 0.9360 0.9360
820.362121 0.9360 0.9360 0.9360 0.9360 0.9360
825.032122 0.9360 0.9360 0.9360 0.9360 0.9360
829.702124 0.9360 0.9360 0.9360 0.9360 0.9360
834.372125 0.9360 0.9380 0.9380 0.9360 0.9360
839.042127 0.9360 0.9360 0.9360 0.9360 0.9360
843.712129 0.9360 0.9360 0.9360 0.9350 0.9340
848.382130 0.9340 0.9320 0.9320 0.9340 0.9340
853.052132 0.9360 0.9360 0.9350 0.9350 0.9350
857.722133 0.9350 0.9350 0.9350 0.9340 0.9340
862.392135 0.9320 0.9320 0.9320 0.9310 0.9290
867.062136 0.9280 0.9250 0.9250 0.9250 0.9250
871.732138 0.9230 0.9230 0.9230 0.9230 0.9220
876.402140 0.9200 0.9190 0.9160 0.9160 0.9160
881.072141 0.9170 0.9140 0.9140 0.9090 0.9090
885.742143 0.9090 0.9100 0.9120 0.9130 0.9070
890.412144 0.8980 0.8810 0.8810 0.8920 0.9030
895.082146 0.9040 0.9030 0.8970 0.8751 0.8750
899.752147 0.8950 0.8970 0.8970 0.8970 0.8950
904.422149 0.8810 0.8680 0.8511 0.8659 0.8730
909.092151 0.8750 0.8820 0.8870 0.8870 0.8530
913.762152 0.7402 0.7400 0.8527 0.8759 0.8780
918.432154 0.8780 0.8680 0.8250 0.7810 0.7810
923.102155 0.8678 0.8650 0.8630 0.8530 0.8510
927.772157 0.7410 0.7411 0.8530 0.8530 0.8510
932.442158 0.8480 0.7562 0.6623 0.6580 0.6172
937.112160 0.6143 0.8590 0.8560 0.8540 0.7941
941.782162 0.7361 0.7061 0.6751 0.8474 0.8480
946.452163 0.8460 0.8460 0.8130 0.6751 0.5382
951.122165 0.8205 0.8509 0.8510 0.8400 0.8380
955.792166 0.8158 0.6489 0.4800 0.7988 0.8280
960.462168 0.8530 0.8440 0.8410 0.8181 0.7304
965.132169 0.6402 0.8160 0.8440 0.8430 0.8380
969.802171 0.8340 0.8121 0.7711 0.7152 0.6592
974.472172 0.8440 0.8510 0.8510 0.8070 0.7710
979.142174 0.6622 0.5523 0.7115 0.8625 0.8630
983.812176 0.8530 0.8440 0.8410 0.8280 0.7211
988.482177 0.7210 0.7819 0.8687 0.8590 0.8530
993.152179 0.8530 0.8509 0.7600 0.7600 0.8529
997.822180 0.8810 0.8810 0.8690 0.8511 0.8430
1002.492182 0.8149 0.7110 0.7110 0.8779 0.8970
1007.162183 0.8980 0.8970 0.8721 0.8501 0.8480
1011.832185 0.8600 0.8720 0.8950 0.8950 0.8920
1016.502187 0.8850 0.8730 0.8730 0.8820 0.9029
1021.172188 0.9070 0.9070 0.8980 0.8950 0.8940
1025.842190 0.8940 0.8980 0.9159 0.9250 0.9250
1030.512191 0.9160 0.9160 0.9160 0.9160 0.9190
1035.182193 0.9190 0.9220 0.9250 0.9280 0.9290
1039.852194 0.9310 0.9320 0.9340 0.9340 0.9340
1044.522196 0.9350 0.9350 0.9350 0.9350 0.9350
1049.192198 0.9360 0.9380 0.9390 0.9410 0.9410
1053.862199 0.9420 0.9440 0.9440 0.9440 0.9440
1058.532201 0.9440 0.9440 0.9450 0.9470 0.9470
1063.202202 0.9470 0.9470 0.9470 0.9470 0.9450
1067.872204 0.9450 0.9450 0.9440 0.9420 0.9420
1072.542205 0.9420 0.9420 0.9440 0.9440 0.9440
1077.212207 0.9440 0.9440 0.9440 0.9450 0.9450
1081.882209 0.9450 0.9450 0.9470 0.9470 0.9470
1086.552210 0.9480 0.9500 0.9500 0.9510 0.9500
1091.222212 0.9500 0.9510 0.9530 0.9530 0.9540
1095.892213 0.9540 0.9540 0.9540 0.9540 0.9540
1100.562215 0.9540 0.9540 0.9540 0.9540 0.9560
1105.232216 0.9560 0.9560 0.9540 0.9540 0.9540
1109.902218 0.9540 0.9540 0.9540 0.9540 0.9560
1114.572220 0.9560 0.9560 0.9560 0.9560 0.9560
1119.242221 0.9560 0.9560 0.9570 0.9570 0.9560
1123.912223 0.9560 0.9560 0.9560 0.9540 0.9540
1128.582224 0.9540 0.9530 0.9530 0.9530 0.9530
1133.252226 0.9510 0.9500 0.9500 0.9480 0.9480
1137.922227 0.9470 0.9470 0.9470 0.9470 0.9470
1142.592229 0.9480 0.9480 0.9500 0.9510 0.9510
1147.262231 0.9510 0.9510 0.9510 0.9530 0.9540
1151.932232 0.9540 0.9540 0.9540 0.9560 0.9560
1156.602234 0.9560 0.9560 0.9560 0.9560 0.9540
1161.272235 0.9540 0.9540 0.9530 0.9530 0.9510
1165.942237 0.9510 0.9510 0.9510 0.9510 0.9510
1170.612238 0.9510 0.9500 0.9500 0.9500 0.9480
1175.282240 0.9470 0.9450 0.9440 0.9440 0.9440
1179.952241 0.9440 0.9450 0.9450 0.9470 0.9480
1184.622243 0.9540 0.9540 0.9540 0.9540 0.9560
1189.292245 0.9560 0.9560 0.9560 0.9560 0.9560
1193.962246 0.9560 0.9560 0.9560 0.9560 0.9560
1198.632248 0.9560 0.9560 0.9560 0.9560 0.9560
1203.302249 0.9560 0.9560 0.9540 0.9540 0.9540
1207.972251 0.9540 0.9560 0.9560 0.9560 0.9540
1212.642252 0.9540 0.9540 0.9530 0.9530 0.9530
1217.312254 0.9530 0.9540 0.9540 0.9540 0.9540
1221.982256 0.9540 0.9560 0.9560 0.9560 0.9560
1226.652257 0.9560 0.9560 0.9560 0.9560 0.9560
1231.322259 0.9560 0.9540 0.9540 0.9540 0.9510
1235.992260 0.9500 0.9480 0.9480 0.9480 0.9470
1240.662262 0.9450 0.9440 0.9420 0.9410 0.9380
1245.332263 0.9360 0.9350 0.9340 0.9340 0.9320
1250.002265 0.9310 0.9280 0.9260 0.9260 0.9250
1254.672267 0.9220 0.9190 0.9160 0.9140 0.9140
1259.342268 0.9100 0.9060 0.9030 0.8950 0.8940
1264.012270 0.8920 0.8810 0.8720 0.8650 0.8570
1268.682271 0.8540 0.8440 0.8320 0.8150 0.7941
1273.352273 0.7780 0.7630 0.7430 0.7250 0.7110
1278.022274 0.6950 0.6800 0.6580 0.6341 0.5931
1282.692276 0.5699 0.5459 0.5140 0.5020 0.4690
1287.362278 0.4380 0.4260 0.4120 0.4040 0.3970
1292.032279 0.3820 0.3660 0.3660 0.3690 0.3750
1296.702281 0.3810 0.3880 0.4060 0.4479 0.4749
1301.372282 0.4751 0.5231 0.5702 0.7110 0.7110
1306.042284 0.6650 0.6181 0.4293 0.4290 0.6045
1310.712285 0.6209 0.5768 0.4800 0.4480 0.4120
1315.382287 0.3750 0.3400 0.3101 0.2930 0.2840
1320.052289 0.2820 0.2840 0.2940 0.3040 0.3220
1324.722290 0.3410 0.3570 0.4309 0.4529 0.4799
1329.392292 0.5021 0.5551 0.6180 0.6490 0.7000
1334.062293 0.7330 0.7799 0.8339 0.8589 0.8869
1338.732295 0.8999 0.8730 0.8620 0.8620 0.9120
1343.402296 0.9120 0.9200 0.9290 0.9360 0.9390
1348.072298 0.9420 0.9450 0.9420 0.9410 0.9390
1352.742300 0.8970 0.8920 0.8970 0.9040 0.9060
1357.412301 0.9160 0.9190 0.9200 0.9220 0.9200
1362.082303 0.9200 0.9200 0.9160 0.9090 0.8193
1366.752304 0.8160 0.8181 0.8820 0.9010 0.9040
1371.422306 0.9030 0.9000 0.8950 0.8980 0.8980
1376.092307 0.8980 0.8970 0.8898 0.7530 0.6900
1380.762309 0.6270 0.8917 0.8920 0.8750 0.8620
1385.432310 0.8590 0.8590 0.8590 0.8620 0.8720
1390.102312 0.7501 0.7080 0.7080 0.7878 0.8837
1394.772314 0.8940 0.8940 0.8910 0.8850 0.8820
1399.442315 0.8780 0.7122 0.6930 0.6740 0.6371
1404.112317 0.7503 0.8590 0.8680 0.8810 0.8820
1408.782318 0.8810 0.8780 0.8750 0.8700 0.8620
1413.452320 0.8540 0.8459 0.7969 0.7409 0.6070
1418.122321 0.4701 0.8875 0.8840 0.8820 0.8820
1422.792323 0.8790 0.8720 0.8630 0.8560 0.8540
1427.462325 0.7840 0.7031 0.6331 0.5632 0.8671
1432.132326 0.8660 0.8620 0.8570 0.8540 0.8540
1436.802328 0.8430 0.8370 0.7911 0.7311 0.6313
1441.472329 0.5331 0.8500 0.8650 0.8650 0.8660
1446.142331 0.8660 0.8660 0.8380 0.7371 0.6861
1450.812332 0.6336 0.5320 0.5328 0.8510 0.8620
1455.482334 0.8620 0.8600 0.8540 0.8530 0.8530
1460.152336 0.8500 0.8370 0.8370 0.8238 0.6868
1464.822337 0.5492 0.8320 0.8350 0.8470 0.8510
1469.492339 0.8510 0.8510 0.8510 0.8470 0.8400
1474.162340 0.8380 0.8290 0.8070 0.6931 0.5772
1478.832342 0.8530 0.8600 0.8630 0.8690 0.8730
1483.502343 0.8750 0.8750 0.8750 0.7841 0.6922
1488.172345 0.6180 0.6146 0.4759 0.8530 0.8620
1492.842347 0.8620 0.8600 0.8600 0.8570 0.8540
1497.512348 0.8530 0.8538 0.7998 0.7058 0.6113
1502.182350 0.8620 0.8630 0.8650 0.8660 0.8660
1506.852351 0.8680 0.8680 0.8720 0.8718 0.7739
1511.522353 0.6741 0.8810 0.8900 0.8940 0.8910
1516.192354 0.8910 0.8910 0.8900 0.8780 0.8780
1520.862356 0.9009 0.7820 0.6621 0.8997 0.9140
1525.532358 0.9139 0.8920 0.8850 0.8850 0.8850
1530.202359 0.8870 0.9000 0.9000 0.8660 0.8351
1534.872361 0.8353 0.9060 0.9120 0.9070 0.9030
1539.542362 0.9000 0.8940 0.9060 0.9090 0.9090
1544.212364 0.8700 0.8590 0.8701 0.9200 0.9340
1548.882365 0.9340 0.9320 0.9290 0.9290 0.9280
1553.552367 0.9280 0.9290 0.9310 0.9320 0.9320
1558.222369 0.9340 0.9340 0.9310 0.9260 0.9250
1562.892370 0.9230 0.9200 0.9190 0.9200 0.9250
1567.562372 0.9290 0.9360 0.9380 0.9390 0.9390
1572.232373 0.9350 0.9340 0.9340 0.9320 0.9320
1576.902375 0.9340 0.9350 0.9390 0.9470 0.9480
1581.572376 0.9480 0.9470 0.9450 0.9450 0.9450
1586.242378 0.9450 0.9450 0.9470 0.9480 0.9500
1590.912379 0.9510 0.9510 0.9500 0.9480 0.9470
1595.582381 0.9470 0.9480 0.9480 0.9500 0.9500
1600.252383 0.9510 0.9530 0.9540 0.9560 0.9560
1604.922384 0.9560 0.9560 0.9560 0.9560 0.9560
1609.592386 0.9560 0.9560 0.9560 0.9540 0.9530
1614.262387 0.9510 0.9500 0.9500 0.9500 0.9510
1618.932389 0.9530 0.9530 0.9560 0.9570 0.9570
1623.602390 0.9580 0.9580 0.9580 0.9580 0.9580
1628.272392 0.9580 0.9570 0.9570 0.9570 0.9570
1632.942394 0.9570 0.9570 0.9570 0.9570 0.9580
1637.612395 0.9580 0.9580 0.9580 0.9580 0.9580
1642.282397 0.9580 0.9580 0.9580 0.9580 0.9580
1646.952398 0.9580 0.9580 0.9580 0.9570 0.9560
1651.622400 0.9500 0.9500 0.9500 0.9510 0.9560
1656.292401 0.9580 0.9610 0.9610 0.9610 0.9610
1660.962403 0.9600 0.9580 0.9580 0.9580 0.9580
1665.632405 0.9580 0.9580 0.9580 0.9580 0.9580
1670.302406 0.9580 0.9580 0.9580 0.9580 0.9580
1674.972408 0.9580 0.9580 0.9580 0.9580 0.9580
1679.642409 0.9570 0.9560 0.9560 0.9540 0.9540
1684.312411 0.9560 0.9560 0.9570 0.9570 0.9580
1688.982412 0.9580 0.9580 0.9570 0.9560 0.9560
1693.652414 0.9560 0.9540 0.9540 0.9560 0.9560
1698.322416 0.9560 0.9560 0.9570 0.9570 0.9570
1702.992417 0.9580 0.9580 0.9580 0.9580 0.9580
1707.662419 0.9580 0.9580 0.9580 0.9580 0.9570
1712.332420 0.9570 0.9570 0.9570 0.9560 0.9560
1717.002422 0.9560 0.9570 0.9570 0.9560 0.9560
1721.672423 0.9560 0.9570 0.9560 0.9570 0.9570
1726.342425 0.9560 0.9560 0.9560 0.9560 0.9560
1731.012427 0.9560 0.9560 0.9570 0.9560 0.9560
1735.682428 0.9560 0.9560 0.9560 0.9560 0.9560
1740.352430 0.9560 0.9570 0.9570 0.9570 0.9570
1745.022431 0.9570 0.9570 0.9570 0.9570 0.9570
1749.692433 0.9570 0.9570 0.9580 0.9580 0.9580
1754.362434 0.9580 0.9580 0.9580 0.9580 0.9580
1759.032436 0.9580 0.9570 0.9570 0.9570 0.9580
1763.702437 0.9570 0.9570 0.9570 0.9570 0.9570
1768.372439 0.9570 0.9570 0.9570 0.9570 0.9570
1773.042441 0.9570 0.9570 0.9580 0.9580 0.9580
1777.712442 0.9580 0.9610 0.9610 0.9610 0.9600
1782.382444 0.9580 0.9580 0.9580 0.9580 0.9570
1787.052445 0.9570 0.9570 0.9570 0.9570 0.9570
1791.722447 0.9580 0.9600 0.9610 0.9610 0.9610
1796.392448 0.9610 0.9610 0.9610 0.9600 0.9580
1801.062450 0.9580 0.9600 0.9610 0.9610 0.9610
1805.732452 0.9610 0.9610 0.9610 0.9610 0.9610
1810.402453 0.9610 0.9610 0.9610 0.9610 0.9610
1815.072455 0.9610 0.9610 0.9610 0.9610 0.9610
1819.742456 0.9610 0.9610 0.9610 0.9610 0.9610
1824.412458 0.9610 0.9610 0.9610 0.9600 0.9580
1829.082459 0.9580 0.9580 0.9580 0.9580 0.9580
1833.752461 0.9580 0.9580 0.9580 0.9580 0.9580
1838.422463 0.9580 0.9580 0.9580 0.9580 0.9580
1843.092464 0.9580 0.9610 0.9610 0.9610 0.9610
1847.762466 0.9610 0.9610 0.9630 0.9610 0.9570
1852.432467 0.9630 0.9610 0.9610 0.9610 0.9610
1857.102469 0.9610 0.9610 0.9600 0.9600 0.9580
1861.772470 0.9580 0.9580 0.9580 0.9580 0.9580
1866.442472 0.9580 0.9580 0.9580 0.9580 0.9580
1871.112474 0.9580 0.9580 0.9580 0.9580 0.9580
1875.782475 0.9580 0.9580 0.9580 0.9580 0.9580
1880.452477 0.9580 0.9570 0.9570 0.9570 0.9570
1885.122478 0.9560 0.9560 0.9560 0.9540 0.9540
1889.792480 0.9540 0.9540 0.9540 0.9540 0.9540
1894.462481 0.9540 0.9560 0.9560 0.9560 0.9570
1899.132483 0.9560 0.9570 0.9570 0.9560 0.9560
1903.802485 0.9560 0.9560 0.9560 0.9560 0.9560
1908.472486 0.9560 0.9560 0.9560 0.9560 0.9560
1913.142488 0.9560 0.9540 0.9540 0.9530 0.9530
1917.812489 0.9530 0.9530 0.9530 0.9530 0.9530
1922.482491 0.9530 0.9530 0.9530 0.9530 0.9540
1927.152492 0.9540 0.9560 0.9570 0.9570 0.9570
1931.822494 0.9580 0.9580 0.9580 0.9580 0.9580
1936.492496 0.9580 0.9580 0.9580 0.9580 0.9580
1941.162497 0.9580 0.9580 0.9580 0.9580 0.9580
1945.832499 0.9580 0.9580 0.9580 0.9580 0.9580
1950.502500 0.9580 0.9580 0.9570 0.9570 0.9570
1955.172502 0.9540 0.9540 0.9540 0.9540 0.9560
1959.842503 0.9570 0.9580 0.9600 0.9610 0.9630
1964.512505 0.9630 0.9630 0.9630 0.9630 0.9630
1969.182506 0.9630 0.9630 0.9630 0.9630 0.9630
1973.852508 0.9630 0.9630 0.9630 0.9630 0.9630
1978.522510 0.9630 0.9630 0.9630 0.9630 0.9630
1983.192511 0.9630 0.9640 0.9640 0.9640 0.9640
1987.862513 0.9640 0.9640 0.9640 0.9640 0.9640
1992.532514 0.9640 0.9640 0.9640 0.9640 0.9640
1997.202516 0.9640 0.9640 0.9660 0.9670 0.9670
2001.872517 0.9670 0.9680 0.9690 0.9690 0.9690
2006.542519 0.9690 0.9690 0.9690 0.9690 0.9690
2011.212521 0.9690 0.9695 0.9700 0.9695 0.9690
2015.882522 0.9690 0.9690 0.9690 0.9690 0.9690
2020.552524 0.9690 0.9690 0.9690 0.9680 0.9670
2025.222525 0.9670 0.9670 0.9670 0.9670 0.9670
2029.892527 0.9670 0.9670 0.9670 0.9670 0.9670
2034.562528 0.9670 0.9670 0.9670 0.9670 0.9670
2039.232530 0.9670 0.9665 0.9660 0.9660 0.9660
2043.902532 0.9665 0.9670 0.9670 0.9670 0.9680
2048.572533 0.9690 0.9690 0.9690 0.9690 0.9690
2053.242535 0.9695 0.9700 0.9700 0.9700 0.9700
2057.912536 0.9700 0.9700 0.9700 0.9700 0.9700
2062.582538 0.9700 0.9700 0.9700 0.9700 0.9700
2067.252539 0.9700 0.9700 0.9700 0.9700 0.9700
2071.922541 0.9700 0.9700 0.9700 0.9700 0.9700
2076.592543 0.9700 0.9700 0.9700 0.9700 0.9700
2081.262544 0.9700 0.9700 0.9700 0.9700 0.9695
2085.932546 0.9690 0.9690 0.9690 0.9695 0.9700
2090.602547 0.9700 0.9700 0.9700 0.9700 0.9700
2095.272549 0.9700 0.9700 0.9700 0.9700 0.9700
2099.942550 0.9700 0.9700 0.9700 0.9700 0.9695
2104.612552 0.9690 0.9690 0.9690 0.9690 0.9690
2109.282554 0.9695 0.9700 0.9700 0.9700 0.9700
2113.952555 0.9700 0.9695 0.9690 0.9690 0.9690
2118.622557 0.9690 0.9690 0.9690 0.9690 0.9690
2123.292558 0.9690 0.9690 0.9690 0.9695 0.9700
2127.962560 0.9700 0.9700 0.9695 0.9690 0.9690
2132.632561 0.9690 0.9695 0.9700 0.9700 0.9700
2137.302563 0.9700 0.9700 0.9709 0.9719 0.9720
2141.972565 0.9720 0.9720 0.9720 0.9720 0.9720
2146.642566 0.9720 0.9720 0.9711 0.9701 0.9700
2151.312568 0.9700 0.9700 0.9700 0.9709 0.9719
2155.982569 0.9711 0.9701 0.9700 0.9700 0.9700
2160.652571 0.9700 0.9700 0.9700 0.9700 0.9700
2165.322572 0.9700 0.9700 0.9700 0.9700 0.9700
2169.992574 0.9700 0.9700 0.9700 0.9700 0.9700
2174.662575 0.9700 0.9700 0.9700 0.9700 0.9696
2179.332577 0.9691 0.9690 0.9690 0.9690 0.9690
2184.002579 0.9690 0.9690 0.9690 0.9690 0.9690
2188.672580 0.9690 0.9690 0.9690 0.9677 0.9662
2193.342582 0.9660 0.9660 0.9664 0.9669 0.9670
2198.012583 0.9670 0.9670 0.9670 0.9666 0.9661
2202.682585 0.9660 0.9660 0.9660 0.9660 0.9660
2207.352586 0.9660 0.9660 0.9660 0.9660 0.9660
2212.022588 0.9651 0.9641 0.9640 0.9640 0.9640
2216.692590 0.9640 0.9640 0.9640 0.9640 0.9640
2221.362591 0.9640 0.9640 0.9640 0.9640 0.9636
2226.032593 0.9631 0.9630 0.9630 0.9622 0.9612
2230.702594 0.9610 0.9610 0.9610 0.9610 0.9606
2235.372596 0.9601 0.9600 0.9600 0.9592 0.9582
2240.042597 0.9580 0.9580 0.9580 0.9580 0.9580
2244.712599 0.9580 0.9580 0.9580 0.9580 0.9580
2249.382601 0.9588 0.9598 0.9600 0.9600 0.9588
2254.052602 0.9573 0.9570 0.9570 0.9570 0.9570
2258.722604 0.9570 0.9570 0.9570 0.9570 0.9574
2263.392605 0.9579 0.9588 0.9598 0.9600 0.9600
2268.062607 0.9600 0.9600 0.9600 0.9600 0.9600
2272.732608 0.9600 0.9592 0.9582 0.9580 0.9580
2277.402610 0.9580 0.9580 0.9580 0.9580 0.9580
2282.072612 0.9580 0.9580 0.9580 0.9580 0.9580
2286.742613 0.9580 0.9580 0.9592 0.9607 0.9618
2291.412615 0.9628 0.9634 0.9639 0.9648 0.9658
2296.082616 0.9660 0.9660 0.9660 0.9660 0.9660
2300.752618 0.9660 0.9660 0.9660 0.9660 0.9660
2305.422619 0.9664 0.9669 0.9670 0.9670 0.9670
2310.092621 0.9670 0.9670 0.9670 0.9678 0.9688
2314.762623 0.9682 0.9672 0.9670 0.9670 0.9678
2319.432624 0.9688 0.9690 0.9690 0.9690 0.9690
2324.102626 0.9694 0.9699 0.9700 0.9700 0.9700
2328.772627 0.9700 0.9696 0.9691 0.9690 0.9690
2333.442629 0.9690 0.9690 0.9690 0.9690 0.9682
2338.112630 0.9672 0.9670 0.9670 0.9666 0.9661
2342.782632 0.9660 0.9660 0.9660 0.9660 0.9660
2347.452634 0.9660 0.9652 0.9642 0.9640 0.9640
2352.122635 0.9640 0.9640 0.9640 0.9640 0.9640
2356.792637 0.9640 0.9640 0.9640 0.9640 0.9640
