##TITLE=Methane, dibromo-
##JCAMP-DX=4.24
##DATA TYPE=INFRARED SPECTRUM
##CLASS=COBLENTZ
##ORIGIN=DOW CHEMICAL COMPANY
##OWNER=Copyright (C) 1987 by the Coblentz Society
Collection (C) 2018 copyright by the U.S. Secretary of Commerce
on behalf of the United States of America. All rights reserved.
##DATE=1964
##NAMES=dibromomethane
METHYLENE BROMIDE
##CAS REGISTRY NO=74-95-3
##MOLFORM=C H2 Br2
##SOURCE REFERENCE=COBLENTZ NO. 8828
##$NIST SOURCE=COBLENTZ
##$NIST IMAGE=cob8828
##SPECTROMETER/DATA SYSTEM=DOW KBr FOREPRISM-GRATING
##INSTRUMENT PARAMETERS=GRATING CHANGED AT 5.0, 7.5, 15.0 MICRON
##STATE=GAS (30 mmHg, N2 ADDED, TOTAL PRESSURE 600 mmHg)
##PATH LENGTH=5 CM
##SAMPLING PROCEDURE=TRANSMISSION
##RESOLUTION=2
##DATA PROCESSING=DIGITIZED BY COBLENTZ SOCIETY (BATCH II) FROM HARD COPY
##XUNITS=1/CM
##YUNITS=TRANSMITTANCE
##XFACTOR=1.0
##YFACTOR=1
##FIRSTX=453
##LASTX=3786
##FIRSTY=0.8242
##MAXX=3786
##MINX=453
##MAXY=0.8737
##MINY=0.0698
##NPOINTS=3334
##XYDATA=(X++(Y..Y))
453.000000 0.8242 0.8243 0.8244 0.8245 0.8243
458.000000 0.8242 0.8240 0.8239 0.8238 0.8238
463.000000 0.8238 0.8238 0.8239 0.8239 0.8239
468.000000 0.8240 0.8240 0.8240 0.8241 0.8242
473.000000 0.8245 0.8248 0.8251 0.8254 0.8257
478.000000 0.8260 0.8263 0.8266 0.8269 0.8273
483.000000 0.8277 0.8281 0.8286 0.8290 0.8294
488.000000 0.8298 0.8302 0.8306 0.8306 0.8306
493.000000 0.8306 0.8306 0.8306 0.8306 0.8303
498.000000 0.8299 0.8295 0.8292 0.8288 0.8285
503.000000 0.8283 0.8284 0.8284 0.8285 0.8285
508.000000 0.8286 0.8286 0.8288 0.8293 0.8297
513.000000 0.8302 0.8307 0.8310 0.8311 0.8312
518.000000 0.8313 0.8314 0.8315 0.8316 0.8317
523.000000 0.8316 0.8312 0.8309 0.8306 0.8303
528.000000 0.8300 0.8297 0.8294 0.8291 0.8286
533.000000 0.8282 0.8277 0.8273 0.8268 0.8263
538.000000 0.8259 0.8254 0.8250 0.8245 0.8240
543.000000 0.8236 0.8231 0.8227 0.8222 0.8218
548.000000 0.8214 0.8209 0.8205 0.8201 0.8196
553.000000 0.8192 0.8187 0.8183 0.8176 0.8168
558.000000 0.8160 0.8151 0.8143 0.8135 0.8126
563.000000 0.8118 0.8109 0.8101 0.8090 0.8080
568.000000 0.8070 0.8060 0.8050 0.8039 0.8026
573.000000 0.8021 0.8028 0.8034 0.8040 0.8048
578.000000 0.8060 0.8072 0.8091 0.8112 0.8123
583.000000 0.8129 0.8120 0.8092 0.8055 0.7991
588.000000 0.7949 0.7947 0.7952 0.7996 0.8046
593.000000 0.8089 0.8119 0.8133 0.8144 0.8154
598.000000 0.8163 0.8168 0.8173 0.8179 0.8183
603.000000 0.8187 0.8191 0.8195 0.8199 0.8202
608.000000 0.8205 0.8208 0.8211 0.8213 0.8215
613.000000 0.8216 0.8217 0.8217 0.8218 0.8215
618.000000 0.8207 0.8200 0.8192 0.8169 0.8144
623.000000 0.8106 0.8068 0.8037 0.8006 0.7972
628.000000 0.7926 0.7880 0.7834 0.7756 0.7669
633.000000 0.7582 0.7460 0.7338 0.5744 0.5225
638.000000 0.4705 0.4184 0.3664 0.3143 0.2622
643.000000 0.2102 0.1581 0.1060 0.0702 0.0706
648.000000 0.0741 0.0859 0.0977 0.1094 0.1204
653.000000 0.1206 0.1227 0.1041 0.0889 0.0736
658.000000 0.0700 0.0698 0.2463 0.4084 0.5704
663.000000 0.7325 0.8152 0.8259 0.8314 0.8355
668.000000 0.8380 0.8387 0.8406 0.8401 0.8407
673.000000 0.8411 0.8415 0.8419 0.8424 0.8426
678.000000 0.8428 0.8429 0.8431 0.8432 0.8433
683.000000 0.8433 0.8433 0.8433 0.8433 0.8433
688.000000 0.8433 0.8433 0.8432 0.8430 0.8429
693.000000 0.8427 0.8426 0.8424 0.8423 0.8421
698.000000 0.8420 0.8418 0.8418 0.8418 0.8419
703.000000 0.8420 0.8420 0.8421 0.8422 0.8422
708.000000 0.8423 0.8424 0.8425 0.8424 0.8421
713.000000 0.8418 0.8416 0.8413 0.8411 0.8407
718.000000 0.8399 0.8391 0.8383 0.8376 0.8371
723.000000 0.8366 0.8361 0.8355 0.8353 0.8350
728.000000 0.8348 0.8345 0.8343 0.8340 0.8338
733.000000 0.8335 0.8334 0.8332 0.8330 0.8328
738.000000 0.8326 0.8325 0.8324 0.8325 0.8325
743.000000 0.8326 0.8327 0.8327 0.8328 0.8329
748.000000 0.8329 0.8330 0.8331 0.8331 0.8333
753.000000 0.8335 0.8336 0.8338 0.8340 0.8342
758.000000 0.8343 0.8345 0.8347 0.8349 0.8350
763.000000 0.8352 0.8354 0.8356 0.8359 0.8361
768.000000 0.8364 0.8366 0.8368 0.8363 0.8352
773.000000 0.8342 0.8331 0.8319 0.8308 0.8296
778.000000 0.8284 0.8275 0.8265 0.8256 0.8247
783.000000 0.8237 0.8228 0.8219 0.8211 0.8203
788.000000 0.8195 0.8187 0.8179 0.8171 0.8163
793.000000 0.8153 0.8142 0.8131 0.8120 0.8112
798.000000 0.8108 0.8104 0.8101 0.8097 0.8093
803.000000 0.8125 0.8085 0.8052 0.8002 0.7953
808.000000 0.7929 0.7921 0.7978 0.8042 0.8101
813.000000 0.8122 0.8106 0.8124 0.8118 0.8112
818.000000 0.8103 0.8099 0.8099 0.8100 0.8102
823.000000 0.8106 0.8109 0.8112 0.8120 0.8128
828.000000 0.8136 0.8147 0.8158 0.8170 0.8180
833.000000 0.8191 0.8201 0.8211 0.8219 0.8227
838.000000 0.8234 0.8242 0.8250 0.8258 0.8266
843.000000 0.8276 0.8285 0.8294 0.8303 0.8313
848.000000 0.8322 0.8331 0.8340 0.8349 0.8357
853.000000 0.8366 0.8374 0.8383 0.8392 0.8404
858.000000 0.8417 0.8430 0.8443 0.8456 0.8464
863.000000 0.8470 0.8476 0.8479 0.8479 0.8479
868.000000 0.8479 0.8479 0.8479 0.8479 0.8479
873.000000 0.8479 0.8479 0.8479 0.8479 0.8479
878.000000 0.8478 0.8478 0.8477 0.8477 0.8476
883.000000 0.8476 0.8476 0.8475 0.8475 0.8474
888.000000 0.8474 0.8474 0.8473 0.8473 0.8473
893.000000 0.8472 0.8472 0.8472 0.8471 0.8471
898.000000 0.8471 0.8471 0.8471 0.8471 0.8471
903.000000 0.8471 0.8471 0.8471 0.8471 0.8471
908.000000 0.8471 0.8471 0.8471 0.8471 0.8471
913.000000 0.8470 0.8471 0.8471 0.8471 0.8471
918.000000 0.8471 0.8472 0.8472 0.8472 0.8472
923.000000 0.8473 0.8473 0.8473 0.8473 0.8474
928.000000 0.8474 0.8474 0.8475 0.8476 0.8478
933.000000 0.8479 0.8480 0.8481 0.8483 0.8484
938.000000 0.8485 0.8486 0.8487 0.8489 0.8491
943.000000 0.8496 0.8500 0.8504 0.8508 0.8512
948.000000 0.8516 0.8520 0.8524 0.8528 0.8532
953.000000 0.8535 0.8536 0.8536 0.8537 0.8537
958.000000 0.8538 0.8538 0.8539 0.8539 0.8540
963.000000 0.8541 0.8541 0.8542 0.8543 0.8543
968.000000 0.8544 0.8545 0.8545 0.8546 0.8547
973.000000 0.8547 0.8548 0.8549 0.8549 0.8550
978.000000 0.8551 0.8551 0.8552 0.8553 0.8553
983.000000 0.8554 0.8555 0.8556 0.8556 0.8557
988.000000 0.8558 0.8558 0.8559 0.8560 0.8561
993.000000 0.8561 0.8562 0.8563 0.8564 0.8564
998.000000 0.8565 0.8566 0.8568 0.8570 0.8572
1003.000000 0.8574 0.8575 0.8577 0.8579 0.8581
1008.000000 0.8583 0.8585 0.8586 0.8588 0.8588
1013.000000 0.8589 0.8589 0.8590 0.8590 0.8590
1018.000000 0.8591 0.8591 0.8591 0.8592 0.8595
1023.000000 0.8599 0.8602 0.8605 0.8609 0.8615
1028.000000 0.8632 0.8648 0.8664 0.8680 0.8680
1033.000000 0.8670 0.8653 0.8636 0.8619 0.8601
1038.000000 0.8596 0.8592 0.8588 0.8585 0.8582
1043.000000 0.8581 0.8579 0.8577 0.8575 0.8574
1048.000000 0.8572 0.8572 0.8572 0.8572 0.8572
1053.000000 0.8572 0.8572 0.8571 0.8570 0.8568
1058.000000 0.8567 0.8566 0.8564 0.8563 0.8562
1063.000000 0.8560 0.8558 0.8556 0.8554 0.8552
1068.000000 0.8550 0.8548 0.8546 0.8544 0.8540
1073.000000 0.8537 0.8533 0.8529 0.8526 0.8527
1078.000000 0.8531 0.8534 0.8538 0.8541 0.8544
1083.000000 0.8546 0.8549 0.8552 0.8559 0.8567
1088.000000 0.8574 0.8582 0.8589 0.8597 0.8598
1093.000000 0.8599 0.8600 0.8601 0.8601 0.8598
1098.000000 0.8594 0.8589 0.8585 0.8581 0.8576
1103.000000 0.8574 0.8574 0.8574 0.8574 0.8574
1108.000000 0.8577 0.8585 0.8594 0.8602 0.8609
1113.000000 0.8616 0.8623 0.8622 0.8619 0.8615
1118.000000 0.8611 0.8599 0.8586 0.8573 0.8560
1123.000000 0.8568 0.8579 0.8592 0.8609 0.8625
1128.000000 0.8637 0.8641 0.8637 0.8623 0.8607
1133.000000 0.8591 0.8574 0.8559 0.8557 0.8556
1138.000000 0.8555 0.8555 0.8556 0.8557 0.8559
1143.000000 0.8563 0.8568 0.8572 0.8576 0.8579
1148.000000 0.8581 0.8583 0.8585 0.8587 0.8589
1153.000000 0.8592 0.8595 0.8598 0.8601 0.8604
1158.000000 0.8608 0.8613 0.8617 0.8621 0.8626
1163.000000 0.8627 0.8627 0.8627 0.8627 0.8620
1168.000000 0.8610 0.8600 0.8582 0.8561 0.8530
1173.000000 0.8496 0.8448 0.8384 0.8284 0.8095
1178.000000 0.7908 0.7795 0.7670 0.6864 0.6058
1183.000000 0.5253 0.4447 0.3641 0.2835 0.2030
1188.000000 0.1224 0.1103 0.1166 0.1726 0.2285
1193.000000 0.2844 0.3099 0.3111 0.2206 0.1682
1198.000000 0.1157 0.1007 0.0991 0.2357 0.3387
1203.000000 0.4417 0.5447 0.6477 0.7507 0.8298
1208.000000 0.8377 0.8457 0.8517 0.8568 0.8567
1213.000000 0.8572 0.8560 0.8544 0.8528 0.8511
1218.000000 0.8495 0.8469 0.8443 0.8416 0.8386
1223.000000 0.8355 0.8328 0.8304 0.8287 0.8279
1228.000000 0.8271 0.8270 0.8270 0.8270 0.8260
1233.000000 0.8211 0.8180 0.8163 0.8154 0.8162
1238.000000 0.8185 0.8220 0.8352 0.8459 0.8516
1243.000000 0.8523 0.8529 0.8529 0.8529 0.8530
1248.000000 0.8531 0.8532 0.8533 0.8534 0.8536
1253.000000 0.8537 0.8538 0.8540 0.8542 0.8543
1258.000000 0.8543 0.8542 0.8541 0.8540 0.8539
1263.000000 0.8538 0.8536 0.8535 0.8534 0.8533
1268.000000 0.8532 0.8531 0.8530 0.8529 0.8528
1273.000000 0.8527 0.8525 0.8524 0.8523 0.8521
1278.000000 0.8520 0.8518 0.8516 0.8515 0.8513
1283.000000 0.8511 0.8510 0.8508 0.8504 0.8501
1288.000000 0.8498 0.8495 0.8491 0.8488 0.8485
1293.000000 0.8482 0.8479 0.8475 0.8472 0.8468
1298.000000 0.8463 0.8457 0.8455 0.8460 0.8466
1303.000000 0.8472 0.8473 0.8473 0.8473 0.8472
1308.000000 0.8471 0.8470 0.8468 0.8467 0.8465
1313.000000 0.8464 0.8463 0.8462 0.8460 0.8459
1318.000000 0.8458 0.8457 0.8455 0.8454 0.8453
1323.000000 0.8452 0.8450 0.8449 0.8448 0.8447
1328.000000 0.8445 0.8443 0.8441 0.8439 0.8437
1333.000000 0.8435 0.8433 0.8431 0.8429 0.8427
1338.000000 0.8424 0.8421 0.8418 0.8415 0.8417
1343.000000 0.8419 0.8429 0.8440 0.8450 0.8460
1348.000000 0.8476 0.8497 0.8516 0.8534 0.8547
1353.000000 0.8552 0.8556 0.8561 0.8565 0.8567
1358.000000 0.8560 0.8553 0.8545 0.8538 0.8531
1363.000000 0.8524 0.8517 0.8508 0.8497 0.8484
1368.000000 0.8468 0.8452 0.8437 0.8428 0.8419
1373.000000 0.8411 0.8402 0.8394 0.8386 0.8381
1378.000000 0.8375 0.8370 0.8365 0.8359 0.8354
1383.000000 0.8349 0.8346 0.8344 0.8341 0.8339
1388.000000 0.8336 0.8334 0.8332 0.8329 0.8329
1393.000000 0.8329 0.8330 0.8330 0.8331 0.8331
1398.000000 0.8332 0.8331 0.8326 0.8322 0.8315
1403.000000 0.8305 0.8316 0.8341 0.8363 0.8384
1408.000000 0.8398 0.8399 0.8400 0.8401 0.8385
1413.000000 0.8369 0.8353 0.8339 0.8325 0.8315
1418.000000 0.8306 0.8297 0.8288 0.8297 0.8321
1423.000000 0.8350 0.8370 0.8368 0.8366 0.8361
1428.000000 0.8358 0.8356 0.8354 0.8352 0.8342
1433.000000 0.8323 0.8306 0.8313 0.8327 0.8351
1438.000000 0.8373 0.8385 0.8385 0.8379 0.8373
1443.000000 0.8368 0.8362 0.8362 0.8363 0.8365
1448.000000 0.8367 0.8368 0.8356 0.8299 0.8213
1453.000000 0.8142 0.8154 0.8162 0.8209 0.8254
1458.000000 0.8292 0.8312 0.8331 0.8337 0.8343
1463.000000 0.8349 0.8355 0.8361 0.8367 0.8365
1468.000000 0.8353 0.8324 0.8295 0.8249 0.8213
1473.000000 0.8252 0.8284 0.8299 0.8314 0.8323
1478.000000 0.8325 0.8326 0.8328 0.8329 0.8330
1483.000000 0.8322 0.8314 0.8304 0.8295 0.8285
1488.000000 0.8286 0.8298 0.8312 0.8331 0.8343
1493.000000 0.8331 0.8308 0.8253 0.8215 0.8243
1498.000000 0.8271 0.8300 0.8327 0.8341 0.8042
1503.000000 0.7982 0.7988 0.8008 0.7986 0.8145
1508.000000 0.8226 0.8281 0.8302 0.8304 0.8300
1513.000000 0.8296 0.8292 0.8288 0.8282 0.8267
1518.000000 0.8252 0.8237 0.8208 0.8193 0.8212
1523.000000 0.8226 0.8242 0.8262 0.8284 0.8306
1528.000000 0.8313 0.8317 0.8269 0.8199 0.8204
1533.000000 0.8242 0.8277 0.8305 0.8334 0.8359
1538.000000 0.7976 0.7971 0.8029 0.7978 0.8135
1543.000000 0.8189 0.8244 0.8272 0.8297 0.8310
1548.000000 0.8316 0.8322 0.8323 0.8320 0.8316
1553.000000 0.8293 0.8261 0.8211 0.8156 0.7957
1558.000000 0.8009 0.7946 0.8131 0.8192 0.8253
1563.000000 0.8312 0.8349 0.8357 0.8353 0.8347
1568.000000 0.8332 0.8310 0.8313 0.8334 0.8338
1573.000000 0.8220 0.8169 0.8175 0.8223 0.8273
1578.000000 0.8322 0.8358 0.8386 0.8388 0.8390
1583.000000 0.8392 0.8394 0.8397 0.8397 0.8395
1588.000000 0.8393 0.8391 0.8390 0.8388 0.8386
1593.000000 0.8384 0.8383 0.8382 0.8383 0.8384
1598.000000 0.8386 0.8387 0.8388 0.8389 0.8389
1603.000000 0.8385 0.8381 0.8377 0.8373 0.8369
1608.000000 0.8365 0.8361 0.8357 0.8346 0.8230
1613.000000 0.8161 0.8208 0.8270 0.8313 0.8356
1618.000000 0.8377 0.8376 0.8374 0.8371 0.8366
1623.000000 0.8360 0.8363 0.8371 0.8379 0.8387
1628.000000 0.8395 0.8361 0.8316 0.8271 0.8226
1633.000000 0.8180 0.8195 0.8230 0.8270 0.8311
1638.000000 0.8347 0.8370 0.8392 0.8290 0.8223
1643.000000 0.8191 0.8205 0.8232 0.8259 0.8289
1648.000000 0.8318 0.8348 0.7882 0.7963 0.8067
1653.000000 0.8245 0.8358 0.8369 0.8362 0.8357
1658.000000 0.8352 0.8350 0.8354 0.8387 0.8392
1663.000000 0.8386 0.8381 0.8357 0.8322 0.8278
1668.000000 0.8241 0.8222 0.8228 0.8234 0.8246
1673.000000 0.8265 0.8286 0.8313 0.8338 0.8358
1678.000000 0.8364 0.8317 0.8197 0.8077 0.8009
1683.000000 0.8092 0.8204 0.8316 0.8363 0.8371
1688.000000 0.8379 0.8375 0.8369 0.8340 0.8255
1693.000000 0.8178 0.8113 0.8036 0.8044 0.8055
1698.000000 0.8065 0.8077 0.8115 0.8188 0.8275
1703.000000 0.8345 0.8363 0.8379 0.8382 0.8381
1708.000000 0.8380 0.8363 0.8321 0.8263 0.8146
1713.000000 0.8142 0.8146 0.8181 0.8228 0.8277
1718.000000 0.8325 0.8370 0.8393 0.8398 0.8397
1723.000000 0.8396 0.8395 0.8391 0.8386 0.8367
1728.000000 0.8318 0.8260 0.8189 0.8125 0.8167
1733.000000 0.8220 0.8265 0.8305 0.8324 0.8342
1738.000000 0.8349 0.8371 0.8369 0.8368 0.8358
1743.000000 0.8336 0.8321 0.8312 0.8304 0.8305
1748.000000 0.8311 0.8318 0.8334 0.8346 0.8351
1753.000000 0.8354 0.8348 0.8343 0.8340 0.8338
1758.000000 0.8335 0.8333 0.8330 0.8328 0.8325
1763.000000 0.8310 0.8294 0.8278 0.8260 0.8234
1768.000000 0.8209 0.8200 0.8200 0.8215 0.8238
1773.000000 0.8268 0.8305 0.8329 0.8339 0.8339
1778.000000 0.8339 0.8338 0.8335 0.8332 0.8329
1783.000000 0.8326 0.8321 0.8317 0.8312 0.8288
1788.000000 0.8264 0.8245 0.8233 0.8233 0.8247
1793.000000 0.8267 0.8292 0.8315 0.8329 0.8333
1798.000000 0.8336 0.8339 0.8341 0.8343 0.8345
1803.000000 0.8346 0.8348 0.8349 0.8351 0.8353
1808.000000 0.8355 0.8357 0.8360 0.8362 0.8364
1813.000000 0.8365 0.8363 0.8361 0.8360 0.8358
1818.000000 0.8355 0.8351 0.8348 0.8344 0.8341
1823.000000 0.8337 0.8334 0.8335 0.8335 0.8336
1828.000000 0.8336 0.8337 0.8337 0.8338 0.8341
1833.000000 0.8343 0.8344 0.8334 0.8323 0.8310
1838.000000 0.8296 0.8288 0.8288 0.8290 0.8318
1843.000000 0.8340 0.8356 0.8367 0.8373 0.8379
1848.000000 0.8384 0.8383 0.8382 0.8381 0.8379
1853.000000 0.8376 0.8374 0.8371 0.8369 0.8366
1858.000000 0.8363 0.8358 0.8352 0.8347 0.8341
1863.000000 0.8336 0.8331 0.8336 0.8345 0.8354
1868.000000 0.8362 0.8365 0.8368 0.8372 0.8374
1873.000000 0.8376 0.8378 0.8379 0.8379 0.8379
1878.000000 0.8379 0.8379 0.8379 0.8379 0.8379
1883.000000 0.8379 0.8379 0.8377 0.8376 0.8374
1888.000000 0.8372 0.8370 0.8369 0.8367 0.8365
1893.000000 0.8363 0.8362 0.8360 0.8358 0.8356
1898.000000 0.8353 0.8351 0.8349 0.8347 0.8344
1903.000000 0.8342 0.8340 0.8337 0.8334 0.8330
1908.000000 0.8327 0.8324 0.8321 0.8319 0.8318
1913.000000 0.8316 0.8314 0.8314 0.8320 0.8326
1918.000000 0.8333 0.8340 0.8348 0.8356 0.8364
1923.000000 0.8371 0.8372 0.8373 0.8375 0.8376
1928.000000 0.8377 0.8378 0.8376 0.8374 0.8372
1933.000000 0.8370 0.8370 0.8369 0.8368 0.8368
1938.000000 0.8367 0.8366 0.8367 0.8368 0.8369
1943.000000 0.8370 0.8371 0.8371 0.8372 0.8373
1948.000000 0.8374 0.8375 0.8376 0.8377 0.8378
1953.000000 0.8379 0.8380 0.8381 0.8382 0.8383
1958.000000 0.8384 0.8385 0.8386 0.8387 0.8388
1963.000000 0.8389 0.8390 0.8391 0.8392 0.8392
1968.000000 0.8393 0.8394 0.8395 0.8396 0.8397
1973.000000 0.8398 0.8399 0.8400 0.8400 0.8401
1978.000000 0.8401 0.8401 0.8401 0.8402 0.8402
1983.000000 0.8402 0.8402 0.8403 0.8403 0.8403
1988.000000 0.8403 0.8404 0.8404 0.8404 0.8405
1993.000000 0.8406 0.8406 0.8407 0.8408 0.8409
1998.000000 0.8410 0.8410 0.8411 0.8412 0.8413
2003.000000 0.8413 0.8414 0.8414 0.8415 0.8415
2008.000000 0.8416 0.8416 0.8417 0.8417 0.8418
2013.000000 0.8418 0.8419 0.8420 0.8421 0.8421
2018.000000 0.8422 0.8422 0.8423 0.8423 0.8424
2023.000000 0.8424 0.8425 0.8425 0.8426 0.8426
2028.000000 0.8427 0.8427 0.8428 0.8428 0.8429
2033.000000 0.8429 0.8430 0.8430 0.8430 0.8429
2038.000000 0.8429 0.8429 0.8429 0.8428 0.8428
2043.000000 0.8428 0.8428 0.8427 0.8427 0.8427
2048.000000 0.8427 0.8426 0.8426 0.8426 0.8426
2053.000000 0.8425 0.8425 0.8425 0.8425 0.8425
2058.000000 0.8425 0.8424 0.8424 0.8424 0.8424
2063.000000 0.8423 0.8423 0.8423 0.8423 0.8422
2068.000000 0.8422 0.8422 0.8423 0.8423 0.8423
2073.000000 0.8423 0.8423 0.8423 0.8423 0.8423
2078.000000 0.8424 0.8424 0.8424 0.8424 0.8424
2083.000000 0.8424 0.8425 0.8425 0.8425 0.8425
2088.000000 0.8425 0.8425 0.8425 0.8425 0.8426
2093.000000 0.8426 0.8426 0.8425 0.8425 0.8425
2098.000000 0.8425 0.8425 0.8425 0.8425 0.8425
2103.000000 0.8424 0.8424 0.8424 0.8424 0.8424
2108.000000 0.8424 0.8424 0.8424 0.8423 0.8423
2113.000000 0.8423 0.8423 0.8423 0.8423 0.8423
2118.000000 0.8423 0.8422 0.8422 0.8422 0.8422
2123.000000 0.8422 0.8422 0.8422 0.8422 0.8421
2128.000000 0.8421 0.8420 0.8420 0.8420 0.8420
2133.000000 0.8419 0.8419 0.8418 0.8418 0.8417
2138.000000 0.8417 0.8417 0.8417 0.8416 0.8416
2143.000000 0.8415 0.8415 0.8414 0.8414 0.8414
2148.000000 0.8414 0.8413 0.8413 0.8412 0.8412
2153.000000 0.8412 0.8412 0.8411 0.8411 0.8410
2158.000000 0.8410 0.8410 0.8410 0.8409 0.8409
2163.000000 0.8408 0.8407 0.8406 0.8406 0.8405
2168.000000 0.8405 0.8404 0.8404 0.8403 0.8403
2173.000000 0.8402 0.8401 0.8398 0.8395 0.8392
2178.000000 0.8390 0.8387 0.8384 0.8381 0.8378
2183.000000 0.8375 0.8372 0.8369 0.8367 0.8364
2188.000000 0.8362 0.8359 0.8357 0.8354 0.8352
2193.000000 0.8349 0.8347 0.8345 0.8343 0.8342
2198.000000 0.8342 0.8341 0.8341 0.8341 0.8341
2203.000000 0.8340 0.8340 0.8341 0.8343 0.8345
2208.000000 0.8348 0.8350 0.8352 0.8354 0.8356
2213.000000 0.8358 0.8361 0.8364 0.8367 0.8370
2218.000000 0.8373 0.8376 0.8379 0.8382 0.8385
2223.000000 0.8388 0.8392 0.8396 0.8401 0.8405
2228.000000 0.8409 0.8413 0.8417 0.8421 0.8425
2233.000000 0.8428 0.8431 0.8434 0.8438 0.8441
2238.000000 0.8444 0.8447 0.8451 0.8454 0.8458
2243.000000 0.8461 0.8464 0.8467 0.8471 0.8473
2248.000000 0.8476 0.8477 0.8479 0.8480 0.8482
2253.000000 0.8483 0.8485 0.8486 0.8487 0.8487
2258.000000 0.8488 0.8488 0.8489 0.8489 0.8490
2263.000000 0.8490 0.8491 0.8491 0.8492 0.8492
2268.000000 0.8493 0.8493 0.8493 0.8493 0.8493
2273.000000 0.8493 0.8493 0.8493 0.8493 0.8493
2278.000000 0.8493 0.8493 0.8493 0.8493 0.8493
2283.000000 0.8493 0.8493 0.8493 0.8493 0.8493
2288.000000 0.8493 0.8493 0.8493 0.8493 0.8493
2293.000000 0.8493 0.8493 0.8493 0.8493 0.8493
2298.000000 0.8493 0.8493 0.8493 0.8493 0.8493
2303.000000 0.8493 0.8493 0.8493 0.8493 0.8493
2308.000000 0.8493 0.8493 0.8493 0.8493 0.8493
2313.000000 0.8493 0.8493 0.8493 0.8493 0.8493
2318.000000 0.8493 0.8493 0.8493 0.8493 0.8493
2323.000000 0.8493 0.8493 0.8492 0.8492 0.8491
2328.000000 0.8490 0.8489 0.8488 0.8487 0.8487
2333.000000 0.8486 0.8485 0.8484 0.8483 0.8482
2338.000000 0.8482 0.8481 0.8481 0.8481 0.8482
2343.000000 0.8482 0.8482 0.8482 0.8483 0.8483
2348.000000 0.8483 0.8483 0.8484 0.8484 0.8484
2353.000000 0.8484 0.8485 0.8485 0.8486 0.8486
2358.000000 0.8486 0.8486 0.8487 0.8487 0.8488
2363.000000 0.8488 0.8489 0.8490 0.8491 0.8491
2368.000000 0.8492 0.8493 0.8494 0.8495 0.8496
2373.000000 0.8497 0.8498 0.8498 0.8499 0.8500
2378.000000 0.8501 0.8502 0.8503 0.8503 0.8504
2383.000000 0.8504 0.8505 0.8505 0.8506 0.8506
2388.000000 0.8507 0.8507 0.8508 0.8508 0.8509
2393.000000 0.8509 0.8510 0.8510 0.8511 0.8511
2398.000000 0.8512 0.8512 0.8513 0.8513 0.8514
2403.000000 0.8514 0.8515 0.8515 0.8515 0.8515
2408.000000 0.8516 0.8516 0.8517 0.8517 0.8518
2413.000000 0.8518 0.8519 0.8519 0.8520 0.8520
2418.000000 0.8521 0.8521 0.8522 0.8522 0.8523
2423.000000 0.8523 0.8523 0.8523 0.8524 0.8524
2428.000000 0.8524 0.8524 0.8525 0.8525 0.8525
2433.000000 0.8525 0.8526 0.8526 0.8526 0.8526
2438.000000 0.8527 0.8527 0.8527 0.8527 0.8528
2443.000000 0.8528 0.8528 0.8528 0.8529 0.8529
2448.000000 0.8529 0.8529 0.8530 0.8530 0.8530
2453.000000 0.8530 0.8531 0.8531 0.8532 0.8532
2458.000000 0.8532 0.8532 0.8533 0.8533 0.8534
2463.000000 0.8534 0.8534 0.8534 0.8535 0.8535
2468.000000 0.8536 0.8536 0.8537 0.8537 0.8537
2473.000000 0.8537 0.8538 0.8538 0.8539 0.8539
2478.000000 0.8539 0.8539 0.8540 0.8540 0.8541
