##TITLE=Ethane, bromo-,
##JCAMP-DX=4.24
##DATA TYPE=INFRARED SPECTRUM
##CLASS=COBLENTZ III
##ORIGIN=WYANDOTTE CHEMICALS CORP.
##OWNER=Copyright (C) 1987 by the Coblentz Society
Collection (C) 2018 copyright by the U.S. Secretary of Commerce
on behalf of the United States of America. All rights reserved.
##DATE=Not specified, most likely prior to 1970
##NAMES=1-bromoethane
##CAS REGISTRY NO=74-96-4
##MOLFORM=C2 H5 Br
##BP=38 C
##SOURCE REFERENCE=COBLENTZ NO. 5930
##$NIST SOURCE=COBLENTZ
##$NIST IMAGE=cob5930
##SPECTROMETER/DATA SYSTEM=BAIRD (GRATING)
##INSTRUMENT PARAMETERS=NaCl PRISM
##STATE=LIQUID (NEAT)
##PATH LENGTH=0.0015 CM
##RESOLUTION=2
##XUNITS=1/CM
##YUNITS=TRANSMITTANCE
##XFACTOR=1.0
##YFACTOR=1
##FIRSTX=626
##LASTX=4000
##FIRSTY=0.7506
##MAXX=4000
##MINX=626
##MAXY=0.9562
##MINY=0.0055
##NPOINTS=3375
##XYDATA=(X++(Y..Y))
626.000000 0.7506 0.7550 0.7584 0.7619 0.7656
631.000000 0.7687 0.7714 0.7741 0.7769 0.7803
636.000000 0.7842 0.7882 0.7922 0.7952 0.7986
641.000000 0.8021 0.8065 0.8098 0.8126 0.8139
646.000000 0.8153 0.8167 0.8179 0.8194 0.8209
651.000000 0.8220 0.8230 0.8239 0.8248 0.8257
656.000000 0.8265 0.8279 0.8293 0.8294 0.8287
661.000000 0.8263 0.8223 0.8168 0.8174 0.8197
666.000000 0.8241 0.8291 0.8355 0.8378 0.8377
671.000000 0.8378 0.8410 0.8453 0.8482 0.8496
676.000000 0.8510 0.8523 0.8538 0.8548 0.8558
681.000000 0.8568 0.8582 0.8602 0.8627 0.8684
686.000000 0.8744 0.8806 0.8861 0.8911 0.8962
691.000000 0.9020 0.9080 0.9122 0.9151 0.9176
696.000000 0.9196 0.9215 0.9220 0.9222 0.9225
701.000000 0.9237 0.9222 0.9219 0.9214 0.9205
706.000000 0.9183 0.9175 0.9160 0.9139 0.9117
711.000000 0.9094 0.9072 0.9050 0.9020 0.8990
716.000000 0.8958 0.8920 0.8882 0.8843 0.8804
721.000000 0.8756 0.8707 0.8654 0.8595 0.8535
726.000000 0.8476 0.8418 0.8353 0.8290 0.8216
731.000000 0.8130 0.8043 0.7956 0.7868 0.7782
736.000000 0.7684 0.7578 0.7471 0.7340 0.7201
741.000000 0.7062 0.6937 0.6813 0.6690 0.6567
746.000000 0.6444 0.6297 0.6150 0.6012 0.5879
751.000000 0.5746 0.5588 0.5446 0.5313 0.5156
756.000000 0.4998 0.4841 0.4684 0.4528 0.4345
761.000000 0.4144 0.3941 0.3736 0.3532 0.3275
766.000000 0.2943 0.2622 0.2326 0.1522 0.1416
771.000000 0.1427 0.1736 0.2072 0.2407 0.2740
776.000000 0.3073 0.3330 0.3506 0.3649 0.3828
781.000000 0.4039 0.4209 0.4343 0.4442 0.4517
786.000000 0.4592 0.4657 0.4720 0.4776 0.4832
791.000000 0.4902 0.4985 0.5081 0.5197 0.5371
796.000000 0.5557 0.6015 0.6184 0.6336 0.6480
801.000000 0.6647 0.6795 0.6929 0.7044 0.7159
806.000000 0.7263 0.7365 0.7466 0.7563 0.7659
811.000000 0.7761 0.7860 0.7950 0.8039 0.8135
816.000000 0.8229 0.8308 0.8375 0.8438 0.8503
821.000000 0.8571 0.8648 0.8743 0.8828 0.8894
826.000000 0.8938 0.8979 0.9022 0.9064 0.9119
831.000000 0.9157 0.9183 0.9206 0.9229 0.9251
836.000000 0.9270 0.9287 0.9303 0.9310 0.9318
841.000000 0.9325 0.9330 0.9335 0.9340 0.9348
846.000000 0.9355 0.9362 0.9368 0.9371 0.9373
851.000000 0.9375 0.9377 0.9379 0.9381 0.9383
856.000000 0.9382 0.9380 0.9377 0.9375 0.9371
861.000000 0.9369 0.9367 0.9369 0.9372 0.9375
866.000000 0.9378 0.9380 0.9385 0.9392 0.9397
871.000000 0.9402 0.9426 0.9410 0.9414 0.9418
876.000000 0.9419 0.9420 0.9420 0.9417 0.9411
881.000000 0.9406 0.9400 0.9395 0.9387 0.9377
886.000000 0.9369 0.9359 0.9349 0.9335 0.9320
891.000000 0.9306 0.9293 0.9282 0.9271 0.9267
896.000000 0.9264 0.9265 0.9270 0.9274 0.9278
901.000000 0.9279 0.9262 0.9244 0.9221 0.9189
906.000000 0.9159 0.9156 0.9156 0.9156 0.9156
911.000000 0.9157 0.9136 0.9111 0.9070 0.9023
916.000000 0.8977 0.8931 0.8891 0.8850 0.8810
921.000000 0.8770 0.8708 0.8643 0.8578 0.8512
926.000000 0.8415 0.8312 0.8191 0.8038 0.7877
931.000000 0.7640 0.7383 0.7047 0.6583 0.6170
936.000000 0.5613 0.5057 0.4502 0.3762 0.3406
941.000000 0.3003 0.2653 0.1969 0.0811 0.0483
946.000000 0.0325 0.0233 0.0182 0.0156 0.0141
951.000000 0.0131 0.0123 0.0115 0.0109 0.0102
956.000000 0.0098 0.0096 0.0095 0.0102 0.0113
961.000000 0.0128 0.0143 0.0157 0.0131 0.0165
966.000000 0.0158 0.0148 0.0137 0.0128 0.0121
971.000000 0.0114 0.0107 0.0109 0.0122 0.0139
976.000000 0.0161 0.0196 0.0272 0.0438 0.0706
981.000000 0.1091 0.1570 0.2048 0.2525 0.3002
986.000000 0.3477 0.3949 0.4249 0.4526 0.4713
991.000000 0.5265 0.5394 0.5433 0.5435 0.5437
996.000000 0.5437 0.5439 0.5446 0.5459 0.5480
1001.000000 0.5522 0.5605 0.5715 0.5852 0.5895
1006.000000 0.5888 0.5880 0.5876 0.5884 0.5948
1011.000000 0.5992 0.6002 0.6013 0.5944 0.5855
1016.000000 0.5739 0.5671 0.5656 0.5673 0.5721
1021.000000 0.5817 0.5923 0.6066 0.6256 0.6500
1026.000000 0.6779 0.6935 0.6915 0.6865 0.6840
1031.000000 0.6835 0.6834 0.6872 0.6981 0.7114
1036.000000 0.7223 0.7346 0.7469 0.7593 0.7699
1041.000000 0.7785 0.7861 0.7950 0.8043 0.8119
1046.000000 0.8174 0.8223 0.8236 0.8265 0.8237
1051.000000 0.8221 0.8192 0.8159 0.8123 0.8085
1056.000000 0.8048 0.8014 0.7981 0.7948 0.7918
1061.000000 0.7889 0.7859 0.7836 0.7817 0.7833
1066.000000 0.7830 0.7875 0.7941 0.8027 0.8108
1071.000000 0.8176 0.8240 0.8288 0.8336 0.8387
1076.000000 0.8438 0.8494 0.8553 0.8610 0.8664
1081.000000 0.8713 0.8763 0.8812 0.8866 0.8931
1086.000000 0.8990 0.9034 0.9080 0.9124 0.9161
1091.000000 0.9196 0.9232 0.9268 0.9302 0.9336
1096.000000 0.9368 0.9400 0.9431 0.9460 0.9489
1101.000000 0.9513 0.9536 0.9548 0.9556 0.9562
1106.000000 0.9560 0.9545 0.9525 0.9502 0.9472
1111.000000 0.9443 0.9416 0.9393 0.9368 0.9345
1116.000000 0.9324 0.9306 0.9288 0.9270 0.9254
1121.000000 0.9242 0.9230 0.9219 0.9208 0.9199
1126.000000 0.9190 0.9181 0.9173 0.9172 0.9174
1131.000000 0.9175 0.9181 0.9195 0.9209 0.9215
1136.000000 0.9218 0.9214 0.9209 0.9205 0.9194
1141.000000 0.9184 0.9173 0.9159 0.9144 0.9129
1146.000000 0.9113 0.9097 0.9083 0.9068 0.9054
1151.000000 0.9040 0.9024 0.9004 0.8984 0.8965
1156.000000 0.8953 0.8943 0.8939 0.8939 0.8939
1161.000000 0.8940 0.8945 0.8948 0.8952 0.8955
1166.000000 0.8958 0.8961 0.8964 0.8960 0.8955
1171.000000 0.8939 0.8917 0.8891 0.8864 0.8831
1176.000000 0.8796 0.8761 0.8726 0.8692 0.8657
1181.000000 0.8622 0.8586 0.8550 0.8514 0.8478
1186.000000 0.8442 0.8405 0.8369 0.8334 0.8291
1191.000000 0.8234 0.8173 0.8092 0.8016 0.7942
1196.000000 0.7868 0.7795 0.7723 0.7657 0.7594
1201.000000 0.7532 0.7467 0.7385 0.7300 0.7214
1206.000000 0.7085 0.6913 0.6741 0.6543 0.6340
1211.000000 0.6186 0.6028 0.5826 0.5605 0.5376
1216.000000 0.5155 0.5024 0.4916 0.4792 0.4480
1221.000000 0.4148 0.3817 0.3487 0.3075 0.2657
1226.000000 0.2134 0.1809 0.1627 0.1400 0.0849
1231.000000 0.0337 0.0249 0.0169 0.0124 0.0112
1236.000000 0.0103 0.0094 0.0094 0.0094 0.0095
1241.000000 0.0098 0.0102 0.0104 0.0107 0.0108
1246.000000 0.0110 0.0112 0.0113 0.0113 0.0113
1251.000000 0.0113 0.0109 0.0102 0.0096 0.0092
1256.000000 0.0086 0.0081 0.0081 0.0081 0.0081
1261.000000 0.0082 0.0083 0.0084 0.0085 0.0085
1266.000000 0.0087 0.0087 0.0089 0.0089 0.0091
1271.000000 0.0093 0.0095 0.0097 0.0100 0.0103
1276.000000 0.0107 0.0131 0.0162 0.0199 0.0254
1281.000000 0.0357 0.0456 0.0560 0.0760 0.1013
1286.000000 0.1266 0.1519 0.1771 0.2022 0.2274
1291.000000 0.2525 0.2775 0.3025 0.4344 0.4552
1296.000000 0.4726 0.5237 0.5629 0.5849 0.6024
1301.000000 0.6130 0.6233 0.6338 0.6463 0.6599
1306.000000 0.6734 0.6873 0.7017 0.7157 0.7272
1311.000000 0.7388 0.7484 0.7557 0.7630 0.7703
1316.000000 0.7775 0.7845 0.7915 0.7981 0.8042
1321.000000 0.8099 0.8138 0.8171 0.8199 0.8215
1326.000000 0.8229 0.8244 0.8257 0.8267 0.8275
1331.000000 0.8284 0.8293 0.8292 0.8291 0.8272
1336.000000 0.8288 0.8284 0.8280 0.8273 0.8263
1341.000000 0.8253 0.8236 0.8218 0.8186 0.8132
1346.000000 0.8057 0.7972 0.7886 0.7804 0.7743
1351.000000 0.7685 0.7626 0.7567 0.7505 0.7433
1356.000000 0.7356 0.7280 0.7166 0.7033 0.6907
1361.000000 0.6786 0.6669 0.6554 0.6441 0.6329
1366.000000 0.6177 0.5946 0.5587 0.4991 0.4449
1371.000000 0.4094 0.3740 0.3386 0.3033 0.2681
1376.000000 0.2328 0.1977 0.1626 0.1271 0.0951
1381.000000 0.0883 0.0851 0.0860 0.0943 0.1111
1386.000000 0.1278 0.1445 0.1612 0.1683 0.1697
1391.000000 0.1682 0.1597 0.1496 0.1396 0.1295
1396.000000 0.1195 0.1111 0.1098 0.1114 0.1223
1401.000000 0.1332 0.1440 0.1549 0.1658 0.1766
1406.000000 0.1874 0.1982 0.2070 0.2103 0.2119
1411.000000 0.2121 0.2121 0.2132 0.2110 0.2098
1416.000000 0.2076 0.2049 0.2020 0.1970 0.1905
1421.000000 0.1829 0.1734 0.1639 0.1559 0.1479
1426.000000 0.1399 0.1326 0.1256 0.1185 0.1110
1431.000000 0.1029 0.0948 0.0871 0.0806 0.0745
1436.000000 0.0683 0.0622 0.0560 0.0499 0.0438
1441.000000 0.0377 0.0318 0.0273 0.0243 0.0213
1446.000000 0.0185 0.0170 0.0162 0.0159 0.0157
1451.000000 0.0157 0.0157 0.0157 0.0158 0.0157
1456.000000 0.0161 0.0164 0.0170 0.0187 0.0222
1461.000000 0.0263 0.0308 0.0393 0.0476 0.0557
1466.000000 0.0624 0.0671 0.0697 0.0720 0.0735
1471.000000 0.0749 0.0762 0.0777 0.0792 0.0820
1476.000000 0.0851 0.0889 0.0955 0.1054 0.1177
1481.000000 0.1305 0.1370 0.1432 0.1493 0.1548
1486.000000 0.1602 0.1664 0.1745 0.1830 0.1921
1491.000000 0.2017 0.2137 0.2300 0.2499 0.2685
1496.000000 0.2863 0.3040 0.3219 0.3396 0.3573
1501.000000 0.3750 0.3926 0.4102 0.4279 0.4455
1506.000000 0.4630 0.4914 0.5188 0.5280 0.5372
1511.000000 0.5462 0.5550 0.5637 0.5746 0.5874
1516.000000 0.6123 0.6339 0.6429 0.6523 0.6615
1521.000000 0.6647 0.6681 0.6721 0.6763 0.6812
1526.000000 0.6885 0.6954 0.7012 0.7070 0.7129
1531.000000 0.7188 0.7244 0.7292 0.7320 0.7345
1536.000000 0.7363 0.7377 0.7390 0.7399 0.7406
1541.000000 0.7413 0.7421 0.7428 0.7433 0.7437
1546.000000 0.7450 0.7473 0.7497 0.7542 0.7598
1551.000000 0.7646 0.7692 0.7736 0.7771 0.7801
1556.000000 0.7831 0.7862 0.7891 0.7909 0.7918
1561.000000 0.7926 0.7932 0.7938 0.7943 0.7950
1566.000000 0.7966 0.8003 0.8056 0.8116 0.8180
1571.000000 0.8282 0.8365 0.8417 0.8446 0.8466
1576.000000 0.8487 0.8504 0.8516 0.8526 0.8536
1581.000000 0.8546 0.8556 0.8566 0.8577 0.8587
1586.000000 0.8597 0.8602 0.8606 0.8608 0.8611
1591.000000 0.8613 0.8642 0.8614 0.8614 0.8614
1596.000000 0.8614 0.8612 0.8610 0.8608 0.8607
1601.000000 0.8605 0.8603 0.8600 0.8598 0.8596
1606.000000 0.8594 0.8591 0.8587 0.8584 0.8580
1611.000000 0.8576 0.8572 0.8568 0.8561 0.8553
1616.000000 0.8547 0.8539 0.8532 0.8525 0.8518
1621.000000 0.8511 0.8504 0.8498 0.8493 0.8488
1626.000000 0.8483 0.8478 0.8474 0.8470 0.8469
1631.000000 0.8472 0.8475 0.8479 0.8483 0.8487
1636.000000 0.8492 0.8497 0.8501 0.8506 0.8511
1641.000000 0.8518 0.8525 0.8530 0.8533 0.8533
1646.000000 0.8532 0.8526 0.8518 0.8512 0.8505
1651.000000 0.8497 0.8490 0.8483 0.8477 0.8474
1656.000000 0.8470 0.8467 0.8463 0.8459 0.8458
1661.000000 0.8460 0.8463 0.8468 0.8473 0.8478
1666.000000 0.8484 0.8490 0.8492 0.8487 0.8483
1671.000000 0.8478 0.8473 0.8468 0.8464 0.8458
1676.000000 0.8451 0.8442 0.8433 0.8424 0.8417
1681.000000 0.8415 0.8433 0.8411 0.8409 0.8409
1686.000000 0.8413 0.8419 0.8424 0.8430 0.8436
1691.000000 0.8443 0.8449 0.8455 0.8462 0.8468
1696.000000 0.8474 0.8481 0.8489 0.8499 0.8508
1701.000000 0.8517 0.8526 0.8536 0.8544 0.8556
1706.000000 0.8570 0.8585 0.8600 0.8614 0.8630
1711.000000 0.8646 0.8663 0.8679 0.8696 0.8713
1716.000000 0.8731 0.8749 0.8767 0.8784 0.8801
1721.000000 0.8817 0.8831 0.8845 0.8860 0.8875
1726.000000 0.8889 0.8902 0.8917 0.8931 0.8944
1731.000000 0.8958 0.8969 0.8979 0.8987 0.8996
1736.000000 0.9005 0.9014 0.9023 0.9032 0.9043
1741.000000 0.9054 0.9066 0.9077 0.9089 0.9100
1746.000000 0.9112 0.9123 0.9146 0.9169 0.9193
1751.000000 0.9218 0.9241 0.9260 0.9278 0.9295
1756.000000 0.9312 0.9324 0.9331 0.9337 0.9344
1761.000000 0.9350 0.9357 0.9363 0.9360 0.9357
1766.000000 0.9354 0.9351 0.9348 0.9344 0.9341
1771.000000 0.9337 0.9332 0.9327 0.9322 0.9317
1776.000000 0.9311 0.9306 0.9301 0.9297 0.9294
1781.000000 0.9293 0.9291 0.9290 0.9288 0.9287
1786.000000 0.9286 0.9289 0.9292 0.9294 0.9297
1791.000000 0.9300 0.9303 0.9308 0.9312 0.9317
1796.000000 0.9322 0.9326 0.9331 0.9336 0.9340
1801.000000 0.9346 0.9350 0.9355 0.9360 0.9365
1806.000000 0.9370 0.9374 0.9379 0.9385 0.9389
1811.000000 0.9394 0.9398 0.9403 0.9407 0.9411
1816.000000 0.9415 0.9419 0.9424 0.9428 0.9432
1821.000000 0.9436 0.9440 0.9444 0.9449 0.9455
1826.000000 0.9461 0.9466 0.9472 0.9477 0.9483
1831.000000 0.9489 0.9493 0.9497 0.9498 0.9500
1836.000000 0.9501 0.9502 0.9503 0.9505 0.9506
1841.000000 0.9507 0.9508 0.9510 0.9511 0.9511
1846.000000 0.9511 0.9511 0.9510 0.9510 0.9510
1851.000000 0.9509 0.9509 0.9509 0.9508 0.9508
1856.000000 0.9507 0.9507 0.9507 0.9506 0.9506
1861.000000 0.9505 0.9505 0.9503 0.9500 0.9496
1866.000000 0.9493 0.9490 0.9486 0.9483 0.9479
1871.000000 0.9476 0.9470 0.9461 0.9448 0.9436
1876.000000 0.9423 0.9411 0.9398 0.9383 0.9366
1881.000000 0.9343 0.9320 0.9298 0.9275 0.9253
1886.000000 0.9221 0.9183 0.9135 0.9087 0.9037
1891.000000 0.8983 0.8927 0.8873 0.8817 0.8743
1896.000000 0.8669 0.8579 0.8430 0.8328 0.8267
1901.000000 0.8263 0.8258 0.8258 0.8263 0.8249
1906.000000 0.8287 0.8310 0.8335 0.8361 0.8387
1911.000000 0.8413 0.8441 0.8469 0.8497 0.8523
1916.000000 0.8548 0.8571 0.8595 0.8634 0.8706
1921.000000 0.8781 0.8847 0.8899 0.8943 0.8982
1926.000000 0.9013 0.9045 0.9077 0.9108 0.9177
1931.000000 0.9213 0.9217 0.9220 0.9223 0.9227
1936.000000 0.9227 0.9226 0.9224 0.9222 0.9244
1941.000000 0.9219 0.9218 0.9217 0.9215 0.9213
1946.000000 0.9212 0.9210 0.9208 0.9206 0.9204
1951.000000 0.9202 0.9200 0.9198 0.9196 0.9194
1956.000000 0.9192 0.9190 0.9188 0.9184 0.9182
1961.000000 0.9179 0.9176 0.9172 0.9169 0.9167
1966.000000 0.9163 0.9159 0.9141 0.9123 0.9104
1971.000000 0.9082 0.9056 0.9028 0.9000 0.8968
1976.000000 0.8925 0.8881 0.8837 0.8797 0.8782
1981.000000 0.8784 0.8787 0.8764 0.8796 0.8801
1986.000000 0.8806 0.8811 0.8816 0.8821 0.8828
1991.000000 0.8835 0.8842 0.8849 0.8856 0.8864
1996.000000 0.8871 0.8878 0.8888 0.8898 0.8910
2001.000000 0.8921 0.8932 0.8943 0.8954 0.8966
2006.000000 0.8978 0.8990 0.9002 0.9015 0.9028
2011.000000 0.9041 0.9054 0.9067 0.9080 0.9093
2016.000000 0.9105 0.9118 0.9130 0.9140 0.9149
2021.000000 0.9158 0.9168 0.9176 0.9185 0.9194
2026.000000 0.9203 0.9212 0.9221 0.9230 0.9240
2031.000000 0.9248 0.9252 0.9256 0.9258 0.9260
2036.000000 0.9262 0.9264 0.9266 0.9268 0.9270
2041.000000 0.9272 0.9274 0.9276 0.9278 0.9279
2046.000000 0.9280 0.9280 0.9281 0.9281 0.9282
2051.000000 0.9284 0.9284 0.9285 0.9285 0.9286
2056.000000 0.9301 0.9287 0.9288 0.9288 0.9289
2061.000000 0.9289 0.9287 0.9285 0.9284 0.9282
2066.000000 0.9281 0.9279 0.9277 0.9275 0.9274
2071.000000 0.9273 0.9271 0.9269 0.9268 0.9266
2076.000000 0.9263 0.9258 0.9253 0.9248 0.9243
2081.000000 0.9238 0.9232 0.9227 0.9220 0.9212
2086.000000 0.9203 0.9194 0.9184 0.9174 0.9165
2091.000000 0.9159 0.9154 0.9150 0.9147 0.9143
2096.000000 0.9140 0.9137 0.9134 0.9131 0.9129
2101.000000 0.9128 0.9128 0.9129 0.9129 0.9129
2106.000000 0.9129 0.9129 0.9128 0.9128 0.9127
2111.000000 0.9127 0.9126 0.9126 0.9125 0.9125
2116.000000 0.9124 0.9123 0.9123 0.9122 0.9122
2121.000000 0.9119 0.9115 0.9112 0.9108 0.9104
2126.000000 0.9101 0.9097 0.9093 0.9087 0.9081
2131.000000 0.9074 0.9067 0.9060 0.9047 0.9033
2136.000000 0.9017 0.8993 0.8945 0.8887 0.8815
2141.000000 0.8743 0.8672 0.8601 0.8529 0.8458
2146.000000 0.8387 0.8316 0.8245 0.8173 0.8102
2151.000000 0.8031 0.7961 0.7890 0.7819 0.7749
2156.000000 0.7678 0.7607 0.7536 0.7466 0.7396
2161.000000 0.7326 0.7256 0.7186 0.7116 0.7045
2166.000000 0.6975 0.6937 0.6919 0.6909 0.6902
2171.000000 0.6895 0.6889 0.6886 0.6882 0.6883
2176.000000 0.6883 0.6886 0.6889 0.6896 0.6913
2181.000000 0.6947 0.6988 0.7035 0.7083 0.7130
2186.000000 0.7177 0.7224 0.7271 0.7318 0.7365
2191.000000 0.7412 0.7458 0.7505 0.7552 0.7599
2196.000000 0.7645 0.7692 0.7738 0.7784 0.7831
2201.000000 0.7877 0.7924 0.7970 0.8016 0.8063
2206.000000 0.8109 0.8155 0.8201 0.8247 0.8294
2211.000000 0.8340 0.8386 0.8431 0.8477 0.8539
2216.000000 0.8611 0.8651 0.8677 0.8703 0.8728
2221.000000 0.8753 0.8777 0.8801 0.8826 0.8845
2226.000000 0.8863 0.8871 0.8876 0.8881 0.8886
2231.000000 0.8890 0.8895 0.8899 0.8902 0.8906
2236.000000 0.8909 0.8913 0.8916 0.8922 0.8928
2241.000000 0.8934 0.8941 0.8947 0.8953 0.8962
2246.000000 0.8972 0.8982 0.8992 0.9002 0.9011
2251.000000 0.9016 0.9020 0.9020 0.9025 0.9025
2256.000000 0.9024 0.9022 0.9021 0.9020 0.9018
2261.000000 0.9016 0.9014 0.9013 0.9011 0.9010
2266.000000 0.9008 0.9006 0.9004 0.9001 0.8997
2271.000000 0.8993 0.8988 0.8983 0.8978 0.8973
2276.000000 0.8968 0.8962 0.8953 0.8943 0.8933
2281.000000 0.8924 0.8915 0.8905 0.8893 0.8881
2286.000000 0.8866 0.8851 0.8836 0.8820 0.8806
2291.000000 0.8792 0.8781 0.8771 0.8761 0.8752
2296.000000 0.8743 0.8733 0.8724 0.8716 0.8708
2301.000000 0.8704 0.8700 0.8696 0.8692 0.8691
2306.000000 0.8691 0.8690 0.8689 0.8688 0.8688
2311.000000 0.8687 0.8687 0.8686 0.8685 0.8684
2316.000000 0.8684 0.8683 0.8683 0.8683 0.8682
2321.000000 0.8681 0.8679 0.8678 0.8676 0.8675
2326.000000 0.8673 0.8671 0.8669 0.8668 0.8666
2331.000000 0.8665 0.8663 0.8661 0.8659 0.8657
2336.000000 0.8656 0.8654 0.8652 0.8650 0.8648
2341.000000 0.8646 0.8644 0.8643 0.8640 0.8638
2346.000000 0.8636 0.8634 0.8630 0.8625 0.8617
2351.000000 0.8607 0.8596 0.8585 0.8574 0.8563
2356.000000 0.8552 0.8541 0.8530 0.8516 0.8499
2361.000000 0.8482 0.8465 0.8448 0.8431 0.8414
2366.000000 0.8397 0.8380 0.8363 0.8346 0.8331
2371.000000 0.8319 0.8307 0.8299 0.8291 0.8283
2376.000000 0.8276 0.8268 0.8261 0.8253 0.8247
2381.000000 0.8240 0.8234 0.8227 0.8220 0.8214
2386.000000 0.8207 0.8201 0.8193 0.8183 0.8172
2391.000000 0.8160 0.8147 0.8125 0.8098 0.8071
2396.000000 0.8044 0.8013 0.7927 0.7840 0.7728
2401.000000 0.7607 0.7509 0.7435 0.7361 0.7280
2406.000000 0.7198 0.7166 0.7143 0.7132 0.7130
2411.000000 0.7129 0.7129 0.7129 0.7129 0.7130
2416.000000 0.7131 0.7132 0.7122 0.7134 0.7134
2421.000000 0.7136 0.7138 0.7140 0.7144 0.7147
2426.000000 0.7150 0.7154 0.7161 0.7169 0.7185
2431.000000 0.7211 0.7237 0.7260 0.7283 0.7306
2436.000000 0.7329 0.7353 0.7381 0.7409 0.7439
2441.000000 0.7469 0.7494 0.7516 0.7537 0.7557
2446.000000 0.7577 0.7597 0.7617 0.7637 0.7659
2451.000000 0.7680 0.7702 0.7725 0.7745 0.7765
2456.000000 0.7782 0.7790 0.7799 0.7807 0.7816
2461.000000 0.7825 0.7834 0.7843 0.7880 0.7920
2466.000000 0.7962 0.8006 0.8049 0.8066 0.8083
2471.000000 0.8099 0.8114 0.8128 0.8138 0.8148
2476.000000 0.8157 0.8165 0.8173 0.8181 0.8189
2481.000000 0.8193 0.8196 0.8200 0.8202 0.8205
2486.000000 0.8208 0.8211 0.8214 0.8217 0.8219
2491.000000 0.8223 0.8227 0.8233 0.8239 0.8245
2496.000000 0.8252 0.8258 0.8265 0.8271 0.8278
2501.000000 0.8291 0.8305 0.8320 0.8337 0.8353
2506.000000 0.8370 0.8386 0.8406 0.8429 0.8452
2511.000000 0.8475 0.8499 0.8521 0.8540 0.8560
2516.000000 0.8572 0.8584 0.8596 0.8607 0.8619
2521.000000 0.8630 0.8641 0.8651 0.8657 0.8662
2526.000000 0.8666 0.8670 0.8673 0.8677 0.8681
2531.000000 0.8685 0.8688 0.8692 0.8695 0.8699
2536.000000 0.8702 0.8705 0.8708 0.8710 0.8712
2541.000000 0.8714 0.8716 0.8717 0.8719 0.8721
2546.000000 0.8723 0.8725 0.8727 0.8729 0.8731
2551.000000 0.8732 0.8736 0.8731 0.8730 0.8730
2556.000000 0.8730 0.8729 0.8729 0.8728 0.8728
2561.000000 0.8728 0.8727 0.8727 0.8727 0.8725
2566.000000 0.8724 0.8721 0.8718 0.8714 0.8709
2571.000000 0.8704 0.8699 0.8691 0.8684 0.8677
2576.000000 0.8670 0.8663 0.8656 0.8650 0.8644
2581.000000 0.8639 0.8633 0.8627 0.8619 0.8612
2586.000000 0.8604 0.8596 0.8587 0.8585 0.8583
2591.000000 0.8581 0.8580 0.8578 0.8577 0.8575
2596.000000 0.8574 0.8572 0.8570 0.8568 0.8566
2601.000000 0.8564 0.8562 0.8561 0.8559 0.8556
2606.000000 0.8552 0.8549 0.8542 0.8535 0.8527
2611.000000 0.8516 0.8504 0.8491 0.8477 0.8463
2616.000000 0.8452 0.8440 0.8428 0.8418 0.8408
2621.000000 0.8400 0.8393 0.8386 0.8382 0.8378
2626.000000 0.8375 0.8371 0.8367 0.8364 0.8360
2631.000000 0.8356 0.8352 0.8347 0.8343 0.8339
2636.000000 0.8334 0.8330 0.8325 0.8319 0.8313
2641.000000 0.8304 0.8296 0.8287 0.8278 0.8270
2646.000000 0.8260 0.8248 0.8237 0.8225 0.8212
2651.000000 0.8199 0.8183 0.8167 0.8151 0.8123
2656.000000 0.8095 0.8058 0.7993 0.7929 0.7876
2661.000000 0.7839 0.7802 0.7773 0.7748 0.7724
2666.000000 0.7701 0.7679 0.7656 0.7630 0.7603
