##TITLE=ETHANETHIOL
##JCAMP-DX=4.24
##DATA TYPE=INFRARED SPECTRUM
##CLASS=COBLENTZ
##ORIGIN=DOW CHEMICAL COMPANY
##OWNER=COBLENTZ SOCIETY
Collection (C) 2018 copyright by the U.S. Secretary of Commerce
on behalf of the United States of America. All rights reserved.
##DATE=1949/11/04
##CAS REGISTRY NO=75-08-1
##MOLFORM=C2 H6 S
##BP=35 C
##SOURCE REFERENCE=COBLENTZ NO. 6997
##$NIST SOURCE=COBLENTZ
##$NIST IMAGE=cob6997
##SPECTROMETER/DATA SYSTEM=BAIRD NaCl PRISM
##STATE=GAS (250 mmHg)
##PATH LENGTH=10 CM
##SAMPLING PROCEDURE=TRANSMISSION
##RESOLUTION=4
##DATA PROCESSING=DIGITIZED BY NIST FROM HARD COPY
##XUNITS=MICROMETERS
##YUNITS=TRANSMITTANCE
##XFACTOR=1.000000
##YFACTOR=1
##DELTAX=000.004880
##FIRSTX=2.019
##LASTX=15.9709
##FIRSTY=0.952
##MAXX=15.9709
##MINX=2.019
##MAXY=0.964
##MINY=0.031
##NPOINTS=2860
##XYDATA=(X++(Y..Y))
2.019000 0.9520 0.9520 0.9520 0.9540 0.9540
2.043409 0.9540 0.9540 0.9530 0.9530 0.9530
2.068000 0.9530 0.9530 0.9530 0.9530 0.9530
2.092409 0.9530 0.9530 0.9540 0.9560 0.9560
2.117000 0.9560 0.9560 0.9560 0.9560 0.9560
2.141409 0.9560 0.9560 0.9530 0.9500 0.9450
2.166000 0.9390 0.9300 0.9180 0.9010 0.8910
2.190409 0.8810 0.8710 0.8630 0.8560 0.8540
2.214000 0.8520 0.8520 0.8540 0.8550 0.8560
2.238409 0.8570 0.8600 0.8620 0.8630 0.8640
2.263000 0.8670 0.8680 0.8690 0.8710 0.8720
2.287409 0.8730 0.8740 0.8740 0.8770 0.8790
2.312000 0.8840 0.8880 0.8920 0.8960 0.8990
2.336409 0.9020 0.9050 0.9070 0.9090 0.9120
2.361000 0.9130 0.9140 0.9140 0.9160 0.9160
2.385409 0.9170 0.9170 0.9160 0.9170 0.9170
2.410000 0.9170 0.9170 0.9170 0.9180 0.9190
2.434409 0.9180 0.9190 0.9190 0.9200 0.9200
2.458000 0.9220 0.9230 0.9220 0.9240 0.9240
2.482409 0.9250 0.9250 0.9270 0.9280 0.9290
2.507000 0.9290 0.9300 0.9310 0.9330 0.9330
2.531409 0.9340 0.9350 0.9360 0.9360 0.9370
2.556000 0.9400 0.9410 0.9410 0.9420 0.9440
2.580409 0.9440 0.9450 0.9450 0.9440 0.9440
2.605000 0.9440 0.9440 0.9450 0.9450 0.9460
2.629409 0.9460 0.9450 0.9440 0.9420 0.9390
2.654000 0.9350 0.9330 0.9300 0.9290 0.9290
2.678409 0.9290 0.9280 0.9280 0.9280 0.9290
2.702000 0.9290 0.9310 0.9330 0.9350 0.9360
2.726409 0.9390 0.9400 0.9400 0.9400 0.9400
2.751000 0.9400 0.9400 0.9400 0.9400 0.9390
2.775409 0.9360 0.9360 0.9350 0.9350 0.9350
2.800000 0.9340 0.9310 0.9310 0.9330 0.9330
2.824409 0.9330 0.9330 0.9330 0.9330 0.9310
2.849000 0.9310 0.9330 0.9330 0.9330 0.9340
2.873409 0.9350 0.9350 0.9350 0.9350 0.9350
2.898000 0.9360 0.9360 0.9360 0.9360 0.9350
2.922409 0.9340 0.9330 0.9310 0.9300 0.9290
2.946000 0.9270 0.9240 0.9220 0.9170 0.9120
2.970409 0.9080 0.9060 0.9020 0.9000 0.8970
2.995000 0.8940 0.8900 0.8840 0.8800 0.8790
3.019409 0.8750 0.8710 0.8640 0.8600 0.8540
3.044000 0.8470 0.8430 0.8390 0.8350 0.8320
3.068409 0.8290 0.8280 0.8260 0.8240 0.8240
3.093000 0.8240 0.8260 0.8270 0.8290 0.8300
3.117409 0.8320 0.8330 0.8340 0.8360 0.8400
3.142000 0.8430 0.8460 0.8490 0.8510 0.8520
3.166409 0.8550 0.8570 0.8570 0.8580 0.8580
3.190000 0.8600 0.8600 0.8570 0.8540 0.8470
3.214409 0.8430 0.8350 0.8260 0.8150 0.8000
3.239000 0.7820 0.7600 0.7330 0.7010 0.6640
3.263409 0.6200 0.5870 0.5520 0.5140 0.4360
3.288000 0.3950 0.3550 0.3160 0.2770 0.2390
3.312409 0.2040 0.1710 0.1390 0.1130 0.0900
3.337000 0.0700 0.0540 0.0450 0.0400 0.0370
3.361409 0.0340 0.0320 0.0310 0.0310 0.0310
3.386000 0.0310 0.0310 0.0320 0.0340 0.0350
3.410409 0.0370 0.0380 0.0430 0.0470 0.0510
3.434000 0.0550 0.0640 0.0760 0.0920 0.1140
3.458409 0.1430 0.1810 0.2260 0.2820 0.3550
3.483000 0.4310 0.4690 0.5070 0.5710 0.6220
3.507409 0.6500 0.6860 0.7160 0.7380 0.7620
3.532000 0.7810 0.7980 0.8100 0.8210 0.8290
3.556409 0.8340 0.8380 0.8390 0.8400 0.8410
3.581000 0.8400 0.8390 0.8380 0.8340 0.8290
3.605409 0.8230 0.8180 0.8130 0.8090 0.8070
3.630000 0.8070 0.8070 0.8070 0.8090 0.8150
3.654409 0.8190 0.8260 0.8320 0.8390 0.8460
3.678000 0.8540 0.8610 0.8690 0.8780 0.8850
3.702409 0.8940 0.9010 0.9070 0.9090 0.9110
3.727000 0.9120 0.9120 0.9120 0.9120 0.9110
3.751409 0.9030 0.8960 0.8810 0.8640 0.8490
3.776000 0.8350 0.8230 0.8110 0.7960 0.7790
3.800409 0.7570 0.7430 0.7360 0.7210 0.7180
3.825000 0.7180 0.7200 0.7220 0.7280 0.7360
3.849409 0.7490 0.7630 0.7790 0.7960 0.8150
3.874000 0.8340 0.8520 0.8690 0.8840 0.8970
3.898409 0.9080 0.9140 0.9160 0.9220 0.9280
3.922000 0.9310 0.9340 0.9360 0.9390 0.9390
3.946409 0.9400 0.9410 0.9410 0.9420 0.9420
3.971000 0.9440 0.9440 0.9420 0.9440 0.9440
3.995409 0.9440 0.9440 0.9450 0.9450 0.9450
4.020000 0.9450 0.9450 0.9450 0.9450 0.9450
4.044409 0.9450 0.9450 0.9450 0.9450 0.9450
4.069000 0.9450 0.9450 0.9450 0.9450 0.9450
4.093409 0.9450 0.9450 0.9460 0.9460 0.9460
4.118000 0.9460 0.9450 0.9420 0.9410 0.9400
4.142409 0.9390 0.9370 0.9360 0.9350 0.9350
4.166000 0.9350 0.9350 0.9350 0.9350 0.9350
4.190409 0.9350 0.9350 0.9350 0.9350 0.9350
4.215000 0.9350 0.9350 0.9350 0.9350 0.9360
4.239409 0.9360 0.9370 0.9390 0.9390 0.9400
4.264000 0.9410 0.9420 0.9440 0.9440 0.9450
4.288409 0.9450 0.9450 0.9460 0.9460 0.9460
4.313000 0.9460 0.9470 0.9480 0.9480 0.9480
4.337409 0.9480 0.9480 0.9480 0.9480 0.9480
4.362000 0.9480 0.9480 0.9480 0.9480 0.9470
4.386409 0.9470 0.9460 0.9460 0.9450 0.9440
4.410000 0.9440 0.9440 0.9420 0.9420 0.9420
4.434409 0.9420 0.9420 0.9440 0.9440 0.9440
4.459000 0.9450 0.9450 0.9460 0.9470 0.9480
4.483409 0.9480 0.9480 0.9500 0.9500 0.9500
4.508000 0.9500 0.9500 0.9510 0.9510 0.9510
4.532409 0.9510 0.9510 0.9510 0.9510 0.9510
4.557000 0.9510 0.9510 0.9510 0.9510 0.9510
4.581409 0.9510 0.9510 0.9510 0.9510 0.9520
4.606000 0.9520 0.9520 0.9520 0.9520 0.9510
4.630409 0.9520 0.9520 0.9520 0.9520 0.9520
4.654000 0.9520 0.9520 0.9520 0.9520 0.9520
4.678409 0.9520 0.9520 0.9520 0.9520 0.9520
4.703000 0.9520 0.9530 0.9530 0.9540 0.9540
4.727409 0.9560 0.9560 0.9560 0.9560 0.9560
4.752000 0.9570 0.9570 0.9580 0.9580 0.9580
4.776409 0.9580 0.9580 0.9590 0.9580 0.9590
4.801000 0.9610 0.9620 0.9610 0.9620 0.9620
4.825409 0.9620 0.9620 0.9630 0.9630 0.9620
4.850000 0.9630 0.9630 0.9630 0.9630 0.9630
4.874409 0.9630 0.9630 0.9630 0.9630 0.9630
4.898000 0.9640 0.9640 0.9640 0.9640 0.9640
4.922409 0.9640 0.9640 0.9640 0.9640 0.9640
4.947000 0.9640 0.9640 0.9640 0.9630 0.9620
4.971409 0.9590 0.9580 0.9580 0.9580 0.9580
4.996000 0.9570 0.9560 0.9560 0.9560 0.9540
5.020409 0.9540 0.9540 0.9530 0.9530 0.9530
5.045000 0.9520 0.9520 0.9520 0.9520 0.9520
5.069409 0.9510 0.9510 0.9510 0.9510 0.9510
5.094000 0.9510 0.9510 0.9510 0.9510 0.9510
5.118409 0.9510 0.9510 0.9510 0.9510 0.9510
5.142000 0.9500 0.9500 0.9500 0.9500 0.9510
5.166409 0.9520 0.9530 0.9530 0.9540 0.9540
5.191000 0.9560 0.9560 0.9570 0.9570 0.9580
5.215409 0.9580 0.9590 0.9590 0.9610 0.9610
5.240000 0.9610 0.9610 0.9610 0.9620 0.9620
5.264409 0.9620 0.9620 0.9630 0.9630 0.9630
5.289000 0.9620 0.9630 0.9630 0.9630 0.9630
5.313409 0.9630 0.9640 0.9640 0.9640 0.9640
5.338000 0.9640 0.9640 0.9640 0.9640 0.9640
5.362409 0.9640 0.9640 0.9630 0.9620 0.9620
5.386000 0.9630 0.9630 0.9640 0.9640 0.9620
5.410409 0.9620 0.9590 0.9570 0.9570 0.9560
5.435000 0.9560 0.9560 0.9560 0.9560 0.9560
5.459409 0.9560 0.9540 0.9540 0.9530 0.9520
5.484000 0.9520 0.9520 0.9510 0.9500 0.9480
5.508409 0.9480 0.9470 0.9460 0.9460 0.9450
5.533000 0.9450 0.9450 0.9450 0.9450 0.9440
5.557409 0.9420 0.9410 0.9370 0.9340 0.9310
5.582000 0.9300 0.9280 0.9250 0.9230 0.9180
5.606409 0.9110 0.9080 0.9030 0.9000 0.8940
5.630000 0.8880 0.8780 0.8730 0.8680 0.8640
5.654409 0.8620 0.8580 0.8570 0.8570 0.8570
5.679000 0.8570 0.8570 0.8570 0.8570 0.8570
5.703409 0.8570 0.8570 0.8580 0.8610 0.8620
5.728000 0.8640 0.8670 0.8690 0.8730 0.8770
5.752409 0.8790 0.8800 0.8810 0.8830 0.8830
5.777000 0.8840 0.8850 0.8850 0.8860 0.8890
5.801409 0.8890 0.8900 0.8900 0.8900 0.8900
5.826000 0.8900 0.8900 0.8910 0.8910 0.8910
5.850409 0.8920 0.8940 0.8950 0.8950 0.8960
5.874000 0.8960 0.8960 0.8970 0.8970 0.8990
5.898409 0.8990 0.9000 0.9000 0.9000 0.9000
5.923000 0.9000 0.9000 0.9000 0.9000 0.9000
5.947409 0.9000 0.9000 0.9000 0.9000 0.9000
5.972000 0.8970 0.8970 0.8960 0.8920 0.8900
5.996409 0.8880 0.8850 0.8840 0.8830 0.8830
6.021000 0.8810 0.8810 0.8830 0.8830 0.8810
6.045409 0.8800 0.8740 0.8730 0.8720 0.8710
6.070000 0.8710 0.8720 0.8740 0.8770 0.8780
6.094409 0.8790 0.8800 0.8810 0.8830 0.8840
6.118000 0.8850 0.8860 0.8880 0.8880 0.8890
6.142409 0.8890 0.8890 0.8850 0.8840 0.8830
6.167000 0.8810 0.8800 0.8800 0.8790 0.8790
6.191409 0.8790 0.8790 0.8800 0.8810 0.8840
6.216000 0.8840 0.8850 0.8850 0.8860 0.8880
6.240409 0.8890 0.8890 0.8890 0.8890 0.8890
6.265000 0.8890 0.8890 0.8890 0.8890 0.8890
6.289409 0.8900 0.8910 0.8940 0.8950 0.8960
6.314000 0.8960 0.8970 0.9000 0.9000 0.9000
6.338409 0.9000 0.9000 0.9010 0.9010 0.9010
6.362000 0.9020 0.9030 0.9030 0.9050 0.9060
6.386409 0.9070 0.9070 0.9060 0.9060 0.9050
6.411000 0.9030 0.9020 0.9020 0.9030 0.9030
6.435409 0.9030 0.9050 0.9070 0.9080 0.9080
6.460000 0.9080 0.9090 0.9090 0.9090 0.9070
6.484409 0.9060 0.9050 0.9020 0.9010 0.9010
6.509000 0.9000 0.8990 0.8990 0.8970 0.8960
6.533409 0.8950 0.8920 0.8860 0.8790 0.8720
6.558000 0.8640 0.8570 0.8500 0.8430 0.8340
6.582409 0.8270 0.8180 0.8100 0.8000 0.7840
6.606000 0.7680 0.7530 0.7370 0.7220 0.7060
6.630409 0.6920 0.6770 0.6610 0.6470 0.6320
6.655000 0.6180 0.6020 0.5870 0.5710 0.5550
6.679409 0.5400 0.5240 0.5070 0.4720 0.4530
6.704000 0.4340 0.4140 0.3950 0.3730 0.3510
6.728409 0.3400 0.3260 0.3170 0.3110 0.3020
6.753000 0.2950 0.2880 0.2790 0.2720 0.2650
6.777409 0.2560 0.2490 0.2420 0.2360 0.2280
6.802000 0.2220 0.2160 0.2110 0.2080 0.2040
6.826409 0.2000 0.1980 0.1970 0.1950 0.1890
6.850000 0.1880 0.1830 0.1810 0.1810 0.1830
6.874409 0.1870 0.1900 0.1940 0.1990 0.2030
6.899000 0.2080 0.2120 0.2170 0.2220 0.2280
6.923409 0.2340 0.2400 0.2480 0.2550 0.2630
6.948000 0.2730 0.2830 0.2930 0.3040 0.3160
6.972409 0.3280 0.3350 0.3440 0.3520 0.3630
6.997000 0.3740 0.3860 0.3990 0.4110 0.4230
7.021409 0.4340 0.4460 0.4560 0.4650 0.4740
7.046000 0.4800 0.4860 0.4890 0.4910 0.4930
7.070409 0.4950 0.4960 0.4960 0.4960 0.4950
7.094000 0.4900 0.4850 0.4790 0.4720 0.4650
7.118409 0.4590 0.4530 0.4450 0.4360 0.4250
7.143000 0.4110 0.4050 0.3960 0.3910 0.3880
7.167409 0.3840 0.3830 0.3850 0.3950 0.4000
7.192000 0.4010 0.4120 0.4250 0.4350 0.4390
7.216409 0.4460 0.4470 0.4500 0.4530 0.4580
7.241000 0.4610 0.4630 0.4680 0.4750 0.4820
7.265409 0.4910 0.4960 0.5010 0.5120 0.5240
7.290000 0.5370 0.5490 0.5640 0.5770 0.5920
7.314409 0.6070 0.6210 0.6360 0.6500 0.6640
7.338000 0.6770 0.6900 0.7030 0.7150 0.7260
7.362409 0.7340 0.7430 0.7500 0.7560 0.7600
7.387000 0.7620 0.7650 0.7670 0.7700 0.7730
7.411409 0.7740 0.7740 0.7730 0.7730 0.7700
7.436000 0.7660 0.7600 0.7530 0.7460 0.7390
7.460409 0.7320 0.7250 0.7160 0.7140 0.7110
7.485000 0.7100 0.7090 0.7080 0.7080 0.7040
7.509409 0.7030 0.7000 0.6990 0.6950 0.6920
7.534000 0.6870 0.6820 0.6750 0.6690 0.6610
7.558409 0.6530 0.6440 0.6360 0.6260 0.6180
7.582000 0.6080 0.5980 0.5880 0.5790 0.5690
7.606409 0.5590 0.5490 0.5410 0.5310 0.5230
7.631000 0.5150 0.5070 0.4900 0.4760 0.4620
7.655409 0.4460 0.4270 0.4070 0.3860 0.3660
7.680000 0.3440 0.3210 0.2990 0.2770 0.2560
7.704409 0.2360 0.2060 0.1860 0.1640 0.1450
7.729000 0.1280 0.1150 0.1040 0.0960 0.0880
7.753409 0.0820 0.0770 0.0750 0.0720 0.0710
7.778000 0.0710 0.0710 0.0710 0.0710 0.0720
7.802409 0.0720 0.0720 0.0720 0.0720 0.0720
7.826000 0.0720 0.0710 0.0710 0.0710 0.0700
7.850409 0.0700 0.0700 0.0680 0.0660 0.0650
7.875000 0.0640 0.0640 0.0630 0.0620 0.0620
7.899409 0.0620 0.0630 0.0630 0.0640 0.0660
7.924000 0.0720 0.0800 0.0880 0.0990 0.1130
7.948409 0.1270 0.1430 0.1590 0.1770 0.1970
7.973000 0.2160 0.2360 0.2560 0.2780 0.2990
7.997409 0.3210 0.3410 0.3620 0.3810 0.4020
8.022000 0.4200 0.4390 0.4560 0.4720 0.4850
8.046409 0.4950 0.5040 0.5230 0.5410 0.5580
8.070000 0.5750 0.5910 0.6070 0.6220 0.6370
8.094409 0.6500 0.6640 0.6750 0.6870 0.6970
8.119000 0.7050 0.7140 0.7210 0.7260 0.7290
8.143409 0.7330 0.7370 0.7420 0.7450 0.7500
8.168000 0.7540 0.7590 0.7610 0.7650 0.7660
8.192409 0.7700 0.7730 0.7760 0.7780 0.7790
8.217000 0.7820 0.7830 0.7840 0.7850 0.7870
8.241409 0.7880 0.7890 0.7890 0.7900 0.7910
8.266000 0.7930 0.7940 0.7960 0.7980 0.7990
8.290409 0.8000 0.8000 0.8000 0.8010 0.8020
8.314000 0.8020 0.8040 0.8040 0.8050 0.8050
8.338409 0.8070 0.8090 0.8090 0.8100 0.8110
8.363000 0.8110 0.8110 0.8120 0.8120 0.8120
8.387409 0.8120 0.8120 0.8120 0.8120 0.8120
8.412000 0.8120 0.8110 0.8110 0.8100 0.8100
8.436409 0.8070 0.8050 0.8040 0.8020 0.8010
8.461000 0.8000 0.7990 0.7960 0.7940 0.7910
8.485409 0.7890 0.7880 0.7850 0.7840 0.7820
8.510000 0.7810 0.7790 0.7790 0.7780 0.7770
8.534409 0.7760 0.7760 0.7740 0.7740 0.7740
8.558000 0.7740 0.7740 0.7740 0.7730 0.7730
8.582409 0.7730 0.7730 0.7720 0.7700 0.7670
8.607000 0.7630 0.7610 0.7600 0.7570 0.7570
8.631409 0.7560 0.7550 0.7550 0.7540 0.7530
8.656000 0.7530 0.7530 0.7540 0.7550 0.7550
8.680409 0.7560 0.7560 0.7570 0.7570 0.7600
8.705000 0.7610 0.7620 0.7630 0.7630 0.7650
8.729409 0.7660 0.7670 0.7680 0.7700 0.7710
8.754000 0.7710 0.7720 0.7730 0.7730 0.7740
8.778409 0.7740 0.7740 0.7740 0.7740 0.7740
8.802000 0.7740 0.7730 0.7710 0.7680 0.7670
8.826409 0.7650 0.7610 0.7570 0.7560 0.7540
8.851000 0.7500 0.7480 0.7440 0.7390 0.7360
8.875409 0.7310 0.7260 0.7220 0.7170 0.7110
8.900000 0.7040 0.6970 0.6890 0.6800 0.6710
8.924409 0.6610 0.6520 0.6420 0.6310 0.6210
8.949000 0.6100 0.6000 0.5900 0.5800 0.5690
8.973409 0.5630 0.5540 0.5460 0.5370 0.5290
8.998000 0.5200 0.5120 0.5020 0.4960 0.4950
9.022409 0.4920 0.4910 0.4900 0.4890 0.4870
9.046000 0.4840 0.4820 0.4790 0.4750 0.4730
9.070409 0.4690 0.4670 0.4630 0.4620 0.4630
9.095000 0.4630 0.4650 0.4680 0.4720 0.4730
9.119409 0.4750 0.4750 0.4750 0.4760 0.4760
9.144000 0.4750 0.4720 0.4720 0.4690 0.4690
9.168409 0.4680 0.4680 0.4680 0.4690 0.4700
9.193000 0.4720 0.4740 0.4760 0.4790 0.4810
9.217409 0.4850 0.4890 0.4930 0.4980 0.5020
9.242000 0.5040 0.5100 0.5180 0.5250 0.5340
9.266409 0.5410 0.5490 0.5580 0.5650 0.5720
9.290000 0.5800 0.5870 0.5940 0.5990 0.6050
9.314409 0.6100 0.6150 0.6190 0.6240 0.6280
9.339000 0.6330 0.6370 0.6420 0.6450 0.6490
9.363409 0.6530 0.6560 0.6590 0.6630 0.6650
9.388000 0.6660 0.6690 0.6700 0.6710 0.6730
9.412409 0.6750 0.6770 0.6780 0.6800 0.6810
9.437000 0.6820 0.6830 0.6840 0.6860 0.6870
9.461409 0.6890 0.6900 0.6940 0.6950 0.6970
9.486000 0.6980 0.7000 0.7030 0.7050 0.7080
9.510409 0.7090 0.7120 0.7150 0.7170 0.7200
9.534000 0.7230 0.7270 0.7310 0.7330 0.7390
9.558409 0.7440 0.7490 0.7540 0.7600 0.7630
9.583000 0.7680 0.7720 0.7770 0.7790 0.7830
9.607409 0.7840 0.7880 0.7890 0.7890 0.7890
9.632000 0.7880 0.7770 0.7700 0.7560 0.7460
9.656409 0.7430 0.7360 0.7310 0.7290 0.7310
9.681000 0.7340 0.7390 0.7450 0.7500 0.7550
9.705409 0.7600 0.7660 0.7710 0.7740 0.7770
9.730000 0.7790 0.7810 0.7810 0.7820 0.7830
9.754409 0.7830 0.7830 0.7830 0.7830 0.7820
9.778000 0.7810 0.7790 0.7780 0.7770 0.7760
9.802409 0.7740 0.7710 0.7600 0.7560 0.7530
9.827000 0.7480 0.7430 0.7370 0.7320 0.7260
9.851409 0.7180 0.7120 0.7050 0.6980 0.6920
9.876000 0.6840 0.6770 0.6690 0.6610 0.6540
9.900409 0.6470 0.6390 0.6320 0.6250 0.6160
9.925000 0.6070 0.6000 0.5960 0.5910 0.5860
9.949409 0.5820 0.5770 0.5740 0.5710 0.5690
9.974000 0.5650 0.5640 0.5620 0.5590 0.5580
9.998409 0.5570 0.5550 0.5540 0.5530 0.5520
10.022000 0.5490 0.5480 0.5470 0.5460 0.5420
10.046409 0.5370 0.5310 0.5290 0.5260 0.5240
10.071000 0.5240 0.5230 0.5210 0.5210 0.5180
10.095409 0.5150 0.5120 0.5060 0.5010 0.4870
10.120000 0.4790 0.4720 0.4630 0.4540 0.4450
10.144409 0.4350 0.4250 0.4160 0.4060 0.4000
10.169000 0.3940 0.3880 0.3840 0.3790 0.3770
10.193409 0.3730 0.3720 0.3710 0.3680 0.3670
10.218000 0.3660 0.3660 0.3670 0.3690 0.3730
10.242409 0.3780 0.3840 0.3900 0.3970 0.4050
10.266000 0.4130 0.4200 0.4280 0.4340 0.4390
10.290409 0.4400 0.4410 0.4410 0.4410 0.4410
10.315000 0.4410 0.4420 0.4450 0.4480 0.4520
10.339409 0.4560 0.4620 0.4670 0.4730 0.4790
10.364000 0.4820 0.4870 0.4910 0.4910 0.4920
10.388409 0.4950 0.4960 0.4970 0.4980 0.5000
10.413000 0.5010 0.5010 0.5020 0.5040 0.5060
10.437409 0.5090 0.5140 0.5190 0.5240 0.5300
10.462000 0.5360 0.5430 0.5510 0.5580 0.5660
10.486409 0.5740 0.5820 0.5910 0.5990 0.6080
10.510000 0.6160 0.6250 0.6350 0.6430 0.6500
10.534409 0.6590 0.6670 0.6750 0.6820 0.6890
10.559000 0.6970 0.7030 0.7080 0.7140 0.7170
10.583409 0.7230 0.7270 0.7320 0.7360 0.7420
10.608000 0.7480 0.7540 0.7550 0.7590 0.7600
10.632409 0.7610 0.7650 0.7680 0.7710 0.7730
10.657000 0.7760 0.7780 0.7790 0.7810 0.7820
10.681409 0.7830 0.7840 0.7850 0.7870 0.7880
10.706000 0.7890 0.7900 0.7910 0.7930 0.7930
10.730409 0.7940 0.7950 0.7960 0.7980 0.7980
10.754000 0.7980 0.7980 0.7990 0.7990 0.7990
10.778409 0.7990 0.7990 0.7990 0.7990 0.7980
10.803000 0.7980 0.7960 0.7960 0.7950 0.7940
10.827409 0.7940 0.7930 0.7930 0.7900 0.7910
10.852000 0.7900 0.7890 0.7880 0.7870 0.7840
10.876409 0.7830 0.7820 0.7790 0.7780 0.7760
10.901000 0.7740 0.7720 0.7710 0.7680 0.7670
10.925409 0.7650 0.7620 0.7610 0.7590 0.7570
10.950000 0.7550 0.7540 0.7530 0.7500 0.7480
10.974409 0.7430 0.7370 0.7320 0.7270 0.7230
10.998000 0.7200 0.7160 0.7110 0.7100 0.7090
11.022409 0.7090 0.7100 0.7100 0.7100 0.7100
11.047000 0.7100 0.7100 0.7100 0.7100 0.7100
11.071409 0.7100 0.7100 0.7090 0.7040 0.7030
11.096000 0.7010 0.7010 0.6990 0.6980 0.6940
11.120409 0.6930 0.6920 0.6900 0.6890 0.6880
11.145000 0.6860 0.6830 0.6820 0.6810 0.6780
11.169409 0.6770 0.6730 0.6720 0.6710 0.6690
11.194000 0.6670 0.6650 0.6630 0.6610 0.6590
11.218409 0.6580 0.6550 0.6540 0.6530 0.6520
11.242000 0.6500 0.6500 0.6490 0.6470 0.6450
11.266409 0.6440 0.6440 0.6430 0.6430 0.6430
11.291000 0.6420 0.6410 0.6380 0.6370 0.6370
11.315409 0.6360 0.6350 0.6330 0.6310 0.6280
11.340000 0.6250 0.6210 0.6190 0.6160 0.6140
11.364409 0.6130 0.6110 0.6110 0.6110 0.6100
11.389000 0.6100 0.6100 0.6100 0.6100 0.6100
11.413409 0.6100 0.6090 0.6090 0.6070 0.6030
11.438000 0.5990 0.5940 0.5880 0.5830 0.5770
11.462409 0.5710 0.5680 0.5640 0.5620 0.5600
11.486000 0.5620 0.5660 0.5710 0.5760 0.5810
11.510409 0.5860 0.5920 0.5970 0.6020 0.6050
11.535000 0.6100 0.6140 0.6180 0.6200 0.6210
11.559409 0.6220 0.6240 0.6250 0.6260 0.6270
11.584000 0.6280 0.6300 0.6300 0.6310 0.6320
11.608409 0.6330 0.6360 0.6370 0.6380 0.6390
11.633000 0.6390 0.6410 0.6420 0.6430 0.6440
11.657409 0.6450 0.6480 0.6500 0.6520 0.6530
11.682000 0.6540 0.6540 0.6560 0.6580 0.6590
11.706409 0.6610 0.6630 0.6650 0.6660 0.6690
11.730000 0.6710 0.6730 0.6760 0.6780 0.6810
11.754409 0.6830 0.6860 0.6880 0.6890 0.6920
11.779000 0.6970 0.6980 0.6990 0.7000 0.7030
11.803409 0.7050 0.7080 0.7100 0.7140 0.7160
11.828000 0.7200 0.7220 0.7250 0.7260 0.7280
11.852409 0.7290 0.7310 0.7320 0.7340 0.7370
11.877000 0.7390 0.7430 0.7440 0.7490 0.7510
11.901409 0.7530 0.7540 0.7550 0.7570 0.7600
11.926000 0.7620 0.7650 0.7670 0.7700 0.7720
11.950409 0.7740 0.7780 0.7810 0.7830 0.7840
11.974000 0.7870 0.7900 0.7930 0.7950 0.7960
11.998409 0.7990 0.8000 0.8020 0.8020 0.8060
12.023000 0.8090 0.8110 0.8120 0.8130 0.8160
12.047409 0.8170 0.8180 0.8190 0.8220 0.8230
12.072000 0.8240 0.8260 0.8270 0.8280 0.8290
12.096409 0.8300 0.8320 0.8320 0.8330 0.8340
12.121000 0.8350 0.8360 0.8380 0.8390 0.8400
12.145409 0.8410 0.8410 0.8430 0.8440 0.8440
12.170000 0.8450 0.8460 0.8460 0.8470 0.8470
12.194409 0.8490 0.8490 0.8500 0.8500 0.8510
12.218000 0.8510 0.8510 0.8510 0.8520 0.8520
12.242409 0.8520 0.8520 0.8520 0.8540 0.8540
12.267000 0.8540 0.8540 0.8550 0.8550 0.8550
12.291409 0.8550 0.8560 0.8560 0.8560 0.8560
12.316000 0.8560 0.8570 0.8570 0.8570 0.8570
12.340409 0.8570 0.8570 0.8580 0.8580 0.8580
12.365000 0.8570 0.8570 0.8570 0.8570 0.8570
12.389409 0.8570 0.8570 0.8570 0.8570 0.8570
12.414000 0.8570 0.8580 0.8580 0.8580 0.8580
12.438409 0.8580 0.8580 0.8580 0.8580 0.8580
12.462000 0.8580 0.8580 0.8580 0.8570 0.8570
12.486409 0.8570 0.8570 0.8560 0.8550 0.8550
12.511000 0.8550 0.8550 0.8550 0.8550 0.8550
12.535409 0.8550 0.8550 0.8550 0.8550 0.8550
12.560000 0.8550 0.8550 0.8540 0.8520 0.8520
