##TITLE=Ethane, chloro-
##JCAMP-DX=4.24
##DATA TYPE=INFRARED SPECTRUM
##CLASS=COBLENTZ
##ORIGIN=DOW CHEMICAL COMPANY
##OWNER=Copyright (C) 1987 by the Coblentz Society
Collection (C) 2018 copyright by the U.S. Secretary of Commerce
on behalf of the United States of America. All rights reserved.
##DATE=1964
##NAMES=1-chloroethane
ETHYL CHLORIDE
##CAS REGISTRY NO=75-00-3
##MOLFORM=C2 H5 Cl
##SOURCE REFERENCE=COBLENTZ NO. 8837
##$NIST SOURCE=COBLENTZ
##$NIST IMAGE=cob8837
##SPECTROMETER/DATA SYSTEM=DOW KBr FOREPRISM-GRATING
##INSTRUMENT PARAMETERS=GRATING CHANGED AT 5.0, 7.5, 15.0 MICRON
##STATE=GAS (100 mmHg, N2 ADDED, TOTAL PRESSURE 600 mmHg)
##PATH LENGTH=5 CM
##SAMPLING PROCEDURE=TRANSMISSION
##RESOLUTION=2
##DATA PROCESSING=DIGITIZED BY COBLENTZ SOCIETY (BATCH II) FROM HARD COPY
##XUNITS=1/CM
##YUNITS=TRANSMITTANCE
##XFACTOR=1.0
##YFACTOR=1
##FIRSTX=456
##LASTX=3798
##FIRSTY=0.8645
##MAXX=3798
##MINX=456
##MAXY=0.9067
##MINY=0.0875
##NPOINTS=3343
##XYDATA=(X++(Y..Y))
456.000000 0.8645 0.8646 0.8647 0.8648 0.8650
461.000000 0.8651 0.8653 0.8655 0.8656 0.8658
466.000000 0.8660 0.8662 0.8663 0.8665 0.8667
471.000000 0.8668 0.8670 0.8672 0.8674 0.8676
476.000000 0.8679 0.8681 0.8683 0.8685 0.8689
481.000000 0.8694 0.8699 0.8705 0.8710 0.8715
486.000000 0.8721 0.8729 0.8738 0.8746 0.8754
491.000000 0.8762 0.8771 0.8779 0.8787 0.8792
496.000000 0.8797 0.8801 0.8805 0.8808 0.8808
501.000000 0.8808 0.8808 0.8808 0.8808 0.8808
506.000000 0.8808 0.8808 0.8808 0.8808 0.8808
511.000000 0.8808 0.8808 0.8808 0.8807 0.8807
516.000000 0.8807 0.8807 0.8806 0.8804 0.8803
521.000000 0.8801 0.8800 0.8798 0.8797 0.8795
526.000000 0.8794 0.8792 0.8790 0.8784 0.8778
531.000000 0.8772 0.8766 0.8760 0.8752 0.8743
536.000000 0.8734 0.8725 0.8715 0.8706 0.8697
541.000000 0.8688 0.8679 0.8670 0.8661 0.8652
546.000000 0.8644 0.8635 0.8629 0.8625 0.8622
551.000000 0.8618 0.8614 0.8620 0.8609 0.8612
556.000000 0.8615 0.8617 0.8620 0.8623 0.8626
561.000000 0.8629 0.8632 0.8635 0.8638 0.8641
566.000000 0.8644 0.8647 0.8650 0.8654 0.8657
571.000000 0.8660 0.8663 0.8667 0.8670 0.8673
576.000000 0.8677 0.8680 0.8683 0.8686 0.8689
581.000000 0.8692 0.8695 0.8698 0.8701 0.8704
586.000000 0.8707 0.8710 0.8712 0.8714 0.8716
591.000000 0.8718 0.8721 0.8723 0.8725 0.8725
596.000000 0.8723 0.8722 0.8720 0.8718 0.8717
601.000000 0.8715 0.8712 0.8707 0.8702 0.8697
606.000000 0.8692 0.8687 0.8682 0.8677 0.8672
611.000000 0.8663 0.8652 0.8641 0.8630 0.8618
616.000000 0.8607 0.8596 0.8585 0.8574 0.8561
621.000000 0.8548 0.8536 0.8523 0.8511 0.8498
626.000000 0.8485 0.8473 0.8459 0.8435 0.8411
631.000000 0.8386 0.8362 0.8337 0.8311 0.8277
636.000000 0.8243 0.8210 0.8176 0.8128 0.8065
641.000000 0.8002 0.7938 0.7859 0.7776 0.7694
646.000000 0.7607 0.7413 0.7181 0.6912 0.6661
651.000000 0.6498 0.6335 0.6144 0.5760 0.5376
656.000000 0.4993 0.4609 0.4225 0.3841 0.3458
661.000000 0.2923 0.2641 0.2394 0.2247 0.2143
666.000000 0.2052 0.1964 0.1887 0.1868 0.1849
671.000000 0.1845 0.1828 0.1823 0.2165 0.2654
676.000000 0.3143 0.3567 0.3575 0.2414 0.1069
681.000000 0.1705 0.2761 0.3160 0.3164 0.2226
686.000000 0.1696 0.1300 0.1244 0.1241 0.1225
691.000000 0.1657 0.2202 0.2747 0.3293 0.3838
696.000000 0.4383 0.4929 0.5474 0.6019 0.6565
701.000000 0.7110 0.7655 0.8201 0.8405 0.8631
706.000000 0.8698 0.8763 0.8792 0.8821 0.8847
711.000000 0.8863 0.8879 0.8896 0.8912 0.8925
716.000000 0.8937 0.8949 0.8961 0.8974 0.8979
721.000000 0.8984 0.8989 0.8994 0.8998 0.8998
726.000000 0.8998 0.8998 0.8998 0.8997 0.8997
731.000000 0.9009 0.8994 0.8991 0.8989 0.8987
736.000000 0.8985 0.8982 0.8979 0.8974 0.8970
741.000000 0.8965 0.8961 0.8957 0.8951 0.8944
746.000000 0.8937 0.8930 0.8923 0.8916 0.8907
751.000000 0.8892 0.8878 0.8863 0.8849 0.8834
756.000000 0.8820 0.8804 0.8787 0.8771 0.8755
761.000000 0.8739 0.8723 0.8707 0.8688 0.8669
766.000000 0.8650 0.8631 0.8612 0.8593 0.8574
771.000000 0.8555 0.8536 0.8524 0.8512 0.8501
776.000000 0.8489 0.8478 0.8466 0.8456 0.8450
781.000000 0.8445 0.8439 0.8434 0.8428 0.8417
786.000000 0.8401 0.8379 0.7920 0.7360 0.6801
791.000000 0.6735 0.6761 0.7205 0.7524 0.7843
796.000000 0.8162 0.8224 0.8239 0.8254 0.8271
801.000000 0.8285 0.8295 0.8306 0.8320 0.8333
806.000000 0.8346 0.8359 0.8372 0.8384 0.8396
811.000000 0.8407 0.8419 0.8430 0.8441 0.8455
816.000000 0.8468 0.8482 0.8496 0.8509 0.8530
821.000000 0.8550 0.8571 0.8591 0.8611 0.8632
826.000000 0.8652 0.8672 0.8692 0.8712 0.8731
831.000000 0.8751 0.8769 0.8786 0.8803 0.8820
836.000000 0.8836 0.8853 0.8870 0.8886 0.8899
841.000000 0.8911 0.8923 0.8935 0.8948 0.8958
846.000000 0.8968 0.8977 0.8986 0.8995 0.9005
851.000000 0.9014 0.9021 0.9025 0.9030 0.9034
856.000000 0.9039 0.9043 0.9048 0.9051 0.9054
861.000000 0.9056 0.9059 0.9062 0.9064 0.9067
866.000000 0.9067 0.9066 0.9065 0.9063 0.9062
871.000000 0.9061 0.9060 0.9059 0.9058 0.9057
876.000000 0.9055 0.9053 0.9050 0.9047 0.9044
881.000000 0.9042 0.9039 0.9036 0.9033 0.9031
886.000000 0.9028 0.9025 0.9022 0.9020 0.9018
891.000000 0.9017 0.9016 0.9014 0.9028 0.9012
896.000000 0.9010 0.9009 0.9008 0.9006 0.9005
901.000000 0.9004 0.9003 0.9002 0.9002 0.9001
906.000000 0.9000 0.8999 0.8998 0.8998 0.8997
911.000000 0.8996 0.8995 0.8995 0.8994 0.8994
916.000000 0.8993 0.8993 0.8992 0.8992 0.8991
921.000000 0.8988 0.8984 0.8979 0.8975 0.8970
926.000000 0.8966 0.8955 0.8939 0.8916 0.8893
931.000000 0.8870 0.8847 0.8821 0.8792 0.8763
936.000000 0.8732 0.8702 0.8657 0.8613 0.8568
941.000000 0.8521 0.8441 0.8360 0.8266 0.8142
946.000000 0.8017 0.7894 0.7771 0.7583 0.7296
951.000000 0.6918 0.6580 0.6283 0.5750 0.5637
956.000000 0.5283 0.4923 0.4563 0.4203 0.3843
961.000000 0.3483 0.3123 0.2871 0.2872 0.2867
966.000000 0.2913 0.3050 0.3203 0.3377 0.3551
971.000000 0.3724 0.4000 0.3996 0.1653 0.1663
976.000000 0.3650 0.5194 0.6185 0.6198 0.5674
981.000000 0.4918 0.4162 0.3407 0.2651 0.2309
986.000000 0.2293 0.2507 0.2685 0.2920 0.3140
991.000000 0.3539 0.3940 0.4340 0.4741 0.5141
996.000000 0.5542 0.5942 0.6343 0.6743 0.7144
1001.000000 0.7544 0.7945 0.8172 0.8261 0.8305
1006.000000 0.8337 0.8340 0.8342 0.8344 0.8339
1011.000000 0.8334 0.8330 0.8325 0.8321 0.8326
1016.000000 0.8333 0.8340 0.8352 0.8363 0.8383
1021.000000 0.8403 0.8423 0.8445 0.8467 0.8476
1026.000000 0.8478 0.8471 0.8460 0.8449 0.8437
1031.000000 0.8425 0.8461 0.8506 0.8542 0.8558
1036.000000 0.8553 0.8549 0.8535 0.8516 0.8494
1041.000000 0.8457 0.8429 0.8486 0.8526 0.8554
1046.000000 0.8542 0.8532 0.8522 0.8513 0.8505
1051.000000 0.8497 0.8500 0.8504 0.8512 0.8522
1056.000000 0.8532 0.8542 0.8553 0.8563 0.8572
1061.000000 0.8581 0.8590 0.8599 0.8608 0.8616
1066.000000 0.8624 0.8632 0.8640 0.8649 0.8658
1071.000000 0.8667 0.8676 0.8679 0.8681 0.8675
1076.000000 0.8665 0.8654 0.8641 0.8628 0.8615
1081.000000 0.8609 0.8617 0.8636 0.8660 0.8685
1086.000000 0.8710 0.8733 0.8753 0.8773 0.8791
1091.000000 0.8807 0.8823 0.8839 0.8855 0.8869
1096.000000 0.8879 0.8889 0.8899 0.8909 0.8919
1101.000000 0.8929 0.8939 0.8945 0.8951 0.8957
1106.000000 0.8963 0.8969 0.8975 0.8979 0.8984
1111.000000 0.8989 0.8994 0.8999 0.9004 0.9009
1116.000000 0.9014 0.9018 0.9023 0.9027 0.9031
1121.000000 0.9035 0.9039 0.9043 0.9047 0.9050
1126.000000 0.9050 0.9050 0.9050 0.9050 0.9050
1131.000000 0.9050 0.9050 0.9050 0.9050 0.9046
1136.000000 0.9043 0.9039 0.9036 0.9032 0.9028
1141.000000 0.9023 0.9015 0.9008 0.9000 0.8999
1146.000000 0.8999 0.8999 0.8999 0.8999 0.9000
1151.000000 0.9002 0.9004 0.9005 0.9007 0.9008
1156.000000 0.9010 0.9012 0.9014 0.9016 0.9019
1161.000000 0.9021 0.9023 0.9025 0.9028 0.9031
1166.000000 0.9034 0.9037 0.9040 0.9043 0.9036
1171.000000 0.9040 0.9038 0.9036 0.9034 0.9032
1176.000000 0.9026 0.9018 0.9011 0.9004 0.8997
1181.000000 0.8989 0.8972 0.8954 0.8949 0.8960
1186.000000 0.8976 0.8996 0.9016 0.9031 0.9035
1191.000000 0.9035 0.9035 0.9034 0.9032 0.9031
1196.000000 0.9029 0.9027 0.9025 0.9022 0.9020
1201.000000 0.9019 0.9018 0.9017 0.9017 0.9016
1206.000000 0.9015 0.9014 0.9013 0.9011 0.9010
1211.000000 0.9009 0.9007 0.9006 0.9005 0.9003
1216.000000 0.9001 0.8999 0.8996 0.8993 0.8991
1221.000000 0.8988 0.8986 0.8983 0.8981 0.8976
1226.000000 0.8970 0.8964 0.8958 0.8952 0.8946
1231.000000 0.8940 0.8934 0.8928 0.8922 0.8916
1236.000000 0.8906 0.8896 0.8887 0.8877 0.8867
1241.000000 0.8852 0.8832 0.8811 0.8791 0.8770
1246.000000 0.8750 0.8721 0.8687 0.8654 0.8621
1251.000000 0.8587 0.8554 0.8516 0.8473 0.8429
1256.000000 0.8392 0.8383 0.8317 0.8132 0.8016
1261.000000 0.7917 0.7813 0.7701 0.7590 0.7402
1266.000000 0.7224 0.7070 0.6915 0.6504 0.5962
1271.000000 0.5419 0.4877 0.4335 0.3792 0.3250
1276.000000 0.2863 0.2647 0.2449 0.2298 0.2138
1281.000000 0.1994 0.1918 0.1927 0.2004 0.2171
1286.000000 0.2337 0.2504 0.2670 0.2842 0.2876
1291.000000 0.2450 0.1875 0.2043 0.2862 0.3380
1296.000000 0.3360 0.2997 0.2629 0.2260 0.1891
1301.000000 0.1522 0.1267 0.1291 0.1562 0.1959
1306.000000 0.2356 0.2753 0.3150 0.3547 0.3944
1311.000000 0.4341 0.4738 0.5136 0.5254 0.5314
1316.000000 0.5357 0.5407 0.5466 0.5563 0.5697
1321.000000 0.5934 0.6241 0.6268 0.6282 0.6289
1326.000000 0.6296 0.6312 0.6334 0.6368 0.6452
1331.000000 0.6577 0.6667 0.6763 0.6860 0.6982
1336.000000 0.7115 0.7257 0.7363 0.7457 0.7522
1341.000000 0.7581 0.7628 0.7676 0.7706 0.7736
1346.000000 0.7763 0.7775 0.7804 0.7781 0.7779
1351.000000 0.7738 0.7633 0.7527 0.7432 0.7432
1356.000000 0.7528 0.7746 0.7827 0.7831 0.7779
1361.000000 0.7723 0.7660 0.7619 0.7582 0.7566
1366.000000 0.7552 0.7613 0.7642 0.7678 0.7702
1371.000000 0.7691 0.7697 0.7681 0.7628 0.7544
1376.000000 0.7441 0.7288 0.7164 0.6942 0.6812
1381.000000 0.6727 0.6685 0.6655 0.6635 0.6623
1386.000000 0.6574 0.6497 0.6421 0.6308 0.6298
1391.000000 0.6359 0.7446 0.7207 0.7477 0.6435
1396.000000 0.6049 0.5663 0.5454 0.5430 0.5429
1401.000000 0.5435 0.5472 0.5720 0.5968 0.6216
1406.000000 0.6464 0.6711 0.6848 0.6924 0.7036
1411.000000 0.7076 0.7108 0.7122 0.7132 0.7135
1416.000000 0.7123 0.7123 0.7114 0.7104 0.7091
1421.000000 0.7079 0.7062 0.7041 0.7019 0.6989
1426.000000 0.6949 0.6909 0.6865 0.6820 0.6773
1431.000000 0.6723 0.6674 0.6623 0.6569 0.6516
1436.000000 0.6467 0.6428 0.6389 0.6350 0.6312
1441.000000 0.6279 0.6247 0.6214 0.6176 0.6123
1446.000000 0.6070 0.5999 0.5775 0.5322 0.4869
1451.000000 0.4416 0.3963 0.3886 0.4278 0.5038
1456.000000 0.5790 0.5793 0.5794 0.5794 0.5809
1461.000000 0.5771 0.5718 0.5694 0.5811 0.5862
1466.000000 0.5849 0.5708 0.5714 0.5675 0.5691
1471.000000 0.5804 0.6047 0.6215 0.6206 0.6185
1476.000000 0.6164 0.6157 0.6160 0.6171 0.6208
1481.000000 0.6258 0.6307 0.6356 0.6406 0.6455
1486.000000 0.6505 0.6579 0.6664 0.6731 0.6791
1491.000000 0.6850 0.6909 0.6979 0.7053 0.7122
1496.000000 0.7190 0.7259 0.7327 0.7396 0.7470
1501.000000 0.7545 0.7617 0.7685 0.7752 0.7813
1506.000000 0.7862 0.7912 0.7962 0.7999 0.8031
1511.000000 0.8062 0.8094 0.8127 0.8167 0.8207
1516.000000 0.8247 0.8284 0.8320 0.8355 0.8391
1521.000000 0.8424 0.8452 0.8479 0.8506 0.8534
1526.000000 0.8561 0.8588 0.8605 0.8617 0.8630
1531.000000 0.8642 0.8652 0.8661 0.8670 0.8680
1536.000000 0.8689 0.8701 0.8714 0.8727 0.8739
1541.000000 0.8752 0.8778 0.8784 0.8778 0.8754
1546.000000 0.8761 0.8750 0.8736 0.8724 0.8717
1551.000000 0.8711 0.8712 0.8714 0.8719 0.8728
1556.000000 0.8738 0.8747 0.8760 0.8772 0.8784
1561.000000 0.8789 0.8779 0.8766 0.8744 0.8730
1566.000000 0.8718 0.8705 0.8693 0.8686 0.8684
1571.000000 0.8683 0.8683 0.8684 0.8685 0.8686
1576.000000 0.8687 0.8687 0.8688 0.8688 0.8689
1581.000000 0.8690 0.8689 0.8688 0.8687 0.8686
1586.000000 0.8685 0.8684 0.8683 0.8682 0.8680
1591.000000 0.8679 0.8677 0.8676 0.8675 0.8673
1596.000000 0.8671 0.8669 0.8667 0.8665 0.8663
1601.000000 0.8661 0.8658 0.8656 0.8654 0.8652
1606.000000 0.8650 0.8648 0.8645 0.8643 0.8641
1611.000000 0.8638 0.8636 0.8633 0.8631 0.8629
1616.000000 0.8625 0.8622 0.8618 0.8615 0.8609
1621.000000 0.8603 0.8597 0.8591 0.8583 0.8572
1626.000000 0.8561 0.8550 0.8541 0.8533 0.8531
1631.000000 0.8535 0.8540 0.8544 0.8551 0.8562
1636.000000 0.8574 0.8586 0.8598 0.8594 0.8591
1641.000000 0.8584 0.8576 0.8576 0.8577 0.8580
1646.000000 0.8585 0.8591 0.8597 0.8605 0.8614
1651.000000 0.8612 0.8605 0.8598 0.8591 0.8584
1656.000000 0.8581 0.8580 0.8578 0.8577 0.8579
1661.000000 0.8580 0.8581 0.8582 0.8584 0.8585
1666.000000 0.8585 0.8585 0.8585 0.8585 0.8585
1671.000000 0.8585 0.8586 0.8586 0.8587 0.8587
1676.000000 0.8587 0.8588 0.8590 0.8594 0.8600
1681.000000 0.8606 0.8613 0.8619 0.8621 0.8622
1686.000000 0.8615 0.8607 0.8599 0.8591 0.8584
1691.000000 0.8578 0.8573 0.8570 0.8572 0.8583
1696.000000 0.8593 0.8602 0.8610 0.8618 0.8626
1701.000000 0.8634 0.8640 0.8634 0.8625 0.8614
1706.000000 0.8604 0.8594 0.8585 0.8575 0.8577
1711.000000 0.8580 0.8584 0.8587 0.8590 0.8600
1716.000000 0.8611 0.8623 0.8634 0.8645 0.8651
1721.000000 0.8644 0.8637 0.8629 0.8622 0.8613
1726.000000 0.8605 0.8603 0.8602 0.8601 0.8601
1731.000000 0.8601 0.8601 0.8605 0.8613 0.8621
1736.000000 0.8629 0.8634 0.8639 0.8631 0.8623
1741.000000 0.8617 0.8611 0.8608 0.8608 0.8608
1746.000000 0.8612 0.8617 0.8621 0.8631 0.8645
1751.000000 0.8651 0.8644 0.8637 0.8630 0.8621
1756.000000 0.8612 0.8605 0.8601 0.8598 0.8596
1761.000000 0.8597 0.8598 0.8600 0.8602 0.8604
1766.000000 0.8606 0.8609 0.8612 0.8620 0.8627
1771.000000 0.8635 0.8643 0.8649 0.8654 0.8652
1776.000000 0.8641 0.8631 0.8621 0.8614 0.8607
1781.000000 0.8606 0.8606 0.8606 0.8606 0.8608
1786.000000 0.8610 0.8612 0.8613 0.8615 0.8616
1791.000000 0.8617 0.8618 0.8619 0.8621 0.8620
1796.000000 0.8620 0.8620 0.8620 0.8620 0.8620
1801.000000 0.8620 0.8620 0.8620 0.8620 0.8620
1806.000000 0.8620 0.8620 0.8620 0.8620 0.8620
1811.000000 0.8620 0.8620 0.8620 0.8619 0.8619
1816.000000 0.8619 0.8618 0.8618 0.8618 0.8617
1821.000000 0.8617 0.8617 0.8616 0.8616 0.8616
1826.000000 0.8615 0.8615 0.8615 0.8614 0.8613
1831.000000 0.8612 0.8611 0.8610 0.8609 0.8608
1836.000000 0.8607 0.8606 0.8605 0.8604 0.8603
1841.000000 0.8602 0.8599 0.8597 0.8595 0.8592
1846.000000 0.8590 0.8588 0.8586 0.8583 0.8581
1851.000000 0.8579 0.8576 0.8573 0.8570 0.8567
1856.000000 0.8564 0.8561 0.8558 0.8555 0.8512
1861.000000 0.8466 0.8420 0.8373 0.8351 0.8394
1866.000000 0.8507 0.8583 0.8590 0.8597 0.8597
1871.000000 0.8588 0.8580 0.8574 0.8569 0.8567
1876.000000 0.8564 0.8562 0.8564 0.8566 0.8568
1881.000000 0.8570 0.8570 0.8569 0.8570 0.8571
1886.000000 0.8571 0.8572 0.8574 0.8576 0.8579
1891.000000 0.8581 0.8584 0.8587 0.8589 0.8590
1896.000000 0.8591 0.8593 0.8594 0.8596 0.8595
1901.000000 0.8595 0.8594 0.8594 0.8593 0.8593
1906.000000 0.8592 0.8592 0.8590 0.8588 0.8585
1911.000000 0.8582 0.8580 0.8577 0.8574 0.8572
1916.000000 0.8569 0.8566 0.8564 0.8561 0.8558
1921.000000 0.8554 0.8550 0.8546 0.8542 0.8538
1926.000000 0.8534 0.8530 0.8526 0.8522 0.8518
1931.000000 0.8514 0.8510 0.8506 0.8502 0.8498
1936.000000 0.8494 0.8492 0.8489 0.8486 0.8482
1941.000000 0.8480 0.8479 0.8476 0.8469 0.8462
1946.000000 0.8456 0.8451 0.8446 0.8448 0.8449
1951.000000 0.8450 0.8452 0.8453 0.8457 0.8464
1956.000000 0.8474 0.8484 0.8494 0.8502 0.8511
1961.000000 0.8519 0.8525 0.8532 0.8539 0.8545
1966.000000 0.8550 0.8554 0.8558 0.8559 0.8560
1971.000000 0.8561 0.8562 0.8562 0.8563 0.8564
1976.000000 0.8564 0.8565 0.8567 0.8568 0.8569
1981.000000 0.8571 0.8572 0.8572 0.8572 0.8572
1986.000000 0.8572 0.8572 0.8572 0.8572 0.8571
1991.000000 0.8571 0.8570 0.8570 0.8569 0.8569
1996.000000 0.8569 0.8568 0.8568 0.8567 0.8566
2001.000000 0.8564 0.8562 0.8561 0.8560 0.8559
2006.000000 0.8558 0.8557 0.8556 0.8555 0.8554
2011.000000 0.8553 0.8552 0.8551 0.8550 0.8548
2016.000000 0.8547 0.8546 0.8545 0.8544 0.8543
2021.000000 0.8541 0.8540 0.8539 0.8538 0.8536
2026.000000 0.8535 0.8532 0.8529 0.8526 0.8524
2031.000000 0.8521 0.8518 0.8515 0.8513 0.8510
2036.000000 0.8508 0.8506 0.8505 0.8505 0.8506
2041.000000 0.8506 0.8507 0.8507 0.8508 0.8508
2046.000000 0.8509 0.8510 0.8511 0.8511 0.8512
2051.000000 0.8513 0.8515 0.8516 0.8518 0.8519
2056.000000 0.8521 0.8522 0.8524 0.8525 0.8527
2061.000000 0.8528 0.8530 0.8531 0.8533 0.8534
2066.000000 0.8536 0.8537 0.8539 0.8540 0.8542
2071.000000 0.8543 0.8545 0.8547 0.8549 0.8550
2076.000000 0.8552 0.8554 0.8556 0.8558 0.8560
2081.000000 0.8561 0.8563 0.8565 0.8567 0.8569
2086.000000 0.8571 0.8572 0.8574 0.8575 0.8577
2091.000000 0.8577 0.8578 0.8578 0.8579 0.8579
2096.000000 0.8580 0.8581 0.8582 0.8582 0.8583
2101.000000 0.8583 0.8584 0.8583 0.8583 0.8583
2106.000000 0.8583 0.8582 0.8582 0.8582 0.8582
2111.000000 0.8581 0.8581 0.8581 0.8581 0.8580
2116.000000 0.8580 0.8580 0.8580 0.8578 0.8576
2121.000000 0.8574 0.8572 0.8570 0.8568 0.8566
2126.000000 0.8564 0.8562 0.8560 0.8557 0.8555
2131.000000 0.8553 0.8551 0.8549 0.8547 0.8545
2136.000000 0.8544 0.8543 0.8542 0.8541 0.8540
2141.000000 0.8539 0.8538 0.8537 0.8536 0.8535
2146.000000 0.8534 0.8533 0.8532 0.8531 0.8530
2151.000000 0.8529 0.8528 0.8527 0.8526 0.8525
2156.000000 0.8524 0.8524 0.8525 0.8525 0.8526
2161.000000 0.8526 0.8526 0.8526 0.8527 0.8527
2166.000000 0.8528 0.8528 0.8528 0.8528 0.8529
2171.000000 0.8529 0.8530 0.8530 0.8531 0.8531
2176.000000 0.8531 0.8532 0.8533 0.8534 0.8536
2181.000000 0.8538 0.8540 0.8541 0.8543 0.8544
2186.000000 0.8546 0.8546 0.8546 0.8545 0.8545
2191.000000 0.8544 0.8544 0.8543 0.8543 0.8542
2196.000000 0.8541 0.8540 0.8540 0.8539 0.8539
2201.000000 0.8538 0.8538 0.8536 0.8535 0.8534
2206.000000 0.8533 0.8532 0.8531 0.8530 0.8529
2211.000000 0.8528 0.8527 0.8525 0.8524 0.8523
2216.000000 0.8522 0.8521 0.8520 0.8518 0.8516
2221.000000 0.8512 0.8509 0.8506 0.8503 0.8499
2226.000000 0.8496 0.8493 0.8490 0.8486 0.8483
2231.000000 0.8480 0.8477 0.8473 0.8470 0.8466
2236.000000 0.8463 0.8456 0.8450 0.8443 0.8437
2241.000000 0.8430 0.8424 0.8417 0.8410 0.8403
2246.000000 0.8397 0.8392 0.8394 0.8390 0.8393
2251.000000 0.8395 0.8398 0.8401 0.8404 0.8406
2256.000000 0.8409 0.8412 0.8415 0.8417 0.8420
2261.000000 0.8423 0.8426 0.8428 0.8431 0.8434
2266.000000 0.8437 0.8440 0.8443 0.8446 0.8450
2271.000000 0.8454 0.8459 0.8464 0.8469 0.8473
2276.000000 0.8478 0.8482 0.8487 0.8492 0.8497
2281.000000 0.8501 0.8505 0.8509 0.8514 0.8518
2286.000000 0.8522 0.8526 0.8531 0.8535 0.8539
2291.000000 0.8543 0.8548 0.8551 0.8555 0.8559
2296.000000 0.8563 0.8566 0.8570 0.8574 0.8578
2301.000000 0.8582 0.8586 0.8589 0.8593 0.8597
2306.000000 0.8601 0.8604 0.8608 0.8611 0.8615
2311.000000 0.8619 0.8623 0.8626 0.8630 0.8633
2316.000000 0.8637 0.8640 0.8644 0.8648 0.8652
2321.000000 0.8655 0.8659 0.8662 0.8666 0.8669
2326.000000 0.8672 0.8674 0.8677 0.8675 0.8673
2331.000000 0.8669 0.8666 0.8662 0.8658 0.8655
2336.000000 0.8653 0.8651 0.8649 0.8647 0.8645
2341.000000 0.8643 0.8641 0.8639 0.8637 0.8636
2346.000000 0.8635 0.8635 0.8635 0.8635 0.8635
2351.000000 0.8638 0.8641 0.8650 0.8659 0.8673
2356.000000 0.8687 0.8700 0.8713 0.8720 0.8727
2361.000000 0.8734 0.8741 0.8742 0.8743 0.8743
2366.000000 0.8743 0.8741 0.8766 0.8736 0.8734
2371.000000 0.8731 0.8729 0.8722 0.8716 0.8708
2376.000000 0.8701 0.8693 0.8686 0.8668 0.8651
2381.000000 0.8647 0.8644 0.8640 0.8637 0.8634
2386.000000 0.8631 0.8630 0.8630 0.8629 0.8628
2391.000000 0.8626 0.8624 0.8622 0.8621 0.8619
2396.000000 0.8617 0.8615 0.8614 0.8612 0.8611
2401.000000 0.8609 0.8608 0.8606 0.8605 0.8603
2406.000000 0.8602 0.8598 0.8595 0.8591 0.8588
2411.000000 0.8584 0.8581 0.8578 0.8575 0.8571
2416.000000 0.8568 0.8565 0.8562 0.8559 0.8556
2421.000000 0.8552 0.8548 0.8542 0.8536 0.8530
2426.000000 0.8524 0.8518 0.8512 0.8506 0.8500
2431.000000 0.8495 0.8491 0.8486 0.8481 0.8476
2436.000000 0.8471 0.8466 0.8461 0.8456 0.8452
2441.000000 0.8449 0.8446 0.8444 0.8443 0.8441
2446.000000 0.8440 0.8438 0.8437 0.8436 0.8435
2451.000000 0.8433 0.8432 0.8433 0.8420 0.8435
2456.000000 0.8437 0.8439 0.8441 0.8442 0.8444
2461.000000 0.8446 0.8449 0.8452 0.8456 0.8461
2466.000000 0.8467 0.8474 0.8482 0.8495 0.8508
2471.000000 0.8520 0.8533 0.8542 0.8551 0.8557
2476.000000 0.8564 0.8566 0.8569 0.8571 0.8574
2481.000000 0.8574 0.8575 0.8575 0.8576 0.8576
