##TITLE=Acetonitrile
##JCAMP-DX=4.24
##DATA TYPE=INFRARED SPECTRUM
##CLASS=COBLENTZ
##ORIGIN=DOW CHEMICAL COMPANY
##OWNER=Copyright (C) 1987 by the Coblentz Society
Collection (C) 2018 copyright by the U.S. Secretary of Commerce
on behalf of the United States of America. All rights reserved.
##DATE=1964
##CAS REGISTRY NO=75-05-8
##MOLFORM=C2 H3 N
##BP=82 C
##SOURCE REFERENCE=COBLENTZ NO. 8804
##$NIST SOURCE=COBLENTZ
##$NIST IMAGE=cob8804
##SPECTROMETER/DATA SYSTEM=DOW KBr FOREPRISM-GRATING
##INSTRUMENT PARAMETERS=GRATING CHANGED AT 5.0, 7.5, 15.0 MICRON
##STATE=GAS (80 mmHg, N2 ADDED, TOTAL PRESSURE 600 mmHg)
##PATH LENGTH=10 CM
$$ ROTATIONAL LINES IN THE 3020, 1460, AND 1050 CM^-^1 ARE SMOOTHENED
##SAMPLING PROCEDURE=TRANSMISSION
##RESOLUTION=2
##DATA PROCESSING=DIGITIZED BY COBLENTZ SOCIETY (BATCH II) FROM HARD COPY
##XUNITS=1/CM
##YUNITS=TRANSMITTANCE
##XFACTOR=1.0
##YFACTOR=1
##FIRSTX=384
##LASTX=3794
##FIRSTY=0.7444
##MAXX=3794
##MINX=384
##MAXY=0.8906
##MINY=0.1975
##NPOINTS=3411
##XYDATA=(X++(Y..Y))
384.000000 0.7444 0.7451 0.7457 0.7464 0.7471
389.000000 0.7478 0.7483 0.7488 0.7493 0.7498
394.000000 0.7503 0.7508 0.7513 0.7519 0.7524
399.000000 0.7529 0.7535 0.7542 0.7549 0.7556
404.000000 0.7563 0.7570 0.7578 0.7585 0.7592
409.000000 0.7599 0.7606 0.7613 0.7620 0.7628
414.000000 0.7635 0.7642 0.7649 0.7659 0.7668
419.000000 0.7678 0.7687 0.7697 0.7706 0.7715
424.000000 0.7725 0.7734 0.7745 0.7757 0.7769
429.000000 0.7782 0.7794 0.7806 0.7818 0.7831
434.000000 0.7843 0.7855 0.7867 0.7880 0.7892
439.000000 0.7904 0.7916 0.7929 0.7941 0.7953
444.000000 0.7965 0.7978 0.7990 0.8002 0.8014
449.000000 0.8027 0.8039 0.8051 0.8063 0.8076
454.000000 0.8088 0.8100 0.8112 0.8125 0.8137
459.000000 0.8150 0.8163 0.8176 0.8189 0.8202
464.000000 0.8215 0.8228 0.8241 0.8254 0.8267
469.000000 0.8280 0.8293 0.8306 0.8319 0.8331
474.000000 0.8341 0.8351 0.8361 0.8371 0.8381
479.000000 0.8389 0.8392 0.8395 0.8399 0.8402
484.000000 0.8405 0.8408 0.8411 0.8414 0.8417
489.000000 0.8419 0.8416 0.8414 0.8411 0.8409
494.000000 0.8407 0.8404 0.8402 0.8399 0.8397
499.000000 0.8394 0.8392 0.8386 0.8380 0.8374
504.000000 0.8368 0.8362 0.8356 0.8350 0.8344
509.000000 0.8338 0.8333 0.8327 0.8321 0.8315
514.000000 0.8310 0.8304 0.8298 0.8292 0.8287
519.000000 0.8281 0.8275 0.8269 0.8264 0.8258
524.000000 0.8260 0.8263 0.8267 0.8271 0.8274
529.000000 0.8278 0.8281 0.8285 0.8289 0.8292
534.000000 0.8296 0.8300 0.8307 0.8314 0.8322
539.000000 0.8329 0.8337 0.8344 0.8352 0.8359
544.000000 0.8366 0.8374 0.8381 0.8388 0.8396
549.000000 0.8403 0.8410 0.8418 0.8415 0.8409
554.000000 0.8403 0.8397 0.8391 0.8385 0.8379
559.000000 0.8372 0.8366 0.8360 0.8362 0.8369
564.000000 0.8376 0.8385 0.8396 0.8400 0.8417
569.000000 0.8427 0.8438 0.8448 0.8448 0.8444
574.000000 0.8440 0.8436 0.8432 0.8429 0.8425
579.000000 0.8421 0.8417 0.8414 0.8412 0.8410
584.000000 0.8408 0.8405 0.8403 0.8401 0.8404
589.000000 0.8409 0.8414 0.8419 0.8424 0.8435
594.000000 0.8446 0.8457 0.8469 0.8480 0.8492
599.000000 0.8502 0.8511 0.8520 0.8529 0.8538
604.000000 0.8547 0.8547 0.8546 0.8544 0.8542
609.000000 0.8539 0.8536 0.8533 0.8530 0.8529
614.000000 0.8530 0.8532 0.8533 0.8534 0.8535
619.000000 0.8538 0.8546 0.8554 0.8562 0.8572
624.000000 0.8588 0.8604 0.8620 0.8636 0.8652
629.000000 0.8659 0.8665 0.8671 0.8677 0.8675
634.000000 0.8666 0.8657 0.8650 0.8644 0.8637
639.000000 0.8631 0.8625 0.8624 0.8623 0.8622
644.000000 0.8622 0.8625 0.8636 0.8648 0.8661
649.000000 0.8677 0.8694 0.8710 0.8707 0.8704
654.000000 0.8700 0.8691 0.8682 0.8672 0.8663
659.000000 0.8654 0.8645 0.8637 0.8629 0.8621
664.000000 0.8612 0.8607 0.8604 0.8600 0.8607
669.000000 0.8621 0.8636 0.8656 0.8676 0.8696
674.000000 0.8717 0.8721 0.8697 0.8672 0.8648
679.000000 0.8622 0.8585 0.8549 0.8512 0.8472
684.000000 0.8413 0.8359 0.8322 0.8286 0.8250
689.000000 0.8214 0.8177 0.8141 0.8105 0.8057
694.000000 0.8002 0.7947 0.7891 0.7834 0.7778
699.000000 0.7752 0.7733 0.7727 0.7735 0.7742
704.000000 0.7783 0.7820 0.7871 0.7922 0.7972
709.000000 0.8023 0.8103 0.8166 0.8269 0.8337
714.000000 0.8374 0.8382 0.8275 0.7800 0.7802
719.000000 0.7849 0.8118 0.8074 0.7983 0.7886
724.000000 0.7863 0.7865 0.7872 0.7858 0.7896
729.000000 0.7910 0.7925 0.7940 0.7955 0.7975
734.000000 0.7994 0.8014 0.8042 0.8077 0.8111
739.000000 0.8146 0.8191 0.8240 0.8289 0.8426
744.000000 0.8458 0.8490 0.8513 0.8528 0.8544
749.000000 0.8559 0.8574 0.8589 0.8599 0.8605
754.000000 0.8612 0.8619 0.8625 0.8630 0.8629
759.000000 0.8627 0.8626 0.8625 0.8624 0.8623
764.000000 0.8622 0.8619 0.8622 0.8627 0.8631
769.000000 0.8638 0.8646 0.8655 0.8663 0.8670
774.000000 0.8676 0.8682 0.8688 0.8694 0.8680
779.000000 0.8705 0.8713 0.8725 0.8722 0.8706
784.000000 0.8691 0.8677 0.8662 0.8648 0.8633
789.000000 0.8621 0.8612 0.8602 0.8597 0.8595
794.000000 0.8592 0.8590 0.8587 0.8585 0.8582
799.000000 0.8581 0.8589 0.8598 0.8601 0.8603
804.000000 0.8604 0.8606 0.8606 0.8605 0.8603
809.000000 0.8590 0.8576 0.8561 0.8548 0.8543
814.000000 0.8538 0.8533 0.8527 0.8522 0.8517
819.000000 0.8512 0.8511 0.8511 0.8512 0.8513
824.000000 0.8516 0.8520 0.8525 0.8529 0.8534
829.000000 0.8539 0.8543 0.8548 0.8552 0.8557
834.000000 0.8561 0.8562 0.8564 0.8566 0.8567
839.000000 0.8563 0.8551 0.8539 0.8528 0.8516
844.000000 0.8505 0.8496 0.8487 0.8478 0.8469
849.000000 0.8463 0.8462 0.8461 0.8460 0.8459
854.000000 0.8458 0.8457 0.8456 0.8457 0.8458
859.000000 0.8458 0.8459 0.8460 0.8461 0.8462
864.000000 0.8463 0.8463 0.8461 0.8458 0.8454
869.000000 0.8451 0.8445 0.8433 0.8421 0.8409
874.000000 0.8397 0.8385 0.8373 0.8358 0.8342
879.000000 0.8327 0.8312 0.8296 0.8281 0.8266
884.000000 0.8250 0.8235 0.8214 0.8177 0.8140
889.000000 0.8104 0.8068 0.8046 0.8024 0.8002
894.000000 0.7981 0.7959 0.7937 0.7916 0.7894
899.000000 0.7872 0.7855 0.7839 0.7823 0.7807
904.000000 0.7791 0.7781 0.7779 0.7779 0.7735
909.000000 0.7791 0.7800 0.7827 0.7855 0.7887
914.000000 0.7919 0.7951 0.7986 0.8021 0.8103
919.000000 0.7776 0.7557 0.7557 0.8107 0.8076
924.000000 0.8047 0.8014 0.7984 0.7954 0.7888
929.000000 0.7862 0.7840 0.7843 0.7832 0.7851
934.000000 0.7856 0.7862 0.7877 0.7899 0.7935
939.000000 0.7981 0.8041 0.8135 0.8215 0.8262
944.000000 0.8308 0.8341 0.8374 0.8406 0.8433
949.000000 0.8451 0.8468 0.8486 0.8496 0.8498
954.000000 0.8500 0.8502 0.8499 0.8491 0.8484
959.000000 0.8476 0.8469 0.8461 0.8454 0.8447
964.000000 0.8439 0.8432 0.8424 0.8418 0.8411
969.000000 0.8404 0.8398 0.8391 0.8384 0.8378
974.000000 0.8371 0.8365 0.8359 0.8353 0.8347
979.000000 0.8341 0.8335 0.8327 0.8317 0.8307
984.000000 0.8297 0.8287 0.8269 0.8243 0.8217
989.000000 0.8181 0.8141 0.8100 0.8060 0.8027
994.000000 0.7997 0.7966 0.7936 0.7905 0.7875
999.000000 0.7844 0.7814 0.7772 0.7728 0.7684
1004.000000 0.7640 0.7594 0.7545 0.7496 0.7446
1009.000000 0.7397 0.7348 0.7302 0.7258 0.7215
1014.000000 0.7172 0.7129 0.7086 0.7043 0.7003
1019.000000 0.6962 0.6922 0.6882 0.6841 0.6801
1024.000000 0.6761 0.6726 0.6693 0.6660 0.6627
1029.000000 0.6595 0.6562 0.6529 0.6496 0.6464
1034.000000 0.6446 0.6436 0.6426 0.6416 0.6414
1039.000000 0.6423 0.6431 0.6440 0.6449 0.6459
1044.000000 0.6483 0.6507 0.6531 0.6555 0.6578
1049.000000 0.6602 0.6626 0.6650 0.6674 0.6701
1054.000000 0.6728 0.6756 0.6784 0.6811 0.6839
1059.000000 0.6866 0.6896 0.6926 0.6957 0.6987
1064.000000 0.7018 0.7048 0.7079 0.7110 0.7140
1069.000000 0.7175 0.7223 0.7271 0.7318 0.7366
1074.000000 0.7414 0.7485 0.7789 0.7895 0.7949
1079.000000 0.7970 0.7991 0.8002 0.8011 0.8020
1084.000000 0.8028 0.8037 0.8049 0.8065 0.8080
1089.000000 0.8096 0.8111 0.8125 0.8139 0.8152
1094.000000 0.8166 0.8180 0.8198 0.8216 0.8234
1099.000000 0.8251 0.8268 0.8285 0.8302 0.8314
1104.000000 0.8314 0.8314 0.8314 0.8314 0.8314
1109.000000 0.8314 0.8313 0.8313 0.8312 0.8312
1114.000000 0.8311 0.8311 0.8310 0.8311 0.8317
1119.000000 0.8322 0.8328 0.8333 0.8339 0.8344
1124.000000 0.8349 0.8354 0.8359 0.8363 0.8357
1129.000000 0.8351 0.8349 0.8334 0.8323 0.8312
1134.000000 0.8301 0.8291 0.8285 0.8280 0.8274
1139.000000 0.8268 0.8269 0.8271 0.8273 0.8275
1144.000000 0.8277 0.8279 0.8285 0.8292 0.8299
1149.000000 0.8305 0.8312 0.8318 0.8320 0.8321
1154.000000 0.8323 0.8325 0.8327 0.8328 0.8327
1159.000000 0.8323 0.8318 0.8314 0.8310 0.8305
1164.000000 0.8300 0.8292 0.8284 0.8276 0.8268
1169.000000 0.8260 0.8253 0.8247 0.8240 0.8234
1174.000000 0.8228 0.8221 0.8215 0.8208 0.8207
1179.000000 0.8210 0.8212 0.8221 0.8232 0.8240
1184.000000 0.8238 0.8236 0.8235 0.8233 0.8228
1189.000000 0.8222 0.8217 0.8211 0.8207 0.8204
1194.000000 0.8201 0.8198 0.8195 0.8192 0.8189
1199.000000 0.8186 0.8183 0.8180 0.8178 0.8177
1204.000000 0.8175 0.8174 0.8173 0.8172 0.8171
1209.000000 0.8170 0.8168 0.8167 0.8164 0.8160
1214.000000 0.8156 0.8152 0.8148 0.8144 0.8140
1219.000000 0.8136 0.8132 0.8128 0.8124 0.8120
1224.000000 0.8116 0.8111 0.8107 0.8103 0.8099
1229.000000 0.8095 0.8091 0.8087 0.8083 0.8079
1234.000000 0.8075 0.8084 0.8098 0.8109 0.8119
1239.000000 0.8128 0.8138 0.8138 0.8135 0.8133
1244.000000 0.8130 0.8128 0.8125 0.8116 0.8104
1249.000000 0.8092 0.8080 0.8067 0.8062 0.8056
1254.000000 0.8051 0.8046 0.8041 0.8036 0.8031
1259.000000 0.8028 0.8028 0.8029 0.8029 0.8030
1264.000000 0.8031 0.8032 0.8034 0.8036 0.8038
1269.000000 0.8040 0.8042 0.8044 0.8046 0.8041
1274.000000 0.8035 0.8029 0.8022 0.8015 0.8004
1279.000000 0.7993 0.7982 0.7971 0.7960 0.7955
1284.000000 0.7957 0.7959 0.7961 0.7960 0.7957
1289.000000 0.7954 0.7951 0.7949 0.7946 0.7943
1294.000000 0.7940 0.7938 0.7935 0.7933 0.7931
1299.000000 0.7932 0.7933 0.7934 0.7929 0.7919
1304.000000 0.7909 0.7899 0.7890 0.7880 0.7870
1309.000000 0.7861 0.7852 0.7843 0.7833 0.7824
1314.000000 0.7815 0.7806 0.7794 0.7782 0.7771
1319.000000 0.7754 0.7730 0.7706 0.7691 0.7693
1324.000000 0.7696 0.7709 0.7723 0.7737 0.7741
1329.000000 0.7759 0.7788 0.7839 0.7866 0.7804
1334.000000 0.7072 0.6628 0.6625 0.7184 0.7722
1339.000000 0.7740 0.7756 0.7758 0.7759 0.7760
1344.000000 0.7752 0.7739 0.7760 0.7647 0.7150
1349.000000 0.6683 0.6691 0.6800 0.6926 0.7053
1354.000000 0.7179 0.7305 0.7555 0.7526 0.7486
1359.000000 0.7284 0.7082 0.6881 0.6679 0.6477
1364.000000 0.5975 0.5794 0.5672 0.5563 0.5461
1369.000000 0.5360 0.5258 0.5188 0.5120 0.5052
1374.000000 0.4983 0.4915 0.4851 0.4789 0.4726
1379.000000 0.4664 0.4602 0.4540 0.4478 0.4416
1384.000000 0.4354 0.4296 0.4246 0.4197 0.4148
1389.000000 0.4099 0.4050 0.4001 0.3952 0.3903
1394.000000 0.3856 0.3816 0.3776 0.3735 0.3695
1399.000000 0.3655 0.3615 0.3574 0.3534 0.3494
1404.000000 0.3453 0.3413 0.3380 0.3349 0.3318
1409.000000 0.3287 0.3256 0.3224 0.3193 0.3162
1414.000000 0.3131 0.3100 0.3069 0.3038 0.3007
1419.000000 0.2976 0.2945 0.2914 0.2882 0.2850
1424.000000 0.2818 0.2787 0.2755 0.2723 0.2691
1429.000000 0.2660 0.2628 0.2596 0.2564 0.2533
1434.000000 0.2502 0.2473 0.2445 0.2416 0.2387
1439.000000 0.2359 0.2330 0.2301 0.2273 0.2244
1444.000000 0.2215 0.2187 0.2158 0.2129 0.2111
1449.000000 0.2099 0.2088 0.2077 0.2065 0.2054
1454.000000 0.2043 0.2031 0.2020 0.2009 0.1997
1459.000000 0.1986 0.1975 0.1976 0.1978 0.1981
1464.000000 0.1991 0.2008 0.2025 0.2041 0.2061
1469.000000 0.2083 0.2105 0.2126 0.2148 0.2170
1474.000000 0.2192 0.2213 0.2235 0.2257 0.2285
1479.000000 0.2315 0.2345 0.2374 0.2404 0.2434
1484.000000 0.2464 0.2494 0.2523 0.2553 0.2583
1489.000000 0.2613 0.2643 0.2672 0.2702 0.2733
1494.000000 0.2777 0.2820 0.2864 0.2908 0.2952
1499.000000 0.2995 0.3039 0.3083 0.3126 0.3170
1504.000000 0.3214 0.3258 0.3301 0.3345 0.3389
1509.000000 0.3439 0.3489 0.3540 0.3590 0.3641
1514.000000 0.3691 0.3742 0.3792 0.3843 0.3893
1519.000000 0.3947 0.4009 0.4071 0.4133 0.4196
1524.000000 0.4258 0.4320 0.4382 0.4444 0.4511
1529.000000 0.4590 0.4669 0.4748 0.4827 0.4906
1534.000000 0.5053 0.5311 0.5564 0.5777 0.6270
1539.000000 0.6481 0.6693 0.6904 0.7116 0.7275
1544.000000 0.7323 0.7349 0.7376 0.7395 0.7407
1549.000000 0.7418 0.7430 0.7185 0.6927 0.7335
1554.000000 0.6966 0.7060 0.7129 0.7177 0.7234
1559.000000 0.7323 0.7412 0.7501 0.7590 0.7679
1564.000000 0.7711 0.7410 0.6825 0.6536 0.6725
1569.000000 0.7788 0.7802 0.7719 0.7652 0.7585
1574.000000 0.7533 0.7486 0.7438 0.7452 0.7542
1579.000000 0.7618 0.7695 0.7773 0.7842 0.7940
1584.000000 0.7932 0.7939 0.7943 0.7946 0.7953
1589.000000 0.7961 0.7977 0.8024 0.8054 0.8050
1594.000000 0.8046 0.8041 0.8035 0.8029 0.8023
1599.000000 0.8019 0.8014 0.7999 0.8001 0.8091
1604.000000 0.8146 0.8149 0.8153 0.8149 0.8159
1609.000000 0.8157 0.8153 0.8148 0.8144 0.8139
1614.000000 0.8131 0.8119 0.8108 0.8070 0.7905
1619.000000 0.7948 0.8003 0.8058 0.8107 0.8128
1624.000000 0.8148 0.8159 0.8178 0.8199 0.8225
1629.000000 0.8252 0.8288 0.8274 0.8235 0.8150
1634.000000 0.8053 0.7993 0.7964 0.7974 0.8033
1639.000000 0.8112 0.8274 0.8298 0.8284 0.8246
1644.000000 0.8202 0.8139 0.8099 0.8127 0.8163
1649.000000 0.8214 0.8120 0.7782 0.7576 0.7576
1654.000000 0.7880 0.8296 0.8342 0.8356 0.8364
1659.000000 0.8357 0.8349 0.8337 0.8324 0.8310
1664.000000 0.8293 0.8270 0.8248 0.8225 0.8189
1669.000000 0.8154 0.8186 0.8217 0.8247 0.8277
1674.000000 0.8301 0.8306 0.8311 0.8284 0.8243
1679.000000 0.8181 0.8090 0.8028 0.8060 0.8099
1684.000000 0.8138 0.8177 0.8214 0.8238 0.8262
1689.000000 0.8287 0.8275 0.8218 0.8145 0.8088
1694.000000 0.8031 0.8013 0.7996 0.7979 0.7978
1699.000000 0.8014 0.8069 0.8127 0.8153 0.8178
1704.000000 0.8200 0.8201 0.8201 0.8202 0.8203
1709.000000 0.8203 0.8189 0.8175 0.8161 0.8154
1714.000000 0.8156 0.8171 0.8203 0.8235 0.8267
1719.000000 0.8275 0.8276 0.8277 0.8259 0.8241
1724.000000 0.8220 0.8197 0.8174 0.8151 0.8128
1729.000000 0.8103 0.8126 0.8142 0.8154 0.8166
1734.000000 0.8177 0.8189 0.8201 0.8212 0.8223
1739.000000 0.8233 0.8243 0.8253 0.8261 0.8267
1744.000000 0.8274 0.8279 0.8283 0.8287 0.8291
1749.000000 0.8292 0.8290 0.8288 0.8286 0.8284
1754.000000 0.8282 0.8281 0.8282 0.8284 0.8285
1759.000000 0.8287 0.8289 0.8291 0.8293 0.8295
1764.000000 0.8297 0.8298 0.8300 0.8301 0.8301
1769.000000 0.8308 0.8324 0.8339 0.8353 0.8367
1774.000000 0.8377 0.8376 0.8373 0.8370 0.8367
1779.000000 0.8362 0.8357 0.8352 0.8348 0.8343
1784.000000 0.8337 0.8331 0.8325 0.8318 0.8309
1789.000000 0.8307 0.8314 0.8328 0.8343 0.8358
1794.000000 0.8373 0.8384 0.8388 0.8392 0.8394
1799.000000 0.8394 0.8394 0.8394 0.8391 0.8387
1804.000000 0.8383 0.8379 0.8374 0.8370 0.8366
1809.000000 0.8363 0.8360 0.8357 0.8354 0.8351
1814.000000 0.8348 0.8346 0.8344 0.8342 0.8340
1819.000000 0.8340 0.8341 0.8342 0.8343 0.8345
1824.000000 0.8348 0.8351 0.8358 0.8364 0.8370
1829.000000 0.8376 0.8382 0.8376 0.8368 0.8361
1834.000000 0.8354 0.8347 0.8339 0.8322 0.8305
1839.000000 0.8303 0.8313 0.8325 0.8341 0.8350
1844.000000 0.8358 0.8366 0.8374 0.8380 0.8385
1849.000000 0.8390 0.8395 0.8400 0.8404 0.8409
1854.000000 0.8410 0.8411 0.8412 0.8413 0.8413
1859.000000 0.8409 0.8404 0.8400 0.8395 0.8391
1864.000000 0.8387 0.8383 0.8384 0.8386 0.8394
1869.000000 0.8408 0.8421 0.8434 0.8447 0.8460
1874.000000 0.8467 0.8474 0.8479 0.8477 0.8475
1879.000000 0.8472 0.8468 0.8464 0.8460 0.8455
1884.000000 0.8451 0.8446 0.8442 0.8437 0.8433
1889.000000 0.8428 0.8423 0.8418 0.8413 0.8410
1894.000000 0.8409 0.8408 0.8408 0.8407 0.8407
1899.000000 0.8406 0.8412 0.8418 0.8424 0.8430
1904.000000 0.8436 0.8442 0.8448 0.8454 0.8457
1909.000000 0.8459 0.8460 0.8454 0.8448 0.8443
1914.000000 0.8437 0.8431 0.8426 0.8429 0.8432
1919.000000 0.8435 0.8438 0.8443 0.8457 0.8471
1924.000000 0.8473 0.8473 0.8474 0.8475 0.8475
1929.000000 0.8475 0.8473 0.8470 0.8467 0.8465
1934.000000 0.8462 0.8460 0.8457 0.8455 0.8452
1939.000000 0.8449 0.8446 0.8443 0.8440 0.8437
1944.000000 0.8434 0.8430 0.8425 0.8421 0.8416
1949.000000 0.8412 0.8408 0.8402 0.8396 0.8390
1954.000000 0.8383 0.8377 0.8371 0.8374 0.8388
1959.000000 0.8423 0.8454 0.8473 0.8475 0.8477
1964.000000 0.8480 0.8481 0.8483 0.8484 0.8486
1969.000000 0.8487 0.8489 0.8491 0.8493 0.8495
1974.000000 0.8491 0.8483 0.8475 0.8467 0.8459
1979.000000 0.8451 0.8445 0.8439 0.8433 0.8427
1984.000000 0.8422 0.8419 0.8420 0.8421 0.8423
1989.000000 0.8424 0.8425 0.8428 0.8431 0.8434
1994.000000 0.8437 0.8442 0.8447 0.8452 0.8457
1999.000000 0.8462 0.8467 0.8473 0.8480 0.8483
2004.000000 0.8486 0.8489 0.8492 0.8494 0.8497
2009.000000 0.8498 0.8500 0.8501 0.8503 0.8505
2014.000000 0.8507 0.8508 0.8510 0.8511 0.8513
2019.000000 0.8514 0.8516 0.8517 0.8519 0.8521
2024.000000 0.8523 0.8518 0.8514 0.8508 0.8503
2029.000000 0.8498 0.8493 0.8488 0.8484 0.8479
2034.000000 0.8474 0.8469 0.8465 0.8460 0.8456
2039.000000 0.8454 0.8452 0.8451 0.8450 0.8448
2044.000000 0.8447 0.8446 0.8445 0.8446 0.8448
2049.000000 0.8449 0.8451 0.8452 0.8453 0.8454
2054.000000 0.8456 0.8457 0.8459 0.8461 0.8463
2059.000000 0.8465 0.8467 0.8469 0.8471 0.8473
2064.000000 0.8475 0.8477 0.8479 0.8480 0.8481
2069.000000 0.8481 0.8481 0.8481 0.8482 0.8482
2074.000000 0.8482 0.8482 0.8483 0.8483 0.8483
2079.000000 0.8483 0.8484 0.8484 0.8504 0.8486
2084.000000 0.8488 0.8489 0.8490 0.8491 0.8492
2089.000000 0.8493 0.8494 0.8495 0.8496 0.8497
2094.000000 0.8499 0.8500 0.8501 0.8502 0.8503
2099.000000 0.8504 0.8505 0.8506 0.8507 0.8508
2104.000000 0.8510 0.8511 0.8512 0.8513 0.8514
2109.000000 0.8515 0.8517 0.8518 0.8519 0.8520
2114.000000 0.8521 0.8522 0.8524 0.8525 0.8526
2119.000000 0.8527 0.8529 0.8530 0.8531 0.8533
2124.000000 0.8535 0.8537 0.8540 0.8542 0.8544
2129.000000 0.8546 0.8548 0.8550 0.8553 0.8555
2134.000000 0.8557 0.8559 0.8561 0.8563 0.8566
2139.000000 0.8568 0.8570 0.8572 0.8574 0.8575
2144.000000 0.8576 0.8577 0.8579 0.8580 0.8581
2149.000000 0.8573 0.8566 0.8557 0.8548 0.8542
2154.000000 0.8537 0.8532 0.8527 0.8522 0.8517
2159.000000 0.8515 0.8514 0.8513 0.8512 0.8512
2164.000000 0.8513 0.8514 0.8515 0.8516 0.8517
2169.000000 0.8518 0.8520 0.8521 0.8522 0.8523
2174.000000 0.8525 0.8526 0.8527 0.8528 0.8530
2179.000000 0.8532 0.8535 0.8538 0.8541 0.8544
2184.000000 0.8548 0.8551 0.8554 0.8557 0.8560
2189.000000 0.8563 0.8566 0.8567 0.8569 0.8571
2194.000000 0.8573 0.8574 0.8576 0.8573 0.8571
2199.000000 0.8566 0.8562 0.8557 0.8552 0.8545
2204.000000 0.8538 0.8531 0.8524 0.8517 0.8510
2209.000000 0.8503 0.8496 0.8488 0.8481 0.8473
2214.000000 0.8465 0.8457 0.8450 0.8442 0.8435
2219.000000 0.8427 0.8419 0.8409 0.8399 0.8389
2224.000000 0.8379 0.8369 0.8359 0.8349 0.8339
2229.000000 0.8326 0.8314 0.8299 0.8285 0.8271
2234.000000 0.8257 0.8242 0.8228 0.8208 0.8189
2239.000000 0.8167 0.8145 0.8123 0.8102 0.8080
2244.000000 0.8059 0.8038 0.8017 0.7996 0.7976
2249.000000 0.7953 0.7931 0.7908 0.7886 0.7865
2254.000000 0.7844 0.7825 0.7807 0.7797 0.7787
2259.000000 0.7780 0.7806 0.7779 0.7785 0.7906
2264.000000 0.8028 0.8134 0.8240 0.8243 0.8252
2269.000000 0.8213 0.8180 0.8099 0.8019 0.7938
2274.000000 0.7858 0.7777 0.7697 0.7633 0.7570
2279.000000 0.7572 0.7585 0.7601 0.7627 0.7653
2284.000000 0.7680 0.7706 0.7732 0.7758 0.7785
2289.000000 0.7811 0.7838 0.7864 0.7890 0.7916
2294.000000 0.7943 0.7969 0.7995 0.8021 0.8048
2299.000000 0.8074 0.8100 0.8106 0.8105 0.8108
2304.000000 0.8104 0.8068 0.8032 0.7995 0.7959
2309.000000 0.7923 0.7887 0.7851 0.7815 0.7779
2314.000000 0.7713 0.7720 0.7698 0.7747 0.7796
2319.000000 0.7855 0.7915 0.7974 0.8034 0.8093
2324.000000 0.8153 0.8191 0.8229 0.8243 0.8258
2329.000000 0.8267 0.8277 0.8285 0.8293 0.8298
2334.000000 0.8304 0.8309 0.8315 0.8320 0.8325
2339.000000 0.8328 0.8332 0.8334 0.8336 0.8338
2344.000000 0.8340 0.8338 0.8336 0.8332 0.8329
2349.000000 0.8325 0.8322 0.8316 0.8311 0.8305
2354.000000 0.8299 0.8293 0.8288 0.8282 0.8277
2359.000000 0.8271 0.8266 0.8263 0.8260 0.8257
2364.000000 0.8254 0.8250 0.8247 0.8244 0.8241
2369.000000 0.8240 0.8239 0.8238 0.8238 0.8237
2374.000000 0.8236 0.8234 0.8232 0.8229 0.8227
2379.000000 0.8225 0.8223 0.8221 0.8219 0.8216
2384.000000 0.8214 0.8213 0.8213 0.8212 0.8212
2389.000000 0.8212 0.8212 0.8211 0.8211 0.8211
2394.000000 0.8211 0.8210 0.8210 0.8210 0.8210
2399.000000 0.8208 0.8206 0.8202 0.8198 0.8194
2404.000000 0.8190 0.8186 0.8182 0.8175 0.8169
2409.000000 0.8160 0.8152 0.8143 0.8135 0.8126
