##TITLE=ETHENE, CHLORO-
##JCAMP-DX=4.24
##DATA TYPE=INFRARED SPECTRUM
##CLASS=COBLENTZ III
##ORIGIN=DOW CHEMICAL COMPANY
##OWNER=COBLENTZ SOCIETY
Collection (C) 2018 copyright by the U.S. Secretary of Commerce
on behalf of the United States of America. All rights reserved.
##DATE=1974/01/06
##NAMES=1-chloroethylene
VINYL CHLORIDE
##CAS REGISTRY NO=75-01-4
##MOLFORM=C2 H3 Cl
##SOURCE REFERENCE=COBLENTZ NO. 10079
##$NIST SOURCE=COBLENTZ
##$NIST IMAGE=cob10079
##SPECTROMETER/DATA SYSTEM=BECKMAN IR-9 (GRATING)
##INSTRUMENT PARAMETERS=ORDER CHANGES AT 670, 1200, 2000 CM^-^1
##STATE=GAS (7 mmHg DILUTED TO A TOTAL PRESSURE OF 700 mmHg WITH N2)
##PATH LENGTH=10 CM
##SAMPLING PROCEDURE=TRANSMISSION
##RESOLUTION=4
##DATA PROCESSING=DIGITIZED BY NIST FROM HARD COPY (FROM TWO SEGMENTS)
##XUNITS=1/CM
##YUNITS=TRANSMITTANCE
##XFACTOR=1.000000
##YFACTOR=1
##DELTAX=0.905492
##FIRSTX=399.095
##LASTX=3797.4
##FIRSTY=0.009
##MAXX=3797.4
##MINX=399.095
##MAXY=0.98
##MINY=0
##NPOINTS=3754
##XYDATA=(X++(Y..Y))
399.095000 0.0090 0.0080 0.0070 0.0050 0.0040
403.622458 0.0020 0.0020 0.0010 0.0000 0.0000
408.149915 0.0000 0.0000 0.0000 0.0000 0.0000
412.677373 0.0000 0.0000 0.0000 0.0000 0.0000
417.204830 0.0000 0.0000 0.0000 0.0000 0.0000
421.732288 0.0000 0.0000 0.0000 0.0000 0.0000
426.259746 0.0000 0.0000 0.0000 0.0000 0.0000
430.787203 0.0000 0.0000 0.0000 0.0000 0.0000
435.314661 0.0000 0.0000 0.0000 0.0000 0.0000
439.842119 0.0000 0.0000 0.0000 0.0000 0.0000
444.369576 0.0000 0.0000 0.0000 0.0000 0.0000
448.897034 0.0000 0.0000 0.0000 0.0000 0.0000
453.424491 0.0000 0.0000 0.0000 0.0000 0.0000
457.951949 0.0000 0.0000 0.0000 0.0000 0.0000
462.479407 0.0000 0.0000 0.0000 0.0000 0.0000
467.006864 0.0000 0.0000 0.0000 0.0000 0.0000
471.534322 0.0000 0.0000 0.0000 0.0000 0.0000
476.061780 0.0000 0.0000 0.0000 0.0000 0.0000
480.589237 0.0000 0.0000 0.0000 0.0000 0.0000
485.116695 0.0000 0.0000 0.0000 0.0000 0.0000
489.644152 0.0020 0.0040 0.0050 0.0070 0.0070
494.171610 0.0080 0.0090 0.0090 0.0090 0.0110
498.699068 0.0120 0.0120 0.0140 0.0150 0.0150
503.226525 0.0150 0.0150 0.0150 0.0150 0.0150
507.753983 0.0150 0.0150 0.0150 0.0150 0.0150
512.281441 0.0150 0.0140 0.0140 0.0140 0.0140
516.808898 0.0120 0.0120 0.0120 0.0120 0.0120
521.336356 0.0120 0.0140 0.0140 0.0150 0.0150
525.863813 0.0160 0.0190 0.0220 0.0250 0.0280
530.391271 0.0290 0.0310 0.0310 0.0320 0.0320
534.918729 0.0330 0.0350 0.0350 0.0350 0.0380
539.446186 0.0410 0.0420 0.0450 0.0480 0.0480
543.973644 0.0520 0.0530 0.0530 0.0550 0.0560
548.501102 0.0590 0.0600 0.0630 0.0670 0.0700
553.028559 0.0720 0.0730 0.0750 0.0770 0.0770
557.556017 0.0800 0.0830 0.0870 0.0900 0.0940
562.083474 0.0970 0.0970 0.0990 0.0990 0.1030
566.610932 0.1040 0.1060 0.1090 0.1110 0.1180
571.138390 0.1240 0.1270 0.1300 0.1300 0.1330
575.665847 0.1350 0.1380 0.1470 0.1510 0.1520
580.193305 0.1570 0.1600 0.1650 0.1670 0.1720
584.720763 0.1790 0.1890 0.2020 0.2080 0.2090
589.248220 0.2160 0.2220 0.2260 0.2290 0.2300
593.775678 0.2350 0.2390 0.2430 0.2500 0.2560
598.303135 0.2600 0.2620 0.2670 0.2790 0.2810
602.830593 0.2860 0.2880 0.3000 0.3070 0.3070
607.358051 0.3140 0.3220 0.3270 0.3320 0.3380
611.885508 0.3450 0.3450 0.3480 0.3490 0.3490
616.412966 0.3490 0.3440 0.3210 0.3000 0.3479
620.940424 0.3720 0.3860 0.3890 0.3990 0.4020
625.467881 0.4070 0.4150 0.4150 0.4190 0.4260
629.995339 0.4290 0.4300 0.4489 0.4490 0.4500
634.522796 0.4560 0.4630 0.4670 0.4680 0.4780
639.050254 0.4880 0.4900 0.4910 0.5020 0.5040
643.577712 0.5050 0.5120 0.5250 0.5290 0.5320
648.105169 0.5380 0.5490 0.5500 0.5560 0.5660
652.632627 0.5750 0.5770 0.5870 0.5900 0.5900
657.160085 0.5960 0.6060 0.6100 0.6160 0.6210
661.687542 0.6310 0.6330 0.6410 0.6450 0.6480
666.215000 0.6520 0.6600 0.6620 0.6640 0.6680
670.742457 0.6690 0.6770 0.6940 0.6950 0.6960
675.269915 0.7010 0.7080 0.7120 0.7180 0.7230
679.797373 0.7260 0.7290 0.7320 0.7420 0.7430
684.324830 0.7450 0.7450 0.7460 0.7470 0.7470
688.852288 0.7460 0.7450 0.7420 0.7330 0.7280
693.379746 0.7250 0.7130 0.6990 0.6880 0.6770
697.907203 0.6550 0.6520 0.6310 0.6100 0.5900
702.434661 0.5600 0.5500 0.5251 0.5120 0.4921
706.962118 0.4880 0.4770 0.4670 0.4610 0.4540
711.489576 0.4470 0.4470 0.4570 0.4700 0.4810
716.017034 0.4920 0.4950 0.5020 0.5160 0.5719
720.544491 0.6010 0.6010 0.4783 0.4571 0.4570
725.071949 0.4630 0.4630 0.4540 0.4500 0.4360
729.599407 0.4320 0.4150 0.4120 0.4120 0.4170
734.126864 0.4330 0.4580 0.4810 0.5080 0.5410
738.654322 0.5819 0.6179 0.6818 0.7019 0.7857
743.181779 0.8000 0.8240 0.8410 0.8540 0.8590
747.709237 0.8750 0.8780 0.8830 0.8890 0.8960
752.236695 0.9000 0.9020 0.9030 0.9060 0.9070
756.764152 0.9120 0.9130 0.9150 0.9160 0.9150
761.291610 0.9150 0.9230 0.9240 0.9240 0.9260
765.819068 0.9270 0.9290 0.9330 0.9330 0.9330
770.346525 0.9330 0.9330 0.9360 0.9360 0.9360
774.873983 0.9370 0.9360 0.9370 0.9390 0.9400
779.401440 0.9410 0.9430 0.9440 0.9460 0.9460
783.928898 0.9470 0.9470 0.9470 0.9470 0.9470
788.456356 0.9490 0.9500 0.9510 0.9530 0.9540
792.983813 0.9560 0.9530 0.9560 0.9560 0.9560
797.511271 0.9560 0.9560 0.9560 0.9540 0.9560
802.038729 0.9570 0.9570 0.9560 0.9570 0.9570
806.566186 0.9580 0.9580 0.9580 0.9580 0.9580
811.093644 0.9600 0.9600 0.9600 0.9600 0.9600
815.621101 0.9600 0.9600 0.9600 0.9610 0.9610
820.148559 0.9610 0.9610 0.9600 0.9600 0.9600
824.676017 0.9600 0.9610 0.9610 0.9600 0.9600
829.203474 0.9600 0.9600 0.9580 0.9570 0.9560
833.730932 0.9570 0.9560 0.9540 0.9510 0.9510
838.258390 0.9510 0.9510 0.9500 0.9490 0.9470
842.785847 0.9440 0.9390 0.9360 0.9410 0.9370
847.313305 0.9340 0.9300 0.9240 0.9340 0.9101
851.840762 0.9070 0.9070 0.9220 0.9220 0.8880
856.368220 0.8880 0.9120 0.9030 0.8880 0.8691
860.895678 0.9029 0.8650 0.8480 0.8860 0.8860
865.423135 0.8540 0.8250 0.8220 0.8240 0.8370
869.950593 0.8589 0.8080 0.7960 0.8080 0.8280
874.478051 0.7880 0.7860 0.7870 0.8030 0.8279
879.005508 0.7870 0.7760 0.7870 0.7980 0.8220
883.532966 0.8040 0.7731 0.7730 0.8029 0.8040
888.060423 0.7960 0.7840 0.7840 0.7840 0.7800
892.587881 0.7760 0.7391 0.6771 0.5264 0.3725
897.115339 0.3722 0.4831 0.5620 0.6260 0.6939
901.642796 0.7230 0.7490 0.7490 0.7011 0.6980
906.170254 0.6990 0.7120 0.7350 0.6960 0.6640
910.697711 0.6610 0.6450 0.7058 0.6641 0.6600
915.225169 0.6550 0.6550 0.6770 0.6780 0.6780
919.752627 0.6211 0.6809 0.6940 0.6093 0.6907
924.280084 0.7180 0.7178 0.6161 0.6860 0.7160
928.807542 0.6910 0.6600 0.6600 0.7009 0.7090
933.335000 0.7109 0.6780 0.6780 0.7160 0.7160
937.862457 0.6850 0.6620 0.6370 0.6111 0.4834
942.389915 0.3490 0.3494 0.6100 0.6500 0.6890
946.917372 0.7420 0.7430 0.7540 0.7450 0.7370
951.444830 0.7290 0.7260 0.7260 0.7490 0.7700
955.972288 0.7910 0.7261 0.7090 0.7928 0.7930
960.499745 0.7122 0.7910 0.7909 0.7220 0.7900
965.027203 0.7900 0.7251 0.7879 0.7840 0.7491
969.554661 0.7870 0.7900 0.7970 0.7690 0.8040
974.082118 0.8010 0.7960 0.7790 0.8099 0.8030
978.609576 0.8080 0.8130 0.8220 0.8300 0.8310
983.137033 0.8580 0.8520 0.8440 0.8610 0.8660
987.664491 0.8710 0.8720 0.8820 0.8830 0.8850
992.191949 0.8900 0.8930 0.8930 0.8950 0.9000
996.719406 0.9030 0.9060 0.9120 0.9120 0.9150
1001.246864 0.9170 0.9200 0.9230 0.9240 0.9240
1005.774322 0.9240 0.9230 0.9160 0.9120 0.9090
1010.301779 0.8980 0.8860 0.8710 0.8620 0.8371
1014.829237 0.8319 0.8050 0.7860 0.7690 0.7470
1019.356694 0.7420 0.7160 0.7130 0.7050 0.7030
1023.884152 0.7060 0.7120 0.7280 0.7450 0.7790
1028.411610 0.8150 0.8540 0.8919 0.8251 0.7961
1032.939067 0.7910 0.7900 0.7880 0.7880 0.7880
1037.466525 0.7870 0.7840 0.7800 0.7760 0.7690
1041.993983 0.7670 0.7670 0.7700 0.7770 0.7830
1046.521440 0.7940 0.7980 0.8150 0.8240 0.8390
1051.048898 0.8610 0.8760 0.8900 0.8930 0.9030
1055.576355 0.9130 0.9200 0.9340 0.9390 0.9430
1060.103813 0.9440 0.9470 0.9510 0.9560 0.9570
1064.631271 0.9580 0.9600 0.9610 0.9610 0.9630
1069.158728 0.9630 0.9630 0.9630 0.9630 0.9630
1073.686186 0.9630 0.9610 0.9610 0.9610 0.9610
1078.213644 0.9610 0.9610 0.9610 0.9610 0.9600
1082.741101 0.9610 0.9610 0.9610 0.9610 0.9610
1087.268559 0.9610 0.9600 0.9600 0.9600 0.9600
1091.796016 0.9600 0.9600 0.9600 0.9600 0.9600
1096.323474 0.9600 0.9600 0.9600 0.9600 0.9600
1100.850932 0.9600 0.9610 0.9600 0.9600 0.9580
1105.378389 0.9580 0.9580 0.9580 0.9580 0.9580
1109.905847 0.9600 0.9600 0.9600 0.9580 0.9580
1114.433305 0.9580 0.9580 0.9580 0.9570 0.9570
1118.960762 0.9570 0.9570 0.9570 0.9560 0.9560
1123.488220 0.9540 0.9540 0.9540 0.9540 0.9530
1128.015677 0.9530 0.9530 0.9540 0.9540 0.9560
1132.543135 0.9570 0.9560 0.9570 0.9570 0.9570
1137.070593 0.9570 0.9570 0.9560 0.9560 0.9560
1141.598050 0.9560 0.9560 0.9560 0.9560 0.9570
1146.125508 0.9570 0.9560 0.9540 0.9540 0.9570
1150.652966 0.9580 0.9580 0.9570 0.9570 0.9570
1155.180423 0.9570 0.9570 0.9560 0.9560 0.9560
1159.707881 0.9570 0.9570 0.9570 0.9580 0.9580
1164.235338 0.9580 0.9580 0.9580 0.9580 0.9580
1168.762796 0.9600 0.9600 0.9600 0.9600 0.9600
1173.290254 0.9600 0.9600 0.9610 0.9610 0.9600
1177.817711 0.9600 0.9600 0.9600 0.9630 0.9630
1182.345169 0.9610 0.9610 0.9610 0.9600 0.9600
1186.872627 0.9600 0.9600 0.9600 0.9610 0.9610
1191.400084 0.9610 0.9610 0.9610 0.9610 0.9610
1195.927542 0.9610 0.9610 0.9610 0.9610 0.9610
1200.454999 0.9610 0.9570 0.9580 0.9610 0.9640
1204.982457 0.9660 0.9660 0.9660 0.9640 0.9640
1209.509915 0.9640 0.9640 0.9660 0.9660 0.9640
1214.037372 0.9630 0.9630 0.9630 0.9610 0.9610
1218.564830 0.9610 0.9600 0.9600 0.9580 0.9580
1223.092288 0.9570 0.9570 0.9570 0.9570 0.9580
1227.619745 0.9580 0.9580 0.9580 0.9580 0.9580
1232.147203 0.9580 0.9570 0.9570 0.9570 0.9560
1236.674660 0.9540 0.9540 0.9510 0.9510 0.9510
1241.202118 0.9500 0.9490 0.9490 0.9470 0.9470
1245.729576 0.9470 0.9470 0.9470 0.9470 0.9490
1250.257033 0.9490 0.9470 0.9470 0.9460 0.9460
1254.784491 0.9410 0.9370 0.9340 0.9320 0.9260
1259.311949 0.9130 0.9100 0.8950 0.8820 0.8780
1263.839406 0.8710 0.8540 0.8390 0.8380 0.8350
1268.366864 0.8310 0.8200 0.8140 0.8140 0.8150
1272.894321 0.8180 0.8250 0.8350 0.8410 0.8510
1277.421779 0.8560 0.8609 0.8180 0.8181 0.8620
1281.949237 0.9150 0.9150 0.8860 0.8780 0.8730
1286.476694 0.8380 0.8249 0.8030 0.8010 0.8000
1291.004152 0.8000 0.8010 0.8100 0.8170 0.8340
1295.531610 0.8370 0.8510 0.8590 0.8680 0.8720
1300.059067 0.8850 0.8980 0.9060 0.9120 0.9160
1304.586525 0.9270 0.9290 0.9330 0.9370 0.9430
1309.113982 0.9440 0.9460 0.9470 0.9500 0.9510
1313.641440 0.9530 0.9540 0.9540 0.9560 0.9560
1318.168898 0.9560 0.9560 0.9540 0.9540 0.9540
1322.696355 0.9540 0.9540 0.9540 0.9540 0.9540
1327.223813 0.9540 0.9540 0.9530 0.9530 0.9530
1331.751271 0.9530 0.9510 0.9510 0.9500 0.9490
1336.278728 0.9470 0.9460 0.9470 0.9440 0.9410
1340.806186 0.9370 0.9400 0.9390 0.9300 0.9270
1345.333643 0.9270 0.9270 0.9400 0.9101 0.9070
1349.861101 0.9259 0.8920 0.8890 0.9060 0.9060
1354.388559 0.8780 0.8780 0.8920 0.8900 0.8760
1358.916016 0.8720 0.8720 0.8720 0.8720 0.8730
1363.443474 0.8760 0.8820 0.8900 0.8930 0.9120
1367.970932 0.9220 0.9240 0.9239 0.8860 0.9050
1372.498389 0.9050 0.9000 0.8960 0.8920 0.8850
1377.025847 0.8820 0.8720 0.8710 0.8690 0.8680
1381.553304 0.8650 0.8550 0.8550 0.8660 0.8720
1386.080762 0.8730 0.8790 0.8860 0.8900 0.8820
1390.608220 0.8930 0.9100 0.9160 0.9090 0.9150
1395.135677 0.9170 0.9230 0.9120 0.9230 0.9260
1399.663135 0.9270 0.9290 0.9370 0.9430 0.9430
1404.190592 0.9340 0.9340 0.9340 0.9340 0.9320
1408.718050 0.9390 0.9410 0.9410 0.9410 0.9430
1413.245508 0.9430 0.9430 0.9430 0.9430 0.9430
1417.772965 0.9390 0.9360 0.9340 0.9320 0.9320
1422.300423 0.9430 0.9440 0.9460 0.9430 0.9430
1426.827881 0.9460 0.9470 0.9490 0.9490 0.9490
1431.355338 0.9460 0.9490 0.9490 0.9500 0.9490
1435.882796 0.9470 0.9470 0.9430 0.9340 0.9430
1440.410253 0.9490 0.9510 0.9540 0.9490 0.9540
1444.937711 0.9540 0.9560 0.9560 0.9560 0.9570
1449.465169 0.9510 0.9570 0.9600 0.9600 0.9580
1453.992626 0.9580 0.9600 0.9600 0.9540 0.9500
1458.520084 0.9460 0.9370 0.9370 0.9540 0.9600
1463.047542 0.9600 0.9600 0.9610 0.9570 0.9510
1467.574999 0.9510 0.9610 0.9630 0.9640 0.9640
1472.102457 0.9610 0.9510 0.9470 0.9490 0.9560
1476.629914 0.9570 0.9570 0.9580 0.9610 0.9630
1481.157372 0.9660 0.9660 0.9640 0.9640 0.9640
1485.684830 0.9640 0.9630 0.9610 0.9560 0.9490
1490.212287 0.9560 0.9490 0.9460 0.9540 0.9540
1494.739745 0.9500 0.9490 0.9460 0.9390 0.9330
1499.267203 0.9320 0.9320 0.9340 0.9340 0.9360
1503.794660 0.9370 0.9340 0.9340 0.9320 0.9100
1508.322118 0.9070 0.9060 0.9120 0.9240 0.9400
1512.849575 0.9410 0.9430 0.9460 0.9500 0.9500
1517.377033 0.9400 0.9320 0.9300 0.9270 0.9240
1521.904491 0.9120 0.9030 0.9090 0.9130 0.9200
1526.431948 0.9220 0.9230 0.9260 0.9340 0.9360
1530.959406 0.9390 0.9500 0.9500 0.9460 0.9430
1535.486864 0.9440 0.9510 0.9560 0.9560 0.9540
1540.014321 0.9500 0.9370 0.9320 0.9340 0.9370
1544.541779 0.9460 0.9490 0.9490 0.9510 0.9560
1549.069236 0.9570 0.9580 0.9540 0.9510 0.9510
1553.596694 0.9580 0.9570 0.9510 0.9500 0.9570
1558.124152 0.9570 0.9489 0.9300 0.9260 0.9260
1562.651609 0.9570 0.9580 0.9580 0.9500 0.9500
1567.179067 0.9500 0.9490 0.9470 0.9400 0.9270
1571.706525 0.9270 0.9360 0.9360 0.9330 0.9270
1576.233982 0.9130 0.9020 0.9020 0.9120 0.9120
1580.761440 0.9000 0.8860 0.8750 0.8690 0.8420
1585.288897 0.8199 0.7979 0.7759 0.7350 0.7120
1589.816355 0.7010 0.6690 0.6160 0.5771 0.5221
1594.343813 0.4999 0.4780 0.4630 0.4460 0.4340
1598.871270 0.4220 0.4120 0.3980 0.3930 0.3930
1603.398728 0.4071 0.4260 0.4460 0.4670 0.4880
1607.926186 0.4910 0.4900 0.4880 0.4091 0.4090
1612.453643 0.6520 0.6538 0.5838 0.5138 0.4489
1616.981101 0.4190 0.3860 0.3680 0.3540 0.3390
1621.508558 0.3390 0.3450 0.3510 0.3641 0.4020
1626.036016 0.4260 0.4640 0.5010 0.5590 0.6309
1630.563474 0.6771 0.7082 0.7731 0.7970 0.8150
1635.090931 0.8280 0.8320 0.8520 0.8820 0.8860
1639.618389 0.8980 0.9070 0.9150 0.9220 0.9230
1644.145847 0.9240 0.9260 0.9240 0.9120 0.9120
1648.673304 0.9170 0.9200 0.9260 0.9330 0.9330
1653.200762 0.8990 0.8990 0.9270 0.9360 0.9440
1657.728219 0.9470 0.9490 0.9500 0.9540 0.9540
1662.255677 0.9540 0.9470 0.9470 0.9510 0.9540
1666.783135 0.9560 0.9560 0.9560 0.9500 0.9460
1671.310592 0.9500 0.9500 0.9500 0.9560 0.9560
1675.838050 0.9430 0.9430 0.9540 0.9560 0.9600
1680.365508 0.9600 0.9570 0.9540 0.9530 0.9470
1684.892965 0.9300 0.9301 0.9540 0.9540 0.9560
1689.420423 0.9560 0.9560 0.9570 0.9580 0.9580
1693.947880 0.9580 0.9570 0.9510 0.9470 0.9460
1698.475338 0.9360 0.9540 0.9340 0.9130 0.9130
1703.002796 0.9500 0.9490 0.9470 0.9470 0.9460
1707.530253 0.9460 0.9470 0.9490 0.9490 0.9470
1712.057711 0.9470 0.9460 0.9460 0.9430 0.9370
1716.585169 0.9360 0.9340 0.9300 0.9230 0.9230
1721.112626 0.9400 0.9470 0.9470 0.9470 0.9470
1725.640084 0.9470 0.9490 0.9490 0.9490 0.9500
1730.167541 0.9500 0.9490 0.9470 0.9470 0.9440
1734.694999 0.9260 0.9320 0.9460 0.9470 0.9510
1739.222457 0.9510 0.9460 0.9410 0.9460 0.9460
1743.749914 0.9460 0.9470 0.9490 0.9490 0.9500
1748.277372 0.9500 0.9500 0.9500 0.9500 0.9470
1752.804830 0.9490 0.9510 0.9540 0.9560 0.9570
1757.332287 0.9570 0.9530 0.9530 0.9600 0.9600
1761.859745 0.9500 0.9500 0.9560 0.9570 0.9580
1766.387202 0.9600 0.9580 0.9570 0.9560 0.9510
1770.914660 0.9570 0.9530 0.9470 0.9470 0.9460
1775.442118 0.9490 0.9540 0.9540 0.9510 0.9510
1779.969575 0.9510 0.9500 0.9470 0.9490 0.9470
1784.497033 0.9460 0.9440 0.9440 0.9430 0.9440
1789.024491 0.9440 0.9470 0.9470 0.9460 0.9440
1793.551948 0.9400 0.9400 0.9460 0.9470 0.9490
1798.079406 0.9500 0.9540 0.9510 0.9490 0.9460
1802.606863 0.9440 0.9410 0.9400 0.9400 0.9400
1807.134321 0.9400 0.9400 0.9410 0.9410 0.9430
1811.661779 0.9460 0.9460 0.9470 0.9490 0.9500
1816.189236 0.9500 0.9500 0.9500 0.9510 0.9540
1820.716694 0.9540 0.9560 0.9570 0.9560 0.9530
1825.244152 0.9510 0.9510 0.9510 0.9540 0.9560
1829.771609 0.9560 0.9560 0.9530 0.9540 0.9570
1834.299067 0.9600 0.9580 0.9610 0.9610 0.9630
1838.826524 0.9640 0.9640 0.9610 0.9600 0.9570
1843.353982 0.9570 0.9560 0.9500 0.9460 0.9460
1847.881440 0.9540 0.9540 0.9540 0.9560 0.9580
1852.408897 0.9600 0.9600 0.9600 0.9600 0.9600
1856.936355 0.9610 0.9610 0.9610 0.9580 0.9580
1861.463812 0.9580 0.9610 0.9610 0.9610 0.9610
1865.991270 0.9610 0.9580 0.9580 0.9570 0.9570
1870.518728 0.9580 0.9580 0.9580 0.9580 0.9580
1875.046185 0.9610 0.9610 0.9610 0.9630 0.9640
1879.573643 0.9660 0.9660 0.9640 0.9610 0.9610
1884.101101 0.9610 0.9610 0.9610 0.9610 0.9610
1888.628558 0.9610 0.9630 0.9610 0.9580 0.9610
1893.156016 0.9630 0.9640 0.9640 0.9660 0.9660
1897.683473 0.9660 0.9670 0.9670 0.9680 0.9700
1902.210931 0.9710 0.9700 0.9710 0.9710 0.9710
1906.738389 0.9730 0.9730 0.9730 0.9730 0.9730
1911.265846 0.9710 0.9710 0.9710 0.9710 0.9710
1915.793304 0.9710 0.9710 0.9710 0.9700 0.9700
1920.320762 0.9700 0.9730 0.9730 0.9710 0.9710
1924.848219 0.9710 0.9710 0.9710 0.9730 0.9730
1929.375677 0.9710 0.9710 0.9730 0.9730 0.9730
1933.903134 0.9730 0.9730 0.9730 0.9730 0.9730
1938.430592 0.9730 0.9730 0.9730 0.9730 0.9730
1942.958050 0.9710 0.9700 0.9700 0.9710 0.9710
1947.485507 0.9730 0.9730 0.9740 0.9740 0.9730
1952.012965 0.9710 0.9710 0.9700 0.9710 0.9710
1956.540423 0.9710 0.9710 0.9710 0.9730 0.9730
1961.067880 0.9730 0.9730 0.9730 0.9730 0.9730
1965.595338 0.9710 0.9710 0.9710 0.9710 0.9710
1970.122795 0.9710 0.9710 0.9710 0.9710 0.9700
1974.650253 0.9700 0.9700 0.9700 0.9700 0.9710
1979.177711 0.9710 0.9710 0.9710 0.9710 0.9710
1983.705168 0.9710 0.9710 0.9710 0.9700 0.9680
1988.232626 0.9680 0.9680 0.9680 0.9680 0.9670
1992.760084 0.9670 0.9670 0.9670 0.9660 0.9580
1997.287541 0.9430 0.9160 0.9160 0.9341 0.9455
2001.814999 0.9570 0.9605 0.9640 0.9650 0.9660
2006.342456 0.9665 0.9670 0.9685 0.9700 0.9715
2010.869914 0.9730 0.9730 0.9730 0.9730 0.9730
2015.397372 0.9730 0.9730 0.9730 0.9730 0.9730
2019.924829 0.9730 0.9735 0.9740 0.9740 0.9740
2024.452287 0.9745 0.9750 0.9745 0.9740 0.9735
2028.979745 0.9730 0.9730 0.9730 0.9730 0.9730
2033.507202 0.9735 0.9740 0.9740 0.9740 0.9740
2038.034660 0.9740 0.9745 0.9750 0.9750 0.9750
2042.562117 0.9745 0.9740 0.9740 0.9740 0.9740
2047.089575 0.9740 0.9745 0.9750 0.9750 0.9750
2051.617033 0.9759 0.9769 0.9775 0.9780 0.9766
2056.144490 0.9751 0.9750 0.9750 0.9750 0.9750
2060.671948 0.9745 0.9740 0.9740 0.9740 0.9740
2065.199406 0.9740 0.9740 0.9740 0.9667 0.9587
2069.726863 0.9580 0.9580 0.9640 0.9705 0.9719
2074.254321 0.9729 0.9730 0.9730 0.9735 0.9740
2078.781778 0.9740 0.9740 0.9740 0.9740 0.9745
2083.309236 0.9750 0.9745 0.9740 0.9736 0.9731
2087.836694 0.9730 0.9730 0.9735 0.9740 0.9740
2092.364151 0.9740 0.9740 0.9740 0.9740 0.9740
2096.891609 0.9740 0.9740 0.9753 0.9768 0.9774
2101.419067 0.9779 0.9758 0.9733 0.9730 0.9730
2105.946524 0.9734 0.9739 0.9744 0.9749 0.9750
2110.473982 0.9750 0.9759 0.9769 0.9770 0.9770
2115.001439 0.9770 0.9770 0.9770 0.9770 0.9770
2119.528897 0.9770 0.9770 0.9770 0.9761 0.9751
2124.056355 0.9746 0.9741 0.9740 0.9740 0.9753
2128.583812 0.9768 0.9770 0.9770 0.9753 0.9733
2133.111270 0.9730 0.9730 0.9730 0.9730 0.9730
2137.638728 0.9730 0.9730 0.9730 0.9730 0.9730
2142.166185 0.9738 0.9748 0.9750 0.9750 0.9750
2146.693643 0.9750 0.9746 0.9741 0.9740 0.9740
2151.221100 0.9736 0.9731 0.9734 0.9739 0.9736
2155.748558 0.9731 0.9730 0.9730 0.9730 0.9730
2160.276016 0.9738 0.9748 0.9750 0.9750 0.9750
2164.803473 0.9750 0.9750 0.9750 0.9750 0.9750
2169.330931 0.9750 0.9750 0.9750 0.9750 0.9746
2173.858389 0.9741 0.9740 0.9740 0.9744 0.9749
2178.385846 0.9750 0.9750 0.9746 0.9741 0.9740
2182.913304 0.9740 0.9740 0.9740 0.9740 0.9740
2187.440761 0.9740 0.9740 0.9740 0.9740 0.9740
2191.968219 0.9740 0.9740 0.9740 0.9740 0.9740
2196.495677 0.9740 0.9740 0.9740 0.9740 0.9740
2201.023134 0.9740 0.9740 0.9740 0.9740 0.9740
2205.550592 0.9740 0.9740 0.9740 0.9740 0.9740
2210.078050 0.9740 0.9740 0.9740 0.9740 0.9740
2214.605507 0.9740 0.9740 0.9740 0.9740 0.9740
2219.132965 0.9740 0.9740 0.9740 0.9740 0.9740
2223.660422 0.9740 0.9740 0.9740 0.9740 0.9740
2228.187880 0.9740 0.9740 0.9740 0.9740 0.9740
2232.715338 0.9740 0.9740 0.9740 0.9740 0.9744
2237.242795 0.9749 0.9750 0.9750 0.9746 0.9741
