##TITLE=Acetaldehyde
##JCAMP-DX=4.24
##DATA TYPE=INFRARED SPECTRUM
##CLASS=COBLENTZ
##ORIGIN=DOW CHEMICAL COMPANY
##OWNER=COBLENTZ SOC.
Collection (C) 2018 copyright by the U.S. Secretary of Commerce
on behalf of the United States of America. All rights reserved.
##DATE=1964
##CAS REGISTRY NO=75-07-0
##MOLFORM=C2 H4 O
##SOURCE REFERENCE=COBLENTZ NO. 08765
##$NIST SOURCE=COBLENTZ
##$NIST IMAGE=cob8765
##SPECTROMETER/DATA SYSTEM=DOW KBr FOREPRISM-GRATING
##INSTRUMENT PARAMETERS=GRATING CHANGED AT 5.0, 7.5, 15.0 MICRON
##STATE=GAS (100 mmHg, N2 ADDED, TOTAL PRESSURE 600 mmHg)
##PATH LENGTH=5 CM
$$ ROTATIONAL FEATURES IN THE 1600 CM^-^1 REGION ARE DELETED
##SAMPLING PROCEDURE=TRANSMISSION
##RESOLUTION=2
##DATA PROCESSING=DIGITIZED BY COBLENTZ SOCIETY (BATCH I) FROM HARD COPY
##XUNITS=1/CM
##YUNITS=TRANSMITTANCE
##XLABEL=Wavenumbers (cm-1)
##YLABEL=% Transmission
##XFACTOR=1
##YFACTOR=1
##DELTAX=1
##FIRSTX=387
##LASTX=3764
##FIRSTY=0.9245
##MAXX=3764
##MINX=387
##MAXY=0.9513
##MINY=0.0058
##NPOINTS=3378
##XYDATA=(X++(Y..Y))
387.000000 0.9245 0.9240 0.9235 0.9231 0.9227
392.000000 0.9223 0.9218 0.9215 0.9211 0.9207
397.000000 0.9233 0.9198 0.9193 0.9188 0.9183
402.000000 0.9177 0.9171 0.9167 0.9162 0.9157
407.000000 0.9152 0.9146 0.9141 0.9136 0.9130
412.000000 0.9123 0.9116 0.9109 0.9102 0.9095
417.000000 0.9089 0.9082 0.9075 0.9068 0.9061
422.000000 0.9054 0.9047 0.9040 0.9034 0.9027
427.000000 0.9020 0.9013 0.9005 0.8995 0.8985
432.000000 0.8975 0.8966 0.8956 0.8946 0.8936
437.000000 0.8927 0.8917 0.8907 0.8897 0.8887
442.000000 0.8875 0.8862 0.8850 0.8837 0.8825
447.000000 0.8813 0.8800 0.8788 0.8775 0.8763
452.000000 0.8751 0.8739 0.8717 0.8693 0.8668
457.000000 0.8646 0.8618 0.8585 0.8552 0.8518
462.000000 0.8484 0.8450 0.8417 0.8383 0.8335
467.000000 0.8285 0.8235 0.8185 0.8135 0.8085
472.000000 0.8030 0.7958 0.7886 0.7814 0.7742
477.000000 0.7669 0.7580 0.7488 0.7396 0.7290
482.000000 0.7164 0.7038 0.6880 0.6708 0.6518
487.000000 0.6295 0.6021 0.5890 0.5757 0.5607
492.000000 0.5456 0.5030 0.4990 0.4990 0.4994
497.000000 0.4967 0.5010 0.5044 0.5148 0.5343
502.000000 0.5576 0.5809 0.6042 0.6275 0.6507
507.000000 0.6740 0.6985 0.6844 0.6193 0.5541
512.000000 0.4910 0.4971 0.5225 0.5479 0.5727
517.000000 0.5596 0.5472 0.5348 0.5225 0.5101
522.000000 0.4977 0.4983 0.4970 0.5002 0.5027
527.000000 0.5062 0.5123 0.5210 0.5312 0.5416
532.000000 0.5517 0.5617 0.5741 0.5877 0.6153
537.000000 0.6425 0.6841 0.7207 0.7380 0.7551
542.000000 0.7667 0.7784 0.7911 0.8054 0.8257
547.000000 0.8307 0.8357 0.8405 0.8446 0.8474
552.000000 0.8502 0.8531 0.8559 0.8585 0.8610
557.000000 0.8635 0.8661 0.8684 0.8707 0.8728
562.000000 0.8752 0.8775 0.8798 0.8820 0.8838
567.000000 0.8852 0.8866 0.8880 0.8894 0.8908
572.000000 0.8921 0.8936 0.8950 0.8964 0.8978
577.000000 0.8989 0.8999 0.9009 0.9018 0.9028
582.000000 0.9037 0.9047 0.9057 0.9066 0.9075
587.000000 0.9082 0.9088 0.9095 0.9101 0.9107
592.000000 0.9113 0.9120 0.9125 0.9132 0.9138
597.000000 0.9144 0.9151 0.9157 0.9163 0.9168
602.000000 0.9174 0.9180 0.9185 0.9190 0.9196
607.000000 0.9201 0.9207 0.9213 0.9218 0.9225
612.000000 0.9233 0.9239 0.9246 0.9253 0.9259
617.000000 0.9266 0.9273 0.9281 0.9289 0.9297
622.000000 0.9305 0.9314 0.9321 0.9330 0.9338
627.000000 0.9346 0.9354 0.9362 0.9368 0.9375
632.000000 0.9382 0.9388 0.9395 0.9402 0.9408
637.000000 0.9415 0.9421 0.9428 0.9436 0.9443
642.000000 0.9450 0.9458 0.9465 0.9471 0.9478
647.000000 0.9487 0.9485 0.9478 0.9471 0.9465
652.000000 0.9458 0.9451 0.9444 0.9438 0.9431
657.000000 0.9498 0.9417 0.9410 0.9408 0.9405
662.000000 0.9404 0.9405 0.9406 0.9409 0.9411
667.000000 0.9414 0.9415 0.9416 0.9418 0.9420
672.000000 0.9423 0.9427 0.9431 0.9435 0.9439
677.000000 0.9447 0.9455 0.9463 0.9473 0.9483
682.000000 0.9493 0.9501 0.9507 0.9513 0.9512
687.000000 0.9511 0.9510 0.9509 0.9508 0.9507
692.000000 0.9506 0.9505 0.9503 0.9501 0.9499
697.000000 0.9496 0.9494 0.9493 0.9491 0.9489
702.000000 0.9487 0.9486 0.9484 0.9478 0.9475
707.000000 0.9471 0.9467 0.9462 0.9457 0.9453
712.000000 0.9448 0.9443 0.9438 0.9433 0.9427
717.000000 0.9421 0.9416 0.9411 0.9406 0.9391
722.000000 0.9374 0.9356 0.9339 0.9338 0.9337
727.000000 0.9351 0.9365 0.9380 0.9382 0.9382
732.000000 0.9367 0.9350 0.9332 0.9321 0.9310
737.000000 0.9301 0.9298 0.9294 0.9291 0.9285
742.000000 0.9278 0.9271 0.9265 0.9259 0.9257
747.000000 0.9254 0.9252 0.9249 0.9247 0.9243
752.000000 0.9239 0.9234 0.9230 0.9225 0.9218
757.000000 0.9212 0.9204 0.9196 0.9188 0.9181
762.000000 0.9171 0.9163 0.9153 0.9144 0.8866
767.000000 0.8532 0.8330 0.8383 0.8570 0.8757
772.000000 0.8945 0.9132 0.9182 0.9182 0.9181
777.000000 0.9174 0.9167 0.9156 0.9137 0.9110
782.000000 0.9087 0.9066 0.9064 0.9107 0.9138
787.000000 0.9163 0.9185 0.9193 0.9199 0.9200
792.000000 0.9202 0.9203 0.9204 0.9204 0.9204
797.000000 0.9204 0.9204 0.9204 0.9203 0.9202
802.000000 0.9201 0.9200 0.9199 0.9198 0.9197
807.000000 0.9196 0.9195 0.9194 0.9193 0.9192
812.000000 0.9191 0.9190 0.9189 0.9187 0.9186
817.000000 0.9185 0.9183 0.9182 0.9181 0.9178
822.000000 0.9178 0.9178 0.9177 0.9177 0.9171
827.000000 0.9158 0.9144 0.9130 0.9117 0.9101
832.000000 0.9078 0.9055 0.9023 0.8991 0.8959
837.000000 0.8924 0.8882 0.8839 0.8797 0.8756
842.000000 0.8717 0.8678 0.8638 0.8597 0.8556
847.000000 0.8514 0.8473 0.8416 0.8356 0.8290
852.000000 0.8218 0.8150 0.8086 0.8060 0.8030
857.000000 0.8045 0.8045 0.8053 0.8062 0.8147
862.000000 0.8218 0.8283 0.8338 0.8381 0.8414
867.000000 0.8488 0.7503 0.6310 0.6264 0.6247
872.000000 0.8200 0.8321 0.8206 0.8098 0.7990
877.000000 0.7882 0.7772 0.7665 0.7557 0.7475
882.000000 0.7444 0.7433 0.7433 0.7438 0.7445
887.000000 0.7461 0.7492 0.7517 0.7535 0.7547
892.000000 0.7547 0.7547 0.7546 0.7538 0.7524
897.000000 0.7494 0.7456 0.7411 0.7382 0.7351
902.000000 0.7325 0.7303 0.7297 0.7294 0.7294
907.000000 0.7295 0.7240 0.7154 0.7067 0.7083
912.000000 0.7071 0.7172 0.7275 0.7378 0.7556
917.000000 0.7528 0.7497 0.7274 0.7051 0.6884
922.000000 0.6841 0.7387 0.7410 0.7336 0.7289
927.000000 0.7239 0.7187 0.7143 0.7105 0.7061
932.000000 0.7112 0.7138 0.7165 0.7200 0.7249
937.000000 0.7308 0.7393 0.7476 0.7558 0.7640
942.000000 0.7741 0.7842 0.7950 0.8075 0.8195
947.000000 0.8285 0.8375 0.8444 0.8496 0.8547
952.000000 0.8598 0.8621 0.8645 0.8668 0.8688
957.000000 0.8694 0.8700 0.8706 0.8712 0.8718
962.000000 0.8725 0.8731 0.8735 0.8735 0.8735
967.000000 0.8735 0.8735 0.8734 0.8733 0.8732
972.000000 0.8731 0.8730 0.8728 0.8728 0.8727
977.000000 0.8725 0.8724 0.8723 0.8721 0.8720
982.000000 0.8718 0.8717 0.8733 0.8714 0.8711
987.000000 0.8706 0.8700 0.8695 0.8690 0.8684
992.000000 0.8678 0.8674 0.8668 0.8663 0.8656
997.000000 0.8649 0.8641 0.8634 0.8627 0.8627
1002.000000 0.8627 0.8627 0.8627 0.8627 0.8627
1007.000000 0.8628 0.8633 0.8638 0.8643 0.8648
1012.000000 0.8653 0.8653 0.8652 0.8650 0.8649
1017.000000 0.8641 0.8625 0.8609 0.8592 0.8575
1022.000000 0.8556 0.8537 0.8518 0.8498 0.8478
1027.000000 0.8460 0.8440 0.8425 0.8411 0.8397
1032.000000 0.8383 0.8368 0.8354 0.8340 0.8328
1037.000000 0.8316 0.8305 0.8294 0.8282 0.8271
1042.000000 0.8259 0.8243 0.8224 0.8205 0.8186
1047.000000 0.8167 0.8148 0.8128 0.8110 0.8091
1052.000000 0.8067 0.8032 0.7997 0.7961 0.7926
1057.000000 0.7891 0.7856 0.7821 0.7786 0.7738
1062.000000 0.7685 0.7633 0.7580 0.7526 0.7475
1067.000000 0.7421 0.7369 0.7312 0.7207 0.7100
1072.000000 0.6994 0.6887 0.6778 0.6671 0.6564
1077.000000 0.6415 0.6265 0.6115 0.5967 0.5819
1082.000000 0.5683 0.5553 0.5423 0.5303 0.5201
1087.000000 0.5099 0.4997 0.4894 0.4758 0.4618
1092.000000 0.4478 0.4340 0.4201 0.4091 0.3991
1097.000000 0.3891 0.3791 0.3660 0.3528 0.3414
1102.000000 0.3326 0.3239 0.3200 0.3196 0.3207
1107.000000 0.3218 0.3259 0.3425 0.3486 0.3547
1112.000000 0.3600 0.3650 0.3700 0.3734 0.3739
1117.000000 0.3764 0.3718 0.3637 0.3441 0.3350
1122.000000 0.3259 0.3150 0.3125 0.3131 0.3139
1127.000000 0.3149 0.3143 0.3191 0.3230 0.3274
1132.000000 0.3334 0.3409 0.3578 0.3752 0.3926
1137.000000 0.4101 0.4275 0.4449 0.4623 0.4797
1142.000000 0.4972 0.5146 0.5320 0.5494 0.5668
1147.000000 0.5862 0.5982 0.6122 0.6447 0.6610
1152.000000 0.6762 0.6897 0.7021 0.7144 0.7251
1157.000000 0.7340 0.7430 0.7518 0.7582 0.7644
1162.000000 0.7707 0.7769 0.7833 0.7880 0.7925
1167.000000 0.7969 0.8015 0.8060 0.8093 0.8125
1172.000000 0.8158 0.8193 0.8225 0.8252 0.8271
1177.000000 0.8289 0.8308 0.8325 0.8345 0.8364
1182.000000 0.8382 0.8401 0.8412 0.8421 0.8431
1187.000000 0.8441 0.8451 0.8461 0.8470 0.8480
1192.000000 0.8490 0.8497 0.8503 0.8509 0.8515
1197.000000 0.8521 0.8527 0.8533 0.8537 0.8538
1202.000000 0.8540 0.8541 0.8542 0.8544 0.8545
1207.000000 0.8547 0.8547 0.8547 0.8545 0.8542
1212.000000 0.8540 0.8537 0.8535 0.8532 0.8530
1217.000000 0.8528 0.8525 0.8524 0.8523 0.8521
1222.000000 0.8518 0.8517 0.8516 0.8514 0.8512
1227.000000 0.8511 0.8511 0.8510 0.8509 0.8508
1232.000000 0.8508 0.8507 0.8506 0.8506 0.8506
1237.000000 0.8506 0.8507 0.8507 0.8508 0.8508
1242.000000 0.8509 0.8509 0.8510 0.8510 0.8549
1247.000000 0.8507 0.8505 0.8504 0.8502 0.8500
1252.000000 0.8498 0.8497 0.8495 0.8495 0.8494
1257.000000 0.8494 0.8493 0.8492 0.8492 0.8491
1262.000000 0.8491 0.8490 0.8490 0.8490 0.8491
1267.000000 0.8492 0.8493 0.8494 0.8495 0.8497
1272.000000 0.8498 0.8499 0.8500 0.8501 0.8502
1277.000000 0.8503 0.8503 0.8504 0.8504 0.8505
1282.000000 0.8506 0.8506 0.8507 0.8503 0.8498
1287.000000 0.8494 0.8489 0.8485 0.8480 0.8475
1292.000000 0.8470 0.8460 0.8450 0.8441 0.8431
1297.000000 0.8421 0.8409 0.8394 0.8378 0.8364
1302.000000 0.8349 0.8334 0.8312 0.8290 0.8268
1307.000000 0.8241 0.8201 0.8161 0.8121 0.8083
1312.000000 0.8034 0.7986 0.7937 0.7888 0.7830
1317.000000 0.7758 0.7688 0.7615 0.7540 0.7461
1322.000000 0.7382 0.7303 0.7224 0.7038 0.6844
1327.000000 0.6564 0.6304 0.6147 0.5989 0.5562
1332.000000 0.5400 0.5233 0.5046 0.4848 0.4650
1337.000000 0.4452 0.4254 0.4056 0.3858 0.3759
1342.000000 0.3741 0.3774 0.3829 0.3882 0.3938
1347.000000 0.3993 0.4112 0.4102 0.4109 0.4112
1352.000000 0.2184 0.1803 0.1794 0.2997 0.3594
1357.000000 0.4191 0.4524 0.4543 0.4196 0.3887
1362.000000 0.3578 0.3268 0.2960 0.2651 0.2342
1367.000000 0.2033 0.1981 0.1985 0.1992 0.2004
1372.000000 0.2020 0.2044 0.2106 0.2244 0.2351
1377.000000 0.2464 0.2593 0.2719 0.2842 0.2973
1382.000000 0.3119 0.3232 0.3848 0.3945 0.3986
1387.000000 0.4009 0.4012 0.4012 0.4012 0.4009
1392.000000 0.4004 0.3978 0.3989 0.3964 0.3942
1397.000000 0.3910 0.3859 0.3764 0.3668 0.3573
1402.000000 0.3478 0.3382 0.3288 0.3193 0.3098
1407.000000 0.3003 0.2908 0.2813 0.2718 0.2725
1412.000000 0.2709 0.2713 0.2723 0.2741 0.2772
1417.000000 0.2802 0.2831 0.2874 0.2917 0.2957
1422.000000 0.2998 0.3051 0.3105 0.3199 0.3310
1427.000000 0.3432 0.3559 0.3674 0.3780 0.3939
1432.000000 0.4086 0.4168 0.4197 0.4210 0.4242
1437.000000 0.4174 0.4084 0.3996 0.3907 0.3818
1442.000000 0.3729 0.3734 0.3736 0.3759 0.3776
1447.000000 0.3800 0.3837 0.3875 0.3925 0.3979
1452.000000 0.4044 0.4121 0.4197 0.4274 0.4352
1457.000000 0.4429 0.4501 0.4574 0.4790 0.4883
1462.000000 0.4981 0.5093 0.5204 0.5299 0.5391
1467.000000 0.5484 0.5552 0.5620 0.5687 0.5755
1472.000000 0.5805 0.5845 0.5886 0.5927 0.5967
1477.000000 0.6008 0.6048 0.6089 0.6129 0.6170
1482.000000 0.6212 0.6256 0.6298 0.6343 0.6395
1487.000000 0.6447 0.6499 0.6551 0.6605 0.6658
1492.000000 0.6701 0.6733 0.6764 0.6795 0.6826
1497.000000 0.6858 0.6887 0.6910 0.6934 0.6957
1502.000000 0.6981 0.7004 0.7028 0.7051 0.7074
1507.000000 0.7092 0.7110 0.7128 0.7147 0.7165
1512.000000 0.7183 0.7201 0.7219 0.7238 0.7256
1517.000000 0.7276 0.7298 0.7318 0.7340 0.7361
1522.000000 0.7382 0.7404 0.7425 0.7450 0.7478
1527.000000 0.7506 0.7534 0.7562 0.7591 0.7600
1532.000000 0.7603 0.7607 0.7610 0.7614 0.7617
1537.000000 0.7621 0.7624 0.7626 0.7626 0.7621
1542.000000 0.7618 0.7614 0.7608 0.7605 0.7601
1547.000000 0.7598 0.7596 0.7594 0.7592 0.7590
1552.000000 0.7588 0.7586 0.7586 0.7592 0.7599
1557.000000 0.7607 0.7625 0.7650 0.7674 0.7699
1562.000000 0.7724 0.7748 0.7772 0.7804 0.7841
1567.000000 0.7878 0.7917 0.7949 0.7971 0.7994
1572.000000 0.8017 0.8039 0.8056 0.8068 0.8082
1577.000000 0.8096 0.8108 0.8121 0.8125 0.8128
1582.000000 0.8131 0.8135 0.8138 0.8141 0.8145
1587.000000 0.8149 0.8153 0.8158 0.8162 0.8167
1592.000000 0.8171 0.8175 0.8176 0.8178 0.8178
1597.000000 0.8178 0.8180 0.8180 0.8181 0.8181
1602.000000 0.8182 0.8184 0.8186 0.8187 0.8189
1607.000000 0.8191 0.8193 0.8195 0.8196 0.8198
1612.000000 0.8200 0.8201 0.8202 0.8204 0.8205
1617.000000 0.8218 0.8208 0.8209 0.8210 0.8213
1622.000000 0.8218 0.8225 0.8231 0.8236 0.8242
1627.000000 0.8248 0.8254 0.8259 0.8265 0.8271
1632.000000 0.8278 0.8284 0.8291 0.8298 0.8305
1637.000000 0.8311 0.8316 0.8320 0.8325 0.8328
1642.000000 0.8333 0.8337 0.8337 0.8338 0.8335
1647.000000 0.8331 0.8328 0.8321 0.8314 0.8305
1652.000000 0.8296 0.8286 0.8277 0.8267 0.8257
1657.000000 0.8247 0.8238 0.8228 0.8218 0.8208
1662.000000 0.8192 0.8168 0.8145 0.8118 0.8084
1667.000000 0.8051 0.8018 0.7983 0.7949 0.7912
1672.000000 0.7864 0.7815 0.7765 0.7715 0.7662
1677.000000 0.7608 0.7547 0.7444 0.7255 0.7006
1682.000000 0.6864 0.6761 0.6539 0.6669 0.6801
1687.000000 0.6935 0.6922 0.6838 0.6733 0.6503
1692.000000 0.6306 0.6145 0.5990 0.5850 0.5379
1697.000000 0.5362 0.5512 0.5594 0.4674 0.4629
1702.000000 0.4580 0.4327 0.4116 0.3882 0.3671
1707.000000 0.3523 0.3425 0.3374 0.2253 0.1952
1712.000000 0.1757 0.1584 0.1407 0.1211 0.0913
1717.000000 0.0710 0.0555 0.0421 0.0342 0.0263
1722.000000 0.0171 0.0119 0.0083 0.0066 0.0058
1727.000000 0.0058 0.0058 0.0059 0.0059 0.0059
1732.000000 0.0059 0.0059 0.0059 0.0059 0.0060
1737.000000 0.0062 0.0064 0.0066 0.0067 0.0068
1742.000000 0.0068 0.0068 0.0068 0.0068 0.0068
1747.000000 0.0069 0.0069 0.0070 0.0071 0.0071
1752.000000 0.0072 0.0073 0.0075 0.0076 0.0078
1757.000000 0.0079 0.0081 0.0083 0.0084 0.0087
1762.000000 0.0092 0.0097 0.0102 0.0108 0.0118
1767.000000 0.0128 0.0143 0.0176 0.0218 0.0257
1772.000000 0.0290 0.0338 0.0392 0.0449 0.0511
1777.000000 0.0583 0.0655 0.0720 0.0786 0.0874
1782.000000 0.1218 0.1598 0.1675 0.1693 0.1711
1787.000000 0.1729 0.1752 0.1775 0.1798 0.1887
1792.000000 0.2003 0.2181 0.2374 0.2566 0.2758
1797.000000 0.2951 0.3142 0.3230 0.3332 0.3562
1802.000000 0.3773 0.3984 0.4212 0.4819 0.5064
1807.000000 0.5260 0.5415 0.5562 0.5704 0.5814
1812.000000 0.5917 0.6000 0.6075 0.6150 0.6199
1817.000000 0.6247 0.6290 0.6322 0.6353 0.6384
1822.000000 0.6415 0.6446 0.6476 0.6508 0.6538
1827.000000 0.6568 0.6614 0.6681 0.6748 0.6811
1832.000000 0.6850 0.6889 0.6936 0.6984 0.7031
1837.000000 0.7078 0.7130 0.7182 0.7234 0.7285
1842.000000 0.7318 0.7351 0.7384 0.7418 0.7453
1847.000000 0.7488 0.7522 0.7557 0.7592 0.7631
1852.000000 0.7692 0.7753 0.7805 0.7856 0.7930
1857.000000 0.7975 0.8021 0.8061 0.8103 0.8141
1862.000000 0.8178 0.8215 0.8237 0.8257 0.8274
1867.000000 0.8287 0.8305 0.8348 0.8415 0.8459
1872.000000 0.8477 0.8485 0.8494 0.8503 0.8507
1877.000000 0.8511 0.8515 0.8518 0.8523 0.8525
1882.000000 0.8530 0.8534 0.8537 0.8540 0.8544
1887.000000 0.8547 0.8550 0.8560 0.8570 0.8581
1892.000000 0.8592 0.8602 0.8613 0.8624 0.8634
1897.000000 0.8646 0.8658 0.8668 0.8681 0.8692
1902.000000 0.8700 0.8708 0.8708 0.8709 0.8709
1907.000000 0.8708 0.8706 0.8702 0.8698 0.8695
1912.000000 0.8691 0.8685 0.8677 0.8668 0.8659
1917.000000 0.8650 0.8641 0.8631 0.8621 0.8612
1922.000000 0.8605 0.8604 0.8604 0.8605 0.8608
1927.000000 0.8611 0.8614 0.8618 0.8621 0.8621
1932.000000 0.8621 0.8621 0.8621 0.8621 0.8621
1937.000000 0.8620 0.8618 0.8618 0.8618 0.8615
1942.000000 0.8607 0.8598 0.8590 0.8581 0.8573
1947.000000 0.8564 0.8555 0.8547 0.8538 0.8530
1952.000000 0.8521 0.8512 0.8504 0.8495 0.8487
1957.000000 0.8478 0.8468 0.8461 0.8453 0.8446
1962.000000 0.8439 0.8432 0.8425 0.8421 0.8418
1967.000000 0.8416 0.8413 0.8410 0.8407 0.8404
1972.000000 0.8403 0.8403 0.8404 0.8406 0.8407
1977.000000 0.8407 0.8407 0.8407 0.8406 0.8399
1982.000000 0.8393 0.8387 0.8381 0.8375 0.8368
1987.000000 0.8360 0.8351 0.8342 0.8320 0.8282
1992.000000 0.8243 0.8204 0.8165 0.8126 0.8088
1997.000000 0.8049 0.8010 0.7971 0.7984 0.7999
2002.000000 0.8015 0.8021 0.8028 0.8035 0.8042
2007.000000 0.8048 0.8055 0.8060 0.8065 0.8068
2012.000000 0.8072 0.8075 0.8080 0.8082 0.8084
2017.000000 0.8084 0.8085 0.8085 0.8085 0.8085
2022.000000 0.8086 0.8086 0.8087 0.8087 0.8087
2027.000000 0.8087 0.8088 0.8090 0.8092 0.8096
2032.000000 0.8101 0.8105 0.8108 0.8112 0.8117
2037.000000 0.8121 0.8125 0.8130 0.8134 0.8140
2042.000000 0.8146 0.8154 0.8162 0.8171 0.8180
2047.000000 0.8189 0.8198 0.8211 0.8225 0.8240
2052.000000 0.8255 0.8262 0.8268 0.8274 0.8278
2057.000000 0.8284 0.8290 0.8293 0.8296 0.8297
2062.000000 0.8298 0.8299 0.8301 0.8302 0.8303
2067.000000 0.8304 0.8305 0.8306 0.8308 0.8309
2072.000000 0.8310 0.8311 0.8312 0.8313 0.8314
2077.000000 0.8315 0.8317 0.8318 0.8321 0.8321
2082.000000 0.8323 0.8323 0.8324 0.8324 0.8324
2087.000000 0.8324 0.8324 0.8324 0.8324 0.8324
2092.000000 0.8324 0.8324 0.8324 0.8324 0.8324
2097.000000 0.8324 0.8324 0.8324 0.8324 0.8324
2102.000000 0.8324 0.8324 0.8325 0.8325 0.8325
2107.000000 0.8325 0.8325 0.8325 0.8325 0.8325
2112.000000 0.8327 0.8327 0.8327 0.8327 0.8328
2117.000000 0.8328 0.8328 0.8328 0.8328 0.8328
2122.000000 0.8328 0.8328 0.8328 0.8328 0.8328
2127.000000 0.8327 0.8327 0.8325 0.8325 0.8325
2132.000000 0.8325 0.8324 0.8324 0.8323 0.8323
2137.000000 0.8321 0.8321 0.8321 0.8321 0.8320
2142.000000 0.8320 0.8318 0.8318 0.8318 0.8317
2147.000000 0.8316 0.8316 0.8315 0.8314 0.8313
2152.000000 0.8313 0.8312 0.8312 0.8311 0.8310
2157.000000 0.8309 0.8309 0.8308 0.8307 0.8306
2162.000000 0.8306 0.8305 0.8304 0.8302 0.8301
2167.000000 0.8299 0.8298 0.8296 0.8295 0.8293
2172.000000 0.8292 0.8290 0.8289 0.8283 0.8278
2177.000000 0.8273 0.8268 0.8263 0.8258 0.8253
2182.000000 0.8248 0.8242 0.8237 0.8232 0.8227
2187.000000 0.8221 0.8216 0.8211 0.8206 0.8200
2192.000000 0.8195 0.8190 0.8185 0.8180 0.8175
2197.000000 0.8172 0.8169 0.8167 0.8164 0.8160
2202.000000 0.8151 0.8151 0.8151 0.8150 0.8148
2207.000000 0.8145 0.8143 0.8142 0.8141 0.8141
2212.000000 0.8142 0.8142 0.8142 0.8142 0.8143
2217.000000 0.8143 0.8144 0.8144 0.8144 0.8144
2222.000000 0.8145 0.8145 0.8145 0.8145 0.8145
2227.000000 0.8145 0.8145 0.8144 0.8144 0.8144
2232.000000 0.8144 0.8144 0.8144 0.8143 0.8143
2237.000000 0.8143 0.8143 0.8143 0.8143 0.8143
2242.000000 0.8143 0.8143 0.8143 0.8143 0.8143
2247.000000 0.8143 0.8143 0.8143 0.8143 0.8143
2252.000000 0.8143 0.8143 0.8143 0.8143 0.8143
2257.000000 0.8143 0.8143 0.8143 0.8144 0.8144
2262.000000 0.8144 0.8144 0.8145 0.8145 0.8145
2267.000000 0.8145 0.8146 0.8146 0.8147 0.8147
2272.000000 0.8147 0.8147 0.8148 0.8148 0.8149
2277.000000 0.8150 0.8151 0.8151 0.8154 0.8155
2282.000000 0.8156 0.8157 0.8158 0.8158 0.8161
2287.000000 0.8167 0.8172 0.8178 0.8186 0.8192
2292.000000 0.8199 0.8207 0.8215 0.8221 0.8230
2297.000000 0.8237 0.8245 0.8255 0.8265 0.8274
2302.000000 0.8284 0.8293 0.8303 0.8309 0.8315
2307.000000 0.8321 0.8327 0.8333 0.8339 0.8344
2312.000000 0.8349 0.8352 0.8355 0.8357 0.8360
2317.000000 0.8363 0.8366 0.8368 0.8371 0.8374
2322.000000 0.8377 0.8378 0.8381 0.8382 0.8384
2327.000000 0.8385 0.8387 0.8388 0.8390 0.8390
2332.000000 0.8390 0.8390 0.8390 0.8389 0.8389
2337.000000 0.8388 0.8388 0.8387 0.8387 0.8386
2342.000000 0.8385 0.8384 0.8384 0.8383 0.8383
2347.000000 0.8382 0.8382 0.8381 0.8381 0.8381
2352.000000 0.8382 0.8383 0.8384 0.8385 0.8386
2357.000000 0.8387 0.8388 0.8389 0.8390 0.8390
2362.000000 0.8390 0.8390 0.8391 0.8391 0.8392
2367.000000 0.8392 0.8393 0.8393 0.8393 0.8391
2372.000000 0.8390 0.8388 0.8387 0.8385 0.8384
2377.000000 0.8382 0.8381 0.8378 0.8378 0.8375
2382.000000 0.8375 0.8373 0.8371 0.8371 0.8370
2387.000000 0.8368 0.8368 0.8367 0.8367 0.8366
2392.000000 0.8365 0.8364 0.8364 0.8367 0.8370
2397.000000 0.8373 0.8375 0.8378 0.8381 0.8384
2402.000000 0.8385 0.8384 0.8383 0.8381 0.8378
2407.000000 0.8375 0.8374 0.8371 0.8370 0.8367
2412.000000 0.8365 0.8362 0.8359 0.8356 0.8354
