##TITLE=CYCLOPROPANE
##JCAMP-DX=4.24
##DATA TYPE=INFRARED SPECTRUM
##CLASS=COBLENTZ
##ORIGIN=DOW CHEMICAL COMPANY
##OWNER=COBLENTZ SOCIETY
Collection (C) 2018 copyright by the U.S. Secretary of Commerce
on behalf of the United States of America. All rights reserved.
##DATE=Not specified, most likely prior to 1982
##CAS REGISTRY NO=75-19-4
##MOLFORM=C3 H6
##SOURCE REFERENCE=COBLENTZ NO. 10488
##$NIST SOURCE=COBLENTZ
##$NIST IMAGE=cob10488
##SPECTROMETER/DATA SYSTEM=DOW KBr FOREPRISM-GRATING
##INSTRUMENT PARAMETERS=BLAZED AT 3.5, 12.0, 20.0 MICRON, CHANGED AT 5.0, 7.5, 14.9 MICRON
##STATE=GAS (100 mmHg DILUTED TO A TOTAL PRESSURE OF 400 mmHg WITH N2)
##PATH LENGTH=5 CM CELL
##SAMPLING PROCEDURE=TRANSMISSION
##RESOLUTION=4
##DATA PROCESSING=DIGITIZED BY NIST FROM HARD COPY (FROM TWO SEGMENTS)
##XUNITS=1/CM
##YUNITS=TRANSMITTANCE
##XFACTOR=1.000000
##YFACTOR=1
##DELTAX=0.874833
##FIRSTX=464.67
##LASTX=3800.41
##FIRSTY=0.92
##MAXX=3800.41
##MINX=464.67
##MAXY=1
##MINY=0.008
##NPOINTS=3814
##XYDATA=(X++(Y..Y))
464.670000 0.9200 0.9190 0.9190 0.9170 0.9170
469.044167 0.9160 0.9150 0.9130 0.9130 0.9130
473.418334 0.9130 0.9130 0.9130 0.9130 0.9130
477.792501 0.9130 0.9130 0.9120 0.9100 0.9090
482.166668 0.9090 0.9090 0.9080 0.9080 0.9080
486.540836 0.9080 0.9080 0.9060 0.9060 0.9050
490.915003 0.9040 0.9040 0.9040 0.9040 0.9040
495.289170 0.9040 0.9040 0.9040 0.9040 0.9040
499.663337 0.9020 0.9020 0.9010 0.9010 0.9010
504.037504 0.9010 0.9010 0.9010 0.9010 0.9010
508.411671 0.9010 0.9010 0.9010 0.9010 0.8980
512.785838 0.8980 0.8970 0.8970 0.8950 0.8950
517.160005 0.8950 0.8950 0.8950 0.8950 0.8950
521.534172 0.8940 0.8940 0.8940 0.8940 0.8940
525.908339 0.8940 0.8940 0.8940 0.8950 0.8950
530.282507 0.8950 0.8970 0.8970 0.8980 0.8980
534.656674 0.8980 0.9000 0.9000 0.9000 0.9010
539.030841 0.9010 0.9010 0.9010 0.9020 0.9020
543.405008 0.9040 0.9050 0.9050 0.9060 0.9060
547.779175 0.9080 0.9080 0.9090 0.9090 0.9090
552.153342 0.9090 0.9100 0.9100 0.9100 0.9090
556.527509 0.9090 0.9090 0.9090 0.9090 0.9090
560.901676 0.9090 0.9090 0.9090 0.9090 0.9100
565.275843 0.9100 0.9100 0.9100 0.9100 0.9100
569.650010 0.9100 0.9100 0.9100 0.9100 0.9120
574.024178 0.9120 0.9120 0.9130 0.9130 0.9150
578.398345 0.9160 0.9170 0.9190 0.9200 0.9200
582.772512 0.9210 0.9210 0.9230 0.9240 0.9240
587.146679 0.9240 0.9260 0.9260 0.9260 0.9270
591.520846 0.9270 0.9280 0.9280 0.9280 0.9280
595.895013 0.9280 0.9280 0.9280 0.9280 0.9280
600.269180 0.9270 0.9270 0.9280 0.9280 0.9280
604.643347 0.9280 0.9280 0.9300 0.9300 0.9300
609.017514 0.9280 0.9280 0.9280 0.9280 0.9300
613.391681 0.9300 0.9310 0.9320 0.9320 0.9340
617.765849 0.9340 0.9340 0.9340 0.9350 0.9360
622.140016 0.9360 0.9380 0.9390 0.9380 0.9390
626.514183 0.9390 0.9410 0.9410 0.9410 0.9420
630.888350 0.9420 0.9430 0.9430 0.9430 0.9430
635.262517 0.9450 0.9450 0.9450 0.9450 0.9460
639.636684 0.9470 0.9470 0.9490 0.9490 0.9500
644.010851 0.9500 0.9500 0.9500 0.9500 0.9500
648.385018 0.9520 0.9530 0.9530 0.9530 0.9540
652.759185 0.9530 0.9530 0.9530 0.9530 0.9540
657.133352 0.9540 0.9540 0.9540 0.9540 0.9560
661.507520 0.9560 0.9560 0.9560 0.9560 0.9560
665.881687 0.9570 0.9570 0.9570 0.9570 0.9570
670.255854 0.9570 0.9570 0.9570 0.9570 0.9570
674.630021 0.9580 0.9580 0.9580 0.9580 0.9580
679.004188 0.9580 0.9580 0.9570 0.9570 0.9570
683.378355 0.9570 0.9570 0.9570 0.9570 0.9580
687.752522 0.9580 0.9580 0.9600 0.9610 0.9630
692.126689 0.9630 0.9640 0.9640 0.9650 0.9650
696.500856 0.9650 0.9650 0.9650 0.9650 0.9650
700.875023 0.9640 0.9640 0.9640 0.9640 0.9630
705.249191 0.9630 0.9630 0.9630 0.9630 0.9630
709.623358 0.9630 0.9640 0.9640 0.9640 0.9640
713.997525 0.9650 0.9670 0.9670 0.9680 0.9680
718.371692 0.9690 0.9710 0.9720 0.9720 0.9720
722.745859 0.9730 0.9730 0.9730 0.9750 0.9750
727.120026 0.9750 0.9760 0.9760 0.9780 0.9790
731.494193 0.9790 0.9800 0.9800 0.9800 0.9800
735.868360 0.9800 0.9800 0.9800 0.9800 0.9800
740.242527 0.9790 0.9790 0.9780 0.9780 0.9790
744.616694 0.9790 0.9800 0.9820 0.9820 0.9830
748.990862 0.9830 0.9830 0.9840 0.9840 0.9840
753.365029 0.9840 0.9830 0.9830 0.9830 0.9830
757.739196 0.9820 0.9800 0.9800 0.9790 0.9790
762.113363 0.9790 0.9790 0.9780 0.9780 0.9750
766.487530 0.9720 0.9710 0.9710 0.9680 0.9650
770.861697 0.9640 0.9610 0.9600 0.9570 0.9560
775.235864 0.9540 0.9470 0.9450 0.9420 0.9360
779.610031 0.9320 0.9260 0.9170 0.9120 0.9050
783.984198 0.8970 0.8910 0.8800 0.8730 0.8710
788.358366 0.8630 0.8460 0.8340 0.8230 0.8120
792.732533 0.7970 0.7801 0.7690 0.7491 0.7420
797.106700 0.7270 0.6980 0.6950 0.6640 0.6460
801.480867 0.6260 0.6150 0.5911 0.5641 0.5461
805.855034 0.5160 0.5050 0.4950 0.4820 0.4381
810.229201 0.4081 0.3940 0.3890 0.3761 0.3541
814.603368 0.3310 0.3060 0.2790 0.2630 0.2570
818.977535 0.2321 0.2011 0.1910 0.1820 0.1651
823.351702 0.1560 0.1430 0.1310 0.1230 0.1150
827.725869 0.1120 0.1010 0.0970 0.0910 0.0870
832.100037 0.0860 0.0820 0.0790 0.0780 0.0780
836.474204 0.0760 0.0760 0.0750 0.0750 0.0750
840.848371 0.0760 0.0780 0.0790 0.0800 0.0820
845.222538 0.0830 0.0870 0.0930 0.0950 0.0980
849.596705 0.0980 0.0910 0.0780 0.0750 0.1080
853.970872 0.1080 0.1010 0.0930 0.0830 0.0681
858.345039 0.0600 0.0500 0.0410 0.0360 0.0300
862.719206 0.0270 0.0260 0.0260 0.0260 0.0270
867.093373 0.0310 0.0340 0.0270 0.0270 0.0310
871.467540 0.0450 0.0520 0.1885 0.2298 0.2688
875.841708 0.2820 0.2760 0.2570 0.2310 0.1931
880.215875 0.1561 0.1301 0.1200 0.1041 0.0970
884.590042 0.0890 0.0830 0.0790 0.0730 0.0690
888.964209 0.0690 0.0650 0.0640 0.0560 0.0520
893.338376 0.0520 0.0520 0.0520 0.0520 0.0530
897.712543 0.0540 0.0560 0.0570 0.0600 0.0610
902.086710 0.0630 0.0630 0.0670 0.0680 0.0710
906.460877 0.0730 0.0780 0.0820 0.0999 0.1189
910.835044 0.1230 0.1310 0.1450 0.1580 0.1680
915.209211 0.1890 0.2010 0.2160 0.2270 0.2469
919.583379 0.2670 0.2930 0.3230 0.3410 0.3650
923.957546 0.3899 0.4060 0.4259 0.4429 0.4709
928.331713 0.4890 0.5190 0.5570 0.6100 0.6170
932.705880 0.6390 0.6599 0.6779 0.6939 0.7318
937.080047 0.7500 0.7680 0.7930 0.8280 0.8430
941.454214 0.8560 0.8640 0.8730 0.8840 0.8930
945.828381 0.8950 0.9040 0.9130 0.9190 0.9270
950.202548 0.9340 0.9380 0.9450 0.9460 0.9490
954.576715 0.9540 0.9560 0.9580 0.9580 0.9600
958.950882 0.9600 0.9600 0.9580 0.9580 0.9570
963.325050 0.9560 0.9520 0.9470 0.9430 0.9380
967.699217 0.9320 0.9300 0.9170 0.9080 0.8931
972.073384 0.8860 0.8760 0.8560 0.8450 0.8260
976.447551 0.8041 0.7841 0.7641 0.7540 0.7003
980.821718 0.6420 0.6190 0.5670 0.5500 0.5260
985.195885 0.4901 0.4471 0.4191 0.3831 0.3651
989.570052 0.2949 0.2360 0.2200 0.2160 0.1910
993.944219 0.1750 0.1521 0.1321 0.1230 0.1200
998.318386 0.1080 0.1000 0.0950 0.0910 0.0860
1002.692553 0.0800 0.0780 0.0780 0.0760 0.0760
1007.066721 0.0780 0.0780 0.0790 0.0820 0.0860
1011.440888 0.0930 0.1000 0.1010 0.1010 0.1010
1015.815055 0.1000 0.1000 0.0980 0.0980 0.0950
1020.189222 0.0900 0.0790 0.0610 0.0411 0.0410
1024.563389 0.0490 0.0520 0.0520 0.0540 0.0560
1028.937556 0.0570 0.0640 0.0710 0.1019 0.1090
1033.311723 0.1230 0.1310 0.1350 0.1340 0.1310
1037.685890 0.1280 0.1200 0.1090 0.1040 0.0970
1042.060057 0.0890 0.0790 0.0730 0.0730 0.0720
1046.434225 0.0720 0.0720 0.0710 0.0710 0.0710
1050.808392 0.0730 0.0760 0.0790 0.0830 0.1000
1055.182559 0.1090 0.1150 0.1310 0.1450 0.1520
1059.556726 0.1820 0.2260 0.2380 0.2520 0.2750
1063.930893 0.3019 0.3559 0.3939 0.4099 0.4389
1068.305060 0.4710 0.4930 0.5650 0.5970 0.6410
1072.679227 0.6640 0.6830 0.7189 0.7459 0.7779
1077.053394 0.7970 0.8160 0.8350 0.8610 0.8730
1081.427561 0.8940 0.8980 0.9040 0.9130 0.9170
1085.801728 0.9260 0.9340 0.9360 0.9430 0.9470
1090.175896 0.9520 0.9560 0.9600 0.9600 0.9630
1094.550063 0.9650 0.9670 0.9680 0.9710 0.9730
1098.924230 0.9730 0.9750 0.9790 0.9820 0.9830
1103.298397 0.9840 0.9870 0.9900 0.9930 0.9950
1107.672564 1.0000 1.0000 1.0000 1.0000 1.0000
1112.046731 1.0000 0.9980 0.9980 0.9980 0.9970
1116.420898 0.9950 0.9940 0.9940 0.9900 0.9890
1120.795065 0.9860 0.9830 0.9820 0.9800 0.9820
1125.169232 0.9820 0.9840 0.9840 0.9840 0.9830
1129.543399 0.9820 0.9820 0.9800 0.9790 0.9790
1133.917567 0.9780 0.9780 0.9780 0.9760 0.9750
1138.291734 0.9750 0.9730 0.9720 0.9710 0.9710
1142.665901 0.9690 0.9690 0.9680 0.9670 0.9670
1147.040068 0.9650 0.9650 0.9640 0.9640 0.9650
1151.414235 0.9670 0.9680 0.9680 0.9690 0.9690
1155.788402 0.9710 0.9710 0.9710 0.9710 0.9720
1160.162569 0.9720 0.9720 0.9720 0.9730 0.9730
1164.536736 0.9730 0.9730 0.9730 0.9730 0.9730
1168.910903 0.9750 0.9750 0.9760 0.9760 0.9780
1173.285070 0.9780 0.9780 0.9780 0.9780 0.9780
1177.659238 0.9790 0.9790 0.9780 0.9780 0.9790
1182.033405 0.9790 0.9790 0.9790 0.9790 0.9790
1186.407572 0.9800 0.9800 0.9800 0.9800 0.9790
1190.781739 0.9790 0.9790 0.9790 0.9790 0.9790
1195.155906 0.9790 0.9790 0.9790 0.9790 0.9790
1199.530073 0.9790 0.9790 0.9800 0.9800 0.9800
1203.904240 0.9800 0.9820 0.9820 0.9830 0.9820
1208.278407 0.9830 0.9830 0.9830 0.9830 0.9860
1212.652574 0.9860 0.9860 0.9860 0.9860 0.9860
1217.026741 0.9860 0.9860 0.9860 0.9860 0.9860
1221.400909 0.9860 0.9860 0.9860 0.9860 0.9870
1225.775076 0.9870 0.9870 0.9870 0.9870 0.9870
1230.149243 0.9870 0.9870 0.9870 0.9870 0.9870
1234.523410 0.9870 0.9860 0.9840 0.9840 0.9830
1238.897577 0.9820 0.9820 0.9820 0.9800 0.9800
1243.271744 0.9800 0.9800 0.9800 0.9790 0.9790
1247.645911 0.9780 0.9780 0.9780 0.9780 0.9780
1252.020078 0.9780 0.9780 0.9760 0.9760 0.9750
1256.394245 0.9750 0.9750 0.9730 0.9730 0.9730
1260.768412 0.9730 0.9730 0.9730 0.9720 0.9710
1265.142580 0.9690 0.9680 0.9650 0.9640 0.9630
1269.516747 0.9630 0.9610 0.9610 0.9610 0.9610
1273.890914 0.9610 0.9600 0.9600 0.9580 0.9580
1278.265081 0.9580 0.9580 0.9580 0.9580 0.9580
1282.639248 0.9580 0.9580 0.9600 0.9610 0.9610
1287.013415 0.9630 0.9630 0.9630 0.9630 0.9630
1291.387582 0.9630 0.9630 0.9630 0.9630 0.9630
1295.761749 0.9630 0.9610 0.9610 0.9610 0.9600
1300.135916 0.9600 0.9600 0.9600 0.9610 0.9610
1304.510083 0.9610 0.9610 0.9610 0.9610 0.9610
1308.884251 0.9610 0.9610 0.9610 0.9610 0.9610
1313.258418 0.9630 0.9610 0.9610 0.9630 0.9630
1317.632585 0.9630 0.9630 0.9630 0.9630 0.9630
1322.006752 0.9630 0.9630 0.9630 0.9630 0.9610
1326.380919 0.9600 0.9580 0.9580 0.9580 0.9600
1330.755086 0.9610 0.9610 0.9630 0.9630 0.9630
1335.129253 0.9610 0.9610 0.9610 0.9610 0.9630
1339.503420 0.9630 0.9630 0.9630 0.9630 0.9630
1343.877587 0.9630 0.9630 0.9630 0.9630 0.9630
1348.251755 0.9610 0.9610 0.9600 0.9600 0.9580
1352.625922 0.9580 0.9580 0.9580 0.9580 0.9570
1357.000089 0.9570 0.9570 0.9570 0.9570 0.9570
1361.374256 0.9580 0.9580 0.9580 0.9580 0.9580
1365.748423 0.9580 0.9580 0.9580 0.9580 0.9580
1370.122590 0.9580 0.9580 0.9580 0.9580 0.9580
1374.496757 0.9600 0.9600 0.9610 0.9630 0.9640
1378.870924 0.9640 0.9650 0.9670 0.9680 0.9680
1383.245091 0.9670 0.9640 0.9630 0.9580 0.9560
1387.619258 0.9490 0.9460 0.9450 0.9380 0.9340
1391.993426 0.9270 0.9210 0.9170 0.9130 0.9090
1396.367593 0.9020 0.8950 0.8930 0.8910 0.8790
1400.741760 0.8650 0.8540 0.8390 0.8340 0.8170
1405.115927 0.8080 0.7970 0.7800 0.7680 0.7521
1409.490094 0.7430 0.7240 0.7090 0.6930 0.6840
1413.864261 0.6780 0.6680 0.6640 0.6630 0.6610
1418.238428 0.6610 0.6630 0.6650 0.6690 0.6760
1422.612595 0.6830 0.6930 0.6940 0.7040 0.7120
1426.986762 0.7190 0.7260 0.7280 0.7280 0.7280
1431.360929 0.7260 0.7230 0.7160 0.7090 0.6970
1435.735097 0.6910 0.6890 0.6780 0.6500 0.5911
1440.109264 0.5890 0.6299 0.6709 0.6730 0.6820
1444.483431 0.6890 0.6970 0.7010 0.7020 0.7040
1448.857598 0.7040 0.7050 0.7060 0.7060 0.7080
1453.231765 0.7080 0.7080 0.7090 0.7090 0.7090
1457.605932 0.7130 0.7260 0.7430 0.7600 0.7690
1461.980099 0.7980 0.8020 0.8130 0.8190 0.8320
1466.354266 0.8360 0.8470 0.8490 0.8490 0.8500
1470.728433 0.8500 0.8530 0.8540 0.8600 0.8650
1475.102600 0.8720 0.8760 0.8820 0.8930 0.8940
1479.476768 0.9000 0.9050 0.9130 0.9230 0.9230
1483.850935 0.9260 0.9300 0.9340 0.9350 0.9360
1488.225102 0.9410 0.9420 0.9430 0.9450 0.9470
1492.599269 0.9490 0.9500 0.9520 0.9530 0.9540
1496.973436 0.9540 0.9560 0.9570 0.9580 0.9580
1501.347603 0.9600 0.9600 0.9580 0.9580 0.9570
1505.721770 0.9570 0.9570 0.9570 0.9580 0.9600
1510.095937 0.9600 0.9610 0.9630 0.9640 0.9640
1514.470104 0.9640 0.9630 0.9630 0.9630 0.9630
1518.844271 0.9630 0.9610 0.9600 0.9600 0.9610
1523.218439 0.9610 0.9630 0.9610 0.9610 0.9610
1527.592606 0.9630 0.9630 0.9630 0.9630 0.9630
1531.966773 0.9630 0.9630 0.9630 0.9610 0.9610
1536.340940 0.9600 0.9600 0.9580 0.9580 0.9570
1540.715107 0.9570 0.9580 0.9580 0.9580 0.9580
1545.089274 0.9580 0.9580 0.9580 0.9580 0.9580
1549.463441 0.9580 0.9580 0.9580 0.9570 0.9570
1553.837608 0.9570 0.9570 0.9570 0.9560 0.9560
1558.211775 0.9560 0.9560 0.9560 0.9560 0.9560
1562.585942 0.9560 0.9570 0.9570 0.9570 0.9570
1566.960110 0.9570 0.9560 0.9560 0.9560 0.9560
1571.334277 0.9560 0.9560 0.9560 0.9560 0.9560
1575.708444 0.9560 0.9560 0.9560 0.9560 0.9560
1580.082611 0.9560 0.9570 0.9570 0.9560 0.9560
1584.456778 0.9560 0.9560 0.9560 0.9560 0.9540
1588.830945 0.9540 0.9540 0.9540 0.9530 0.9530
1593.205112 0.9530 0.9500 0.9470 0.9310 0.9270
1597.579279 0.9310 0.9410 0.9420 0.9520 0.9560
1601.953446 0.9560 0.9540 0.9530 0.9530 0.9530
1606.327613 0.9530 0.9520 0.9520 0.9520 0.9520
1610.701781 0.9520 0.9520 0.9520 0.9520 0.9520
1615.075948 0.9500 0.9490 0.9490 0.9470 0.9470
1619.450115 0.9470 0.9470 0.9470 0.9460 0.9450
1623.824282 0.9430 0.9430 0.9420 0.9410 0.9410
1628.198449 0.9390 0.9380 0.9350 0.9320 0.9310
1632.572616 0.9300 0.9300 0.9300 0.9300 0.9300
1636.946783 0.9310 0.9340 0.9340 0.9350 0.9360
1641.320950 0.9360 0.9390 0.9390 0.9390 0.9420
1645.695117 0.9430 0.9450 0.9450 0.9460 0.9460
1650.069285 0.9460 0.9450 0.9450 0.9430 0.9430
1654.443452 0.9450 0.9460 0.9470 0.9490 0.9490
1658.817619 0.9490 0.9490 0.9490 0.9460 0.9460
1663.191786 0.9460 0.9460 0.9460 0.9460 0.9460
1667.565953 0.9460 0.9460 0.9460 0.9460 0.9460
1671.940120 0.9460 0.9470 0.9470 0.9460 0.9460
1676.314287 0.9470 0.9470 0.9470 0.9470 0.9470
1680.688454 0.9460 0.9450 0.9430 0.9420 0.9420
1685.062621 0.9420 0.9420 0.9420 0.9410 0.9390
1689.436788 0.9380 0.9350 0.9350 0.9340 0.9340
1693.810956 0.9310 0.9280 0.9240 0.9230 0.9210
1698.185123 0.9190 0.9160 0.9150 0.9120 0.9060
1702.559290 0.9040 0.9040 0.9010 0.8970 0.8930
1706.933457 0.8910 0.8870 0.8830 0.8800 0.8790
1711.307624 0.8710 0.8650 0.8600 0.8540 0.8500
1715.681791 0.8450 0.8380 0.8340 0.8310 0.8240
1720.055958 0.8240 0.8160 0.8130 0.8060 0.8010
1724.430125 0.7950 0.7940 0.7860 0.7830 0.7780
1728.804292 0.7760 0.7750 0.7690 0.7650 0.7610
1733.178459 0.7580 0.7570 0.7540 0.7530 0.7530
1737.552627 0.7530 0.7530 0.7530 0.7530 0.7520
1741.926794 0.7520 0.7520 0.7530 0.7540 0.7540
1746.300961 0.7560 0.7570 0.7570 0.7580 0.7580
1750.675128 0.7580 0.7580 0.7600 0.7600 0.7600
1755.049295 0.7610 0.7640 0.7680 0.7710 0.7750
1759.423462 0.7800 0.7870 0.7970 0.8150 0.8260
1763.797629 0.8350 0.8520 0.8650 0.8930 0.9060
1768.171796 0.9060 0.9010 0.8940 0.8710 0.8500
1772.545963 0.8340 0.8190 0.8130 0.8050 0.7831
1776.920130 0.7760 0.7720 0.7720 0.7730 0.7750
1781.294298 0.7760 0.7800 0.7840 0.7940 0.7970
1785.668465 0.8020 0.8080 0.8150 0.8210 0.8270
1790.042632 0.8310 0.8350 0.8390 0.8500 0.8520
1794.416799 0.8530 0.8570 0.8610 0.8640 0.8670
1798.790966 0.8710 0.8720 0.8750 0.8780 0.8820
1803.165133 0.8860 0.8860 0.8910 0.8910 0.8930
1807.539300 0.8950 0.8980 0.9000 0.9010 0.9020
1811.913467 0.9050 0.9080 0.9080 0.9080 0.9090
1816.287634 0.9100 0.9100 0.9100 0.9120 0.9120
1820.661801 0.9120 0.9120 0.9120 0.9120 0.9120
1825.035969 0.9120 0.9100 0.9100 0.9120 0.9100
1829.410136 0.9100 0.9100 0.9100 0.9100 0.9090
1833.784303 0.9090 0.9080 0.9080 0.9060 0.9060
1838.158470 0.9060 0.9060 0.9060 0.9050 0.9050
1842.532637 0.9050 0.9050 0.9050 0.9050 0.9050
1846.906804 0.9050 0.9050 0.9040 0.9040 0.9020
1851.280971 0.9010 0.8980 0.8970 0.8940 0.8930
1855.655138 0.8910 0.8830 0.8760 0.8690 0.8530
1860.029305 0.8450 0.8210 0.8020 0.7721 0.7540
1864.403472 0.7349 0.7060 0.7061 0.7630 0.7630
1868.777640 0.7610 0.7600 0.7580 0.7470 0.7380
1873.151807 0.7280 0.7240 0.7150 0.7080 0.6800
1877.525974 0.6610 0.6520 0.6450 0.6200 0.6020
1881.900141 0.5800 0.5690 0.5600 0.5410 0.5300
1886.274308 0.5200 0.5040 0.4870 0.4830 0.4650
1890.648475 0.4309 0.4080 0.3900 0.3790 0.3680
1895.022642 0.3680 0.3760 0.4170 0.4380 0.4570
1899.396809 0.4800 0.4951 0.5191 0.5460 0.5680
1903.770976 0.5750 0.5910 0.6080 0.6190 0.6340
1908.145143 0.6500 0.6680 0.6780 0.6930 0.7060
1912.519311 0.7270 0.7410 0.7470 0.7580 0.7670
1916.893478 0.7750 0.7790 0.7870 0.7900 0.7970
1921.267645 0.8240 0.8580 0.8720 0.8730 0.8760
1925.641812 0.8780 0.8790 0.8800 0.8820 0.8820
1930.015979 0.8830 0.8830 0.8710 0.8311 0.8320
1934.390146 0.8580 0.8630 0.8681 0.9130 0.9240
1938.764313 0.9320 0.9320 0.9340 0.9340 0.9340
1943.138480 0.9340 0.9340 0.9340 0.9340 0.9340
1947.512647 0.9340 0.9320 0.9320 0.9320 0.9320
1951.886815 0.9320 0.9320 0.9320 0.9320 0.9340
1956.260982 0.9340 0.9350 0.9360 0.9380 0.9380
1960.635149 0.9390 0.9350 0.9350 0.9350 0.9350
1965.009316 0.9350 0.9350 0.9350 0.9360 0.9380
1969.383483 0.9390 0.9410 0.9410 0.9410 0.9420
1973.757650 0.9430 0.9430 0.9450 0.9460 0.9460
1978.131817 0.9470 0.9470 0.9490 0.9490 0.9500
1982.505984 0.9500 0.9500 0.9520 0.9520 0.9520
1986.880151 0.9520 0.9530 0.9530 0.9540 0.9540
1991.254318 0.9540 0.9540 0.9540 0.9540 0.9540
1995.628486 0.9540 0.9540 0.9540 0.9540 0.9540
2000.002653 0.9540 0.9540 0.9540 0.9540 0.9540
2004.376820 0.9540 0.9540 0.9540 0.9540 0.9535
2008.750987 0.9530 0.9525 0.9520 0.9505 0.9490
2013.125154 0.9475 0.9460 0.9455 0.9450 0.9429
2017.499321 0.9409 0.9384 0.9360 0.9355 0.9348
2021.873488 0.9308 0.9269 0.9239 0.9209 0.9184
2026.247655 0.9159 0.9139 0.9118 0.9083 0.9048
2030.621822 0.9013 0.8976 0.8901 0.8827 0.8777
2034.995989 0.8729 0.8709 0.8688 0.8663 0.8637
2039.370157 0.8597 0.8554 0.8469 0.8383 0.8288
2043.744324 0.8177 0.7876 0.7599 0.7584 0.7588
2048.118491 0.7813 0.8017 0.7977 0.7936 0.7885
2052.492658 0.7829 0.7724 0.7626 0.7591 0.7553
2056.866825 0.7482 0.7407 0.7281 0.7161 0.7081
2061.240992 0.7004 0.6954 0.6900 0.6810 0.6724
2065.615159 0.6674 0.6625 0.6580 0.6535 0.6489
2069.989326 0.6444 0.6399 0.6359 0.6354 0.6351
2074.363493 0.6356 0.6361 0.6371 0.6385 0.6420
2078.737660 0.6455 0.6490 0.6524 0.6554 0.6593
2083.111828 0.6683 0.6771 0.6846 0.6910 0.6910
2087.485995 0.6901 0.6846 0.6785 0.6700 0.6611
2091.860162 0.6501 0.6355 0.6039 0.5715 0.5350
2096.234329 0.4985 0.4620 0.4320 0.4320 0.4409
2100.608496 0.4899 0.5390 0.5880 0.6371 0.6866
2104.982663 0.7262 0.7272 0.7280 0.7280 0.7272
2109.356830 0.7232 0.7179 0.7079 0.6963 0.6788
2113.730997 0.6648 0.6638 0.6639 0.6679 0.6718
2118.105164 0.6753 0.6789 0.6829 0.6884 0.6995
2122.479331 0.7112 0.7247 0.7406 0.7642 0.7831
2126.853499 0.7876 0.7926 0.7991 0.8079 0.8239
2131.227666 0.8385 0.8485 0.8583 0.8679 0.8765
2135.601833 0.8825 0.8877 0.8908 0.8936 0.8962
2139.976000 0.8991 0.9031 0.9068 0.9098 0.9117
2144.350167 0.9107 0.9097 0.9087 0.9076 0.9061
2148.724334 0.9046 0.9031 0.9017 0.9007 0.8990
2153.098501 0.8955 0.8924 0.8904 0.8883 0.8858
2157.472668 0.8834 0.8814 0.8794 0.8774 0.8749
2161.846835 0.8714 0.8684 0.8664 0.8653 0.8663
2166.221002 0.8676 0.8696 0.8716 0.8736 0.8752
2170.595170 0.8757 0.8776 0.8826 0.8875 0.8920
2174.969337 0.8974 0.9044 0.9104 0.9144 0.9187
2179.343504 0.9237 0.9270 0.9270 0.9253 0.9203
2183.717671 0.9125 0.8995 0.8877 0.8782 0.8692
2188.091838 0.8612 0.8518 0.8398 0.8145 0.7651
2192.466005 0.7312 0.7237 0.7394 0.7939 0.8361
2196.840172 0.8576 0.8712 0.8717 0.8722 0.8727
2201.214339 0.8730 0.8730 0.8740 0.8765 0.8782
2205.588506 0.8787 0.8790 0.8790 0.8792 0.8797
2209.962674 0.8804 0.8814 0.8824 0.8834 0.8860
2214.336841 0.8911 0.8952 0.8982 0.9010 0.9035
2218.711008 0.9058 0.9078 0.9090 0.9090 0.9084
2223.085175 0.9069 0.9033 0.8968 0.8926 0.8916
2227.459342 0.8914 0.8924 0.8939 0.8959 0.8981
2231.833509 0.9006 0.9033 0.9063 0.9096 0.9131
2236.207676 0.9152 0.9157 0.9162 0.9167 0.9177
