##TITLE=Formamide
##JCAMP-DX=4.24
$$ By DXEDIT 1.05 (RS McDonald)
##DATA TYPE=INFRARED SPECTRUM
##CLASS=COBLENTZ II
##ORIGIN=DOW CHEMICAL COMPANY
##OWNER=COBLENTZ SOC.
Collection (C) 2018 copyright by the U.S. Secretary of Commerce
on behalf of the United States of America. All rights reserved.
##DATE=1968/07/24
##CAS REGISTRY NO=75-12-7
##MOLFORM=C H3 N O
##SOURCE REFERENCE=COBLENTZ NO. 05670
##$NIST SOURCE=COBLENTZ
##$NIST IMAGE=cob5670
##SPECTROMETER/DATA SYSTEM=BECKMAN IR-9 (GRATING)
##INSTRUMENT PARAMETERS=ORDER CHANGES: 670, 1200, 2000 CM^-^1
##STATE=LIQUID (NEAT)
##PATH LENGTH=FILM BETWEEN KBr PLATES
##SAMPLING PROCEDURE=TRANSMISSION
##RESOLUTION=2
##DATA PROCESSING=DIGITIZED BY COBLENTZ SOCIETY (BATCH I) FROM HARD COPY
##XUNITS=1/CM
##YUNITS=TRANSMITTANCE
##XLABEL=Wavenumbers (cm-1)
##YLABEL=% Transmission
##XFACTOR=1
##YFACTOR=1
##DELTAX=1
##FIRSTX=3820
##LASTX=402
##FIRSTY=0.8232
##MAXX=3820
##MINX=402
##MAXY=0.8594
##MINY=0.0516
##NPOINTS=3419
##XYDATA=(X++(Y..Y))
3820.000000 0.8232 0.8232 0.8232 0.8231 0.8231
3815.000000 0.8231 0.8231 0.8231 0.8231 0.8231
3810.000000 0.8231 0.8231 0.8231 0.8231 0.8231
3805.000000 0.8231 0.8231 0.8231 0.8231 0.8231
3800.000000 0.8231 0.8231 0.8231 0.8230 0.8230
3795.000000 0.8230 0.8230 0.8228 0.8228 0.8228
3790.000000 0.8228 0.8228 0.8228 0.8228 0.8228
3785.000000 0.8227 0.8227 0.8227 0.8227 0.8225
3780.000000 0.8225 0.8225 0.8224 0.8221 0.8221
3775.000000 0.8218 0.8218 0.8216 0.8215 0.8213
3770.000000 0.8212 0.8210 0.8209 0.8207 0.8206
3765.000000 0.8205 0.8204 0.8202 0.8201 0.8200
3760.000000 0.8199 0.8197 0.8196 0.8194 0.8193
3755.000000 0.8192 0.8199 0.8189 0.8188 0.8187
3750.000000 0.8186 0.8184 0.8183 0.8181 0.8180
3745.000000 0.8176 0.8175 0.8171 0.8169 0.8167
3740.000000 0.8164 0.8161 0.8158 0.8156 0.8154
3735.000000 0.8151 0.8149 0.8146 0.8143 0.8140
3730.000000 0.8138 0.8135 0.8132 0.8128 0.8125
3725.000000 0.8122 0.8119 0.8114 0.8108 0.8101
3720.000000 0.8093 0.8085 0.8078 0.8069 0.8061
3715.000000 0.8054 0.8046 0.8033 0.8019 0.8005
3710.000000 0.7991 0.7976 0.7962 0.7949 0.7935
3705.000000 0.7918 0.7901 0.7884 0.7868 0.7851
3700.000000 0.7835 0.7815 0.7795 0.7771 0.7747
3695.000000 0.7722 0.7699 0.7675 0.7651 0.7625
3690.000000 0.7601 0.7578 0.7555 0.7536 0.7518
3685.000000 0.7500 0.7482 0.7464 0.7446 0.7426
3680.000000 0.7408 0.7391 0.7372 0.7355 0.7337
3675.000000 0.7318 0.7299 0.7274 0.7250 0.7225
3670.000000 0.7201 0.7176 0.7153 0.7128 0.7104
3665.000000 0.7078 0.7055 0.7030 0.7006 0.6980
3660.000000 0.6954 0.6925 0.6898 0.6869 0.6843
3655.000000 0.6815 0.6787 0.6758 0.6732 0.6704
3650.000000 0.6675 0.6647 0.6618 0.6583 0.6548
3645.000000 0.6511 0.6476 0.6442 0.6407 0.6371
3640.000000 0.6336 0.6303 0.6270 0.6238 0.6206
3635.000000 0.6174 0.6143 0.6110 0.6079 0.6047
3630.000000 0.6016 0.5984 0.5952 0.5920 0.5889
3625.000000 0.5857 0.5826 0.5794 0.5762 0.5730
3620.000000 0.5699 0.5667 0.5636 0.5608 0.5580
3615.000000 0.5556 0.5533 0.5509 0.5486 0.5462
3610.000000 0.5439 0.5415 0.5392 0.5368 0.5345
3605.000000 0.5322 0.5299 0.5277 0.5255 0.5233
3600.000000 0.5210 0.5189 0.5167 0.5144 0.5122
3595.000000 0.5100 0.5078 0.5056 0.5034 0.5012
3590.000000 0.4990 0.4962 0.4935 0.4905 0.4875
3585.000000 0.4845 0.4815 0.4785 0.4756 0.4726
3580.000000 0.4697 0.4672 0.4647 0.4621 0.4596
3575.000000 0.4571 0.4546 0.4520 0.4495 0.4470
3570.000000 0.4445 0.4422 0.4400 0.4378 0.4356
3565.000000 0.4334 0.4312 0.4283 0.4255 0.4226
3560.000000 0.4198 0.4179 0.4160 0.4144 0.4127
3555.000000 0.4109 0.4092 0.4074 0.4057 0.4039
3550.000000 0.4022 0.4004 0.3987 0.3966 0.3945
3545.000000 0.3923 0.3900 0.3879 0.3857 0.3834
3540.000000 0.3812 0.3791 0.3768 0.3747 0.3726
3535.000000 0.3693 0.3659 0.3625 0.3591 0.3557
3530.000000 0.3523 0.3488 0.3454 0.3400 0.3348
3525.000000 0.3291 0.3234 0.3180 0.3126 0.3072
3520.000000 0.3018 0.2987 0.2956 0.2928 0.2900
3515.000000 0.2871 0.2843 0.2815 0.2787 0.2753
3510.000000 0.2720 0.2676 0.2633 0.2589 0.2545
3505.000000 0.2501 0.2458 0.2413 0.2368 0.2322
3500.000000 0.2277 0.2235 0.2195 0.2161 0.2128
3495.000000 0.2095 0.2062 0.2034 0.2008 0.1981
3490.000000 0.1954 0.1929 0.1906 0.1886 0.1868
3485.000000 0.1849 0.1831 0.1812 0.1793 0.1765
3480.000000 0.1737 0.1722 0.1706 0.1691 0.1677
3475.000000 0.1666 0.1656 0.1644 0.1634 0.1623
3470.000000 0.1613 0.1604 0.1595 0.1587 0.1579
3465.000000 0.1571 0.1563 0.1555 0.1546 0.1539
3460.000000 0.1531 0.1523 0.1515 0.1509 0.1504
3455.000000 0.1501 0.1498 0.1495 0.1492 0.1489
3450.000000 0.1486 0.1483 0.1481 0.1480 0.1480
3445.000000 0.1479 0.1478 0.1477 0.1476 0.1475
3440.000000 0.1474 0.1473 0.1473 0.1472 0.1471
3435.000000 0.1470 0.1469 0.1468 0.1468 0.1467
3430.000000 0.1466 0.1465 0.1465 0.1464 0.1463
3425.000000 0.1462 0.1462 0.1461 0.1461 0.1460
3420.000000 0.1459 0.1458 0.1458 0.1457 0.1457
3415.000000 0.1456 0.1455 0.1454 0.1454 0.1453
3410.000000 0.1453 0.1452 0.1451 0.1450 0.1450
3405.000000 0.1449 0.1449 0.1448 0.1446 0.1446
3400.000000 0.1446 0.1446 0.1446 0.1446 0.1448
3395.000000 0.1448 0.1448 0.1448 0.1449 0.1449
3390.000000 0.1449 0.1449 0.1450 0.1450 0.1450
3385.000000 0.1450 0.1451 0.1451 0.1451 0.1451
3380.000000 0.1452 0.1452 0.1452 0.1452 0.1452
3375.000000 0.1452 0.1452 0.1452 0.1452 0.1452
3370.000000 0.1452 0.1452 0.1452 0.1452 0.1452
3365.000000 0.1452 0.1452 0.1452 0.1452 0.1452
3360.000000 0.1452 0.1451 0.1451 0.1451 0.1451
3355.000000 0.1451 0.1451 0.1451 0.1451 0.1450
3350.000000 0.1450 0.1450 0.1450 0.1449 0.1449
3345.000000 0.1449 0.1449 0.1448 0.1448 0.1448
3340.000000 0.1448 0.1446 0.1446 0.1446 0.1446
3335.000000 0.1446 0.1448 0.1449 0.1450 0.1451
3330.000000 0.1452 0.1452 0.1453 0.1454 0.1455
3325.000000 0.1457 0.1460 0.1467 0.1474 0.1480
3320.000000 0.1487 0.1494 0.1501 0.1507 0.1514
3315.000000 0.1521 0.1528 0.1535 0.1542 0.1548
3310.000000 0.1555 0.1562 0.1569 0.1576 0.1583
3305.000000 0.1589 0.1596 0.1603 0.1610 0.1616
3300.000000 0.1623 0.1629 0.1636 0.1640 0.1644
3295.000000 0.1648 0.1652 0.1654 0.1658 0.1658
3290.000000 0.1658 0.1657 0.1657 0.1656 0.1656
3285.000000 0.1654 0.1654 0.1654 0.1654 0.1654
3280.000000 0.1654 0.1652 0.1651 0.1650 0.1649
3275.000000 0.1648 0.1646 0.1644 0.1644 0.1643
3270.000000 0.1642 0.1640 0.1639 0.1639 0.1640
3265.000000 0.1640 0.1641 0.1642 0.1643 0.1643
3260.000000 0.1644 0.1644 0.1646 0.1653 0.1659
3255.000000 0.1665 0.1672 0.1678 0.1684 0.1691
3250.000000 0.1696 0.1703 0.1710 0.1716 0.1723
3245.000000 0.1729 0.1734 0.1739 0.1744 0.1744
3240.000000 0.1745 0.1746 0.1749 0.1750 0.1751
3235.000000 0.1752 0.1754 0.1754 0.1756 0.1757
3230.000000 0.1758 0.1759 0.1761 0.1761 0.1762
3225.000000 0.1763 0.1764 0.1765 0.1766 0.1767
3220.000000 0.1768 0.1768 0.1769 0.1770 0.1771
3215.000000 0.1772 0.1773 0.1773 0.1773 0.1773
3210.000000 0.1773 0.1772 0.1772 0.1772 0.1772
3205.000000 0.1771 0.1771 0.1770 0.1770 0.1770
3200.000000 0.1770 0.1772 0.1774 0.1777 0.1779
3195.000000 0.1783 0.1786 0.1790 0.1793 0.1795
3190.000000 0.1800 0.1803 0.1806 0.1813 0.1821
3185.000000 0.1831 0.1841 0.1851 0.1862 0.1873
3180.000000 0.1884 0.1895 0.1908 0.1920 0.1932
3175.000000 0.1944 0.1956 0.1967 0.1979 0.1995
3170.000000 0.2013 0.2029 0.2046 0.2064 0.2082
3165.000000 0.2099 0.2117 0.2134 0.2151 0.2168
3160.000000 0.2184 0.2201 0.2217 0.2233 0.2250
3155.000000 0.2266 0.2282 0.2298 0.2315 0.2331
3150.000000 0.2347 0.2363 0.2379 0.2395 0.2412
3145.000000 0.2437 0.2462 0.2494 0.2527 0.2559
3140.000000 0.2592 0.2625 0.2658 0.2690 0.2723
3135.000000 0.2755 0.2788 0.2823 0.2859 0.2895
3130.000000 0.2932 0.2968 0.3005 0.3041 0.3078
3125.000000 0.3108 0.3138 0.3160 0.3182 0.3204
3120.000000 0.3226 0.3247 0.3268 0.3291 0.3312
3115.000000 0.3334 0.3356 0.3378 0.3400 0.3421
3110.000000 0.3442 0.3462 0.3484 0.3504 0.3525
3105.000000 0.3546 0.3566 0.3587 0.3608 0.3629
3100.000000 0.3650 0.3670 0.3691 0.3710 0.3730
3095.000000 0.3750 0.3770 0.3790 0.3809 0.3829
3090.000000 0.3849 0.3868 0.3888 0.3908 0.3928
3085.000000 0.3947 0.3966 0.3986 0.4006 0.4026
3080.000000 0.4046 0.4066 0.4086 0.4106 0.4127
3075.000000 0.4147 0.4168 0.4188 0.4209 0.4229
3070.000000 0.4249 0.4269 0.4290 0.4310 0.4331
3065.000000 0.4351 0.4372 0.4392 0.4412 0.4432
3060.000000 0.4453 0.4474 0.4495 0.4516 0.4537
3055.000000 0.4558 0.4579 0.4600 0.4622 0.4643
3050.000000 0.4664 0.4685 0.4706 0.4727 0.4748
3045.000000 0.4769 0.4790 0.4809 0.4828 0.4845
3040.000000 0.4862 0.4879 0.4897 0.4914 0.4931
3035.000000 0.4948 0.4965 0.4982 0.4999 0.5016
3030.000000 0.5034 0.5051 0.5068 0.5087 0.5107
3025.000000 0.5128 0.5150 0.5171 0.5192 0.5212
3020.000000 0.5235 0.5256 0.5278 0.5297 0.5317
3015.000000 0.5334 0.5351 0.5368 0.5386 0.5403
3010.000000 0.5421 0.5438 0.5456 0.5471 0.5486
3005.000000 0.5500 0.5514 0.5528 0.5543 0.5557
3000.000000 0.5572 0.5586 0.5600 0.5612 0.5627
2995.000000 0.5640 0.5654 0.5667 0.5681 0.5695
2990.000000 0.5709 0.5722 0.5736 0.5749 0.5762
2985.000000 0.5784 0.5806 0.5822 0.5839 0.5853
2980.000000 0.5868 0.5882 0.5896 0.5910 0.5927
2975.000000 0.5941 0.5955 0.5965 0.5975 0.5980
2970.000000 0.5985 0.5986 0.5987 0.5988 0.5980
2965.000000 0.5991 0.5992 0.5993 0.5994 0.5991
2960.000000 0.5989 0.5986 0.5984 0.5979 0.5975
2955.000000 0.5970 0.5965 0.5959 0.5954 0.5946
2950.000000 0.5938 0.5926 0.5914 0.5902 0.5890
2945.000000 0.5877 0.5865 0.5847 0.5830 0.5805
2940.000000 0.5780 0.5755 0.5731 0.5691 0.5651
2935.000000 0.5603 0.5556 0.5514 0.5472 0.5414
2930.000000 0.5357 0.5276 0.5195 0.5097 0.5000
2925.000000 0.4908 0.4817 0.4751 0.4685 0.4619
2920.000000 0.4554 0.4488 0.4422 0.4356 0.4291
2915.000000 0.4225 0.4160 0.4056 0.3952 0.3891
2910.000000 0.3830 0.3779 0.3729 0.3671 0.3614
2905.000000 0.3587 0.3559 0.3546 0.3532 0.3527
2900.000000 0.3522 0.3521 0.3520 0.3518 0.3518
2895.000000 0.3518 0.3518 0.3522 0.3526 0.3539
2890.000000 0.3552 0.3593 0.3634 0.3678 0.3722
2885.000000 0.3759 0.3796 0.3830 0.3864 0.3898
2880.000000 0.3932 0.3966 0.4002 0.4045 0.4088
2875.000000 0.4181 0.4274 0.4395 0.4516 0.4672
2870.000000 0.4828 0.4960 0.5095 0.5220 0.5345
2865.000000 0.5430 0.5516 0.5598 0.5680 0.5765
2860.000000 0.5850 0.5937 0.6025 0.6108 0.6192
2855.000000 0.6234 0.6276 0.6318 0.6360 0.6401
2850.000000 0.6443 0.6480 0.6518 0.6533 0.6548
2845.000000 0.6556 0.6565 0.6568 0.6571 0.6575
2840.000000 0.6578 0.6582 0.6585 0.6585 0.6586
2835.000000 0.6586 0.6586 0.6586 0.6586 0.6586
2830.000000 0.6586 0.6585 0.6585 0.6580 0.6575
2825.000000 0.6569 0.6565 0.6561 0.6557 0.6549
2820.000000 0.6541 0.6532 0.6524 0.6515 0.6508
2815.000000 0.6499 0.6491 0.6482 0.6472 0.6462
2810.000000 0.6454 0.6445 0.6436 0.6430 0.6425
2805.000000 0.6418 0.6412 0.6407 0.6401 0.6397
2800.000000 0.6392 0.6389 0.6387 0.6385 0.6383
2795.000000 0.6380 0.6378 0.6378 0.6378 0.6379
2790.000000 0.6380 0.6380 0.6381 0.6382 0.6383
2785.000000 0.6386 0.6389 0.6394 0.6400 0.6405
2780.000000 0.6410 0.6415 0.6421 0.6431 0.6441
2775.000000 0.6451 0.6464 0.6475 0.6487 0.6498
2770.000000 0.6510 0.6526 0.6544 0.6565 0.6588
2765.000000 0.6608 0.6631 0.6653 0.6675 0.6707
2760.000000 0.6738 0.6768 0.6799 0.6830 0.6861
2755.000000 0.6896 0.6931 0.6965 0.7000 0.7028
2750.000000 0.7056 0.7080 0.7104 0.7126 0.7151
2745.000000 0.7171 0.7193 0.7214 0.7235 0.7238
2740.000000 0.7242 0.7244 0.7246 0.7246 0.7247
2735.000000 0.7247 0.7248 0.7249 0.7250 0.7250
2730.000000 0.7251 0.7251 0.7251 0.7251 0.7253
2725.000000 0.7253 0.7254 0.7253 0.7251 0.7250
2720.000000 0.7248 0.7246 0.7244 0.7243 0.7242
2715.000000 0.7240 0.7239 0.7238 0.7238 0.7238
2710.000000 0.7240 0.7242 0.7244 0.7246 0.7255
2705.000000 0.7254 0.7253 0.7255 0.7258 0.7261
2700.000000 0.7265 0.7271 0.7278 0.7284 0.7291
2695.000000 0.7297 0.7304 0.7310 0.7317 0.7330
2690.000000 0.7343 0.7355 0.7368 0.7381 0.7394
2685.000000 0.7406 0.7418 0.7432 0.7445 0.7458
2680.000000 0.7471 0.7486 0.7501 0.7521 0.7542
2675.000000 0.7561 0.7582 0.7601 0.7621 0.7641
2670.000000 0.7661 0.7681 0.7701 0.7715 0.7732
2665.000000 0.7746 0.7760 0.7774 0.7788 0.7801
2660.000000 0.7817 0.7831 0.7845 0.7858 0.7872
2655.000000 0.7887 0.7901 0.7915 0.7928 0.7943
2650.000000 0.7958 0.7971 0.7986 0.7999 0.8012
2645.000000 0.8025 0.8039 0.8051 0.8065 0.8078
2640.000000 0.8091 0.8104 0.8117 0.8130 0.8143
2635.000000 0.8156 0.8168 0.8178 0.8189 0.8197
2630.000000 0.8206 0.8214 0.8223 0.8231 0.8239
2625.000000 0.8247 0.8256 0.8264 0.8273 0.8281
2620.000000 0.8290 0.8298 0.8307 0.8313 0.8318
2615.000000 0.8324 0.8330 0.8335 0.8341 0.8347
2610.000000 0.8353 0.8358 0.8364 0.8368 0.8375
2605.000000 0.8380 0.8386 0.8392 0.8398 0.8403
2600.000000 0.8409 0.8413 0.8417 0.8421 0.8425
2595.000000 0.8430 0.8434 0.8438 0.8442 0.8446
2590.000000 0.8450 0.8454 0.8458 0.8462 0.8466
2585.000000 0.8470 0.8475 0.8478 0.8483 0.8487
2580.000000 0.8491 0.8495 0.8499 0.8502 0.8506
2575.000000 0.8509 0.8513 0.8516 0.8520 0.8523
2570.000000 0.8527 0.8530 0.8534 0.8537 0.8541
2565.000000 0.8544 0.8548 0.8551 0.8555 0.8557
2560.000000 0.8559 0.8560 0.8562 0.8563 0.8550
2555.000000 0.8565 0.8567 0.8568 0.8568 0.8570
2550.000000 0.8571 0.8573 0.8575 0.8575 0.8577
2545.000000 0.8578 0.8580 0.8581 0.8582 0.8583
2540.000000 0.8585 0.8585 0.8586 0.8586 0.8587
2535.000000 0.8587 0.8587 0.8587 0.8588 0.8588
2530.000000 0.8588 0.8588 0.8589 0.8589 0.8589
2525.000000 0.8589 0.8590 0.8590 0.8591 0.8591
2520.000000 0.8591 0.8591 0.8592 0.8592 0.8592
2515.000000 0.8592 0.8593 0.8593 0.8594 0.8594
2510.000000 0.8594 0.8594 0.8594 0.8593 0.8592
2505.000000 0.8591 0.8590 0.8588 0.8587 0.8586
2500.000000 0.8585 0.8584 0.8583 0.8582 0.8581
2495.000000 0.8580 0.8578 0.8578 0.8577 0.8575
2490.000000 0.8574 0.8573 0.8571 0.8571 0.8570
2485.000000 0.8568 0.8568 0.8567 0.8566 0.8565
2480.000000 0.8564 0.8562 0.8561 0.8560 0.8559
2475.000000 0.8557 0.8556 0.8554 0.8552 0.8550
2470.000000 0.8549 0.8547 0.8546 0.8544 0.8543
2465.000000 0.8541 0.8540 0.8538 0.8536 0.8534
2460.000000 0.8533 0.8531 0.8530 0.8528 0.8527
2455.000000 0.8525 0.8523 0.8521 0.8520 0.8518
2450.000000 0.8516 0.8513 0.8510 0.8507 0.8504
2445.000000 0.8501 0.8499 0.8496 0.8493 0.8490
2440.000000 0.8487 0.8484 0.8482 0.8478 0.8475
2435.000000 0.8473 0.8470 0.8467 0.8465 0.8462
2430.000000 0.8459 0.8458 0.8457 0.8455 0.8454
2425.000000 0.8453 0.8452 0.8450 0.8449 0.8447
2420.000000 0.8446 0.8445 0.8444 0.8442 0.8441
2415.000000 0.8440 0.8439 0.8437 0.8436 0.8435
2410.000000 0.8434 0.8432 0.8431 0.8430 0.8428
2405.000000 0.8427 0.8425 0.8425 0.8425 0.8424
2400.000000 0.8424 0.8424 0.8424 0.8423 0.8423
2395.000000 0.8421 0.8421 0.8421 0.8421 0.8421
2390.000000 0.8421 0.8420 0.8420 0.8420 0.8420
2385.000000 0.8418 0.8418 0.8418 0.8418 0.8418
2380.000000 0.8418 0.8417 0.8417 0.8416 0.8416
2375.000000 0.8415 0.8414 0.8413 0.8412 0.8411
2370.000000 0.8410 0.8409 0.8408 0.8406 0.8405
2365.000000 0.8404 0.8403 0.8402 0.8401 0.8400
2360.000000 0.8399 0.8398 0.8397 0.8396 0.8395
2355.000000 0.8393 0.8392 0.8391 0.8390 0.8389
2350.000000 0.8388 0.8387 0.8386 0.8385 0.8384
2345.000000 0.8382 0.8381 0.8380 0.8378 0.8378
2340.000000 0.8377 0.8375 0.8375 0.8374 0.8373
2335.000000 0.8371 0.8371 0.8370 0.8368 0.8368
2330.000000 0.8367 0.8366 0.8365 0.8364 0.8363
2325.000000 0.8362 0.8361 0.8360 0.8360 0.8359
2320.000000 0.8358 0.8357 0.8356 0.8355 0.8354
2315.000000 0.8353 0.8352 0.8351 0.8350 0.8349
2310.000000 0.8348 0.8347 0.8347 0.8346 0.8346
2305.000000 0.8346 0.8346 0.8345 0.8345 0.8344
2300.000000 0.8344 0.8344 0.8344 0.8343 0.8343
2295.000000 0.8342 0.8342 0.8342 0.8342 0.8341
2290.000000 0.8341 0.8340 0.8340 0.8340 0.8340
2285.000000 0.8339 0.8339 0.8339 0.8339 0.8339
2280.000000 0.8339 0.8339 0.8339 0.8338 0.8338
2275.000000 0.8338 0.8338 0.8338 0.8338 0.8338
2270.000000 0.8338 0.8338 0.8338 0.8338 0.8338
2265.000000 0.8335 0.8333 0.8330 0.8328 0.8325
2260.000000 0.8323 0.8320 0.8318 0.8314 0.8311
2255.000000 0.8307 0.8304 0.8300 0.8297 0.8292
2250.000000 0.8287 0.8280 0.8274 0.8267 0.8261
2245.000000 0.8255 0.8249 0.8242 0.8236 0.8228
2240.000000 0.8221 0.8214 0.8207 0.8199 0.8192
2235.000000 0.8184 0.8176 0.8172 0.8169 0.8167
2230.000000 0.8164 0.8161 0.8158 0.8155 0.8151
2225.000000 0.8149 0.8146 0.8143 0.8140 0.8137
2220.000000 0.8134 0.8132 0.8130 0.8128 0.8128
2215.000000 0.8125 0.8125 0.8122 0.8121 0.8121
2210.000000 0.8119 0.8118 0.8117 0.8115 0.8114
2205.000000 0.8111 0.8110 0.8108 0.8107 0.8105
2200.000000 0.8104 0.8101 0.8101 0.8099 0.8097
2195.000000 0.8096 0.8096 0.8096 0.8098 0.8099
2190.000000 0.8101 0.8101 0.8104 0.8106 0.8108
2185.000000 0.8108 0.8111 0.8111 0.8114 0.8115
2180.000000 0.8118 0.8118 0.8121 0.8121 0.8124
2175.000000 0.8125 0.8125 0.8126 0.8128 0.8130
2170.000000 0.8131 0.8132 0.8133 0.8134 0.8136
2165.000000 0.8137 0.8138 0.8139 0.8140 0.8141
2160.000000 0.8143 0.8144 0.8145 0.8146 0.8147
2155.000000 0.8148 0.8150 0.8151 0.8151 0.8153
2150.000000 0.8155 0.8156 0.8157 0.8157 0.8157
2145.000000 0.8156 0.8156 0.8156 0.8156 0.8155
2140.000000 0.8155 0.8155 0.8155 0.8154 0.8154
2135.000000 0.8154 0.8154 0.8153 0.8153 0.8153
2130.000000 0.8153 0.8151 0.8151 0.8151 0.8151
2125.000000 0.8151 0.8151 0.8151 0.8151 0.8151
2120.000000 0.8151 0.8150 0.8150 0.8150 0.8150
2115.000000 0.8149 0.8149 0.8149 0.8149 0.8148
2110.000000 0.8148 0.8148 0.8148 0.8147 0.8147
2105.000000 0.8147 0.8147 0.8146 0.8146 0.8145
2100.000000 0.8145 0.8144 0.8144 0.8143 0.8143
2095.000000 0.8142 0.8142 0.8141 0.8141 0.8140
2090.000000 0.8140 0.8140 0.8140 0.8139 0.8139
2085.000000 0.8138 0.8138 0.8137 0.8137 0.8136
2080.000000 0.8136 0.8135 0.8135 0.8135 0.8135
2075.000000 0.8134 0.8134 0.8133 0.8133 0.8133
2070.000000 0.8133 0.8132 0.8132 0.8132 0.8132
2065.000000 0.8131 0.8131 0.8131 0.8131 0.8130
2060.000000 0.8130 0.8128 0.8128 0.8125 0.8125
2055.000000 0.8124 0.8122 0.8121 0.8121 0.8119
2050.000000 0.8118 0.8117 0.8115 0.8115 0.8114
2045.000000 0.8112 0.8112 0.8111 0.8111 0.8111
2040.000000 0.8110 0.8108 0.8108 0.8108 0.8107
2035.000000 0.8106 0.8106 0.8105 0.8104 0.8103
2030.000000 0.8103 0.8101 0.8101 0.8101 0.8100
2025.000000 0.8099 0.8099 0.8098 0.8098 0.8097
2020.000000 0.8097 0.8096 0.8095 0.8095 0.8096
2015.000000 0.8097 0.8098 0.8104 0.8111 0.8119
2010.000000 0.8130 0.8139 0.8149 0.8172 0.8198
2005.000000 0.8223 0.8249 0.8262 0.8275 0.8296
2000.000000 0.8316 0.8317 0.8318 0.8318 0.8320
1995.000000 0.8321 0.8321 0.8323 0.8323 0.8324
1990.000000 0.8325 0.8325 0.8324 0.8324 0.8323
1985.000000 0.8323 0.8321 0.8321 0.8321 0.8320
1980.000000 0.8320 0.8318 0.8318 0.8318 0.8317
1975.000000 0.8317 0.8316 0.8316 0.8316 0.8315
1970.000000 0.8315 0.8315 0.8314 0.8314 0.8313
1965.000000 0.8313 0.8313 0.8313 0.8312 0.8312
1960.000000 0.8312 0.8311 0.8310 0.8308 0.8306
1955.000000 0.8304 0.8301 0.8299 0.8297 0.8295
1950.000000 0.8293 0.8291 0.8289 0.8286 0.8283
1945.000000 0.8280 0.8277 0.8274 0.8271 0.8268
1940.000000 0.8265 0.8262 0.8259 0.8256 0.8252
1935.000000 0.8249 0.8245 0.8241 0.8237 0.8233
1930.000000 0.8230 0.8225 0.8221 0.8218 0.8213
1925.000000 0.8209 0.8204 0.8200 0.8196 0.8191
1920.000000 0.8187 0.8182 0.8178 0.8172 0.8168
1915.000000 0.8164 0.8158 0.8151 0.8145 0.8138
1910.000000 0.8132 0.8125 0.8118 0.8111 0.8106
1905.000000 0.8099 0.8092 0.8086 0.8078 0.8071
1900.000000 0.8065 0.8058 0.8051 0.8045 0.8038
1895.000000 0.8031 0.8024 0.8018 0.8011 0.8001
1890.000000 0.7994 0.7985 0.7975 0.7968 0.7958
1885.000000 0.7950 0.7941 0.7933 0.7924 0.7915
1880.000000 0.7906 0.7898 0.7889 0.7880 0.7871
1875.000000 0.7862 0.7854 0.7845 0.7836 0.7828
1870.000000 0.7818 0.7811 0.7801 0.7794 0.7785
1865.000000 0.7776 0.7768 0.7760 0.7751 0.7744
1860.000000 0.7736 0.7726 0.7718 0.7711 0.7703
1855.000000 0.7695 0.7687 0.7678 0.7669 0.7661
1850.000000 0.7654 0.7646 0.7638 0.7628 0.7619
1845.000000 0.7610 0.7599 0.7589 0.7578 0.7568
1840.000000 0.7558 0.7548 0.7538 0.7528 0.7518
1835.000000 0.7506 0.7488 0.7469 0.7451 0.7434
1830.000000 0.7415 0.7398 0.7380 0.7361 0.7344
1825.000000 0.7325 0.7308 0.7291 0.7272 0.7256
1820.000000 0.7238 0.7219 0.7203 0.7185 0.7168
1815.000000 0.7150 0.7132 0.7111 0.7087 0.7062
1810.000000 0.7038 0.7014 0.6989 0.6964 0.6940
1805.000000 0.6914 0.6887 0.6858 0.6832 0.6804
