##TITLE=METHYLENE IODIDE
##JCAMP-DX=4.24
##DATA TYPE=INFRARED SPECTRUM
##CLASS=COBLENTZ
##ORIGIN=STANDARD OIL OF OHIO
##OWNER=COBLENTZ SOCIETY
Collection (C) 2018 copyright by the U.S. Secretary of Commerce
on behalf of the United States of America. All rights reserved.
##DATE=Not specified, most likely prior to 1970
##NAMES=diiodomethane
##CAS REGISTRY NO=75-11-6
##MOLFORM=C H2 I2
##SOURCE REFERENCE=COBLENTZ NO. 2071
##$NIST SOURCE=COBLENTZ
##$NIST IMAGE=cob2071
##SPECTROMETER/DATA SYSTEM=PERKIN-ELMER
##STATE=LIQUID
##PATH LENGTH=0.0024 CM
##SAMPLING PROCEDURE=TRANSMISSION
##RESOLUTION=4
##DATA PROCESSING=DIGITIZED BY NIST FROM HARD COPY
##XUNITS=MICROMETERS
##YUNITS=TRANSMITTANCE
##XFACTOR=1.000000
##YFACTOR=1
##DELTAX=000.006774
##FIRSTX=2.027
##LASTX=15.4069
##FIRSTY=0.977
##MAXX=15.4069
##MINX=2.027
##MAXY=0.991
##MINY=0.005
##NPOINTS=1976
##XYDATA=(X++(Y..Y))
2.027000 0.9770 0.9790 0.9790 0.9790 0.9790
2.060889 0.9790 0.9790 0.9790 0.9810 0.9810
2.095000 0.9810 0.9810 0.9810 0.9810 0.9810
2.128889 0.9810 0.9810 0.9810 0.9810 0.9820
2.163000 0.9820 0.9820 0.9820 0.9820 0.9820
2.196889 0.9820 0.9820 0.9810 0.9810 0.9810
2.230000 0.9790 0.9770 0.9760 0.9650 0.9530
2.263889 0.9400 0.8990 0.8760 0.8750 0.8750
2.298000 0.8830 0.9230 0.9530 0.9690 0.9700
2.331889 0.9740 0.9760 0.9770 0.9790 0.9790
2.366000 0.9810 0.9810 0.9810 0.9810 0.9810
2.399889 0.9790 0.9790 0.9770 0.9720 0.9470
2.434000 0.9070 0.8630 0.8610 0.8610 0.8660
2.467889 0.9090 0.9430 0.9530 0.9620 0.9690
2.501000 0.9740 0.9770 0.9790 0.9810 0.9810
2.534889 0.9820 0.9840 0.9840 0.9860 0.9860
2.569000 0.9860 0.9860 0.9880 0.9880 0.9860
2.602889 0.9860 0.9840 0.9840 0.9820 0.9810
2.637000 0.9790 0.9740 0.9600 0.9500 0.9480
2.670889 0.9500 0.9650 0.9720 0.9760 0.9770
2.705000 0.9790 0.9810 0.9810 0.9810 0.9810
2.738889 0.9810 0.9810 0.9810 0.9810 0.9810
2.772000 0.9820 0.9820 0.9820 0.9810 0.9810
2.805889 0.9770 0.9770 0.9770 0.9790 0.9790
2.840000 0.9790 0.9810 0.9810 0.9790 0.9790
2.873889 0.9770 0.9770 0.9770 0.9770 0.9770
2.908000 0.9770 0.9770 0.9790 0.9790 0.9790
2.941889 0.9790 0.9790 0.9770 0.9770 0.9770
2.976000 0.9770 0.9770 0.9790 0.9790 0.9790
3.009889 0.9790 0.9790 0.9790 0.9790 0.9790
3.043000 0.9790 0.9790 0.9790 0.9790 0.9790
3.076889 0.9770 0.9760 0.9760 0.9740 0.9720
3.111000 0.9700 0.9690 0.9670 0.9650 0.9640
3.144889 0.9600 0.9570 0.9530 0.9500 0.9480
3.179000 0.9410 0.9350 0.9280 0.9170 0.9050
3.212889 0.9000 0.8880 0.8660 0.8150 0.6850
3.246000 0.4250 0.4230 0.4230 0.4270 0.4680
3.279889 0.4780 0.6700 0.8410 0.8680 0.8820
3.314000 0.8830 0.8830 0.8700 0.8490 0.8170
3.347889 0.8060 0.8050 0.8060 0.8270 0.8510
3.382000 0.8710 0.8950 0.9090 0.9260 0.9310
3.415889 0.9380 0.9410 0.9450 0.9500 0.9500
3.450000 0.9520 0.9530 0.9550 0.9570 0.9580
3.483889 0.9620 0.9640 0.9650 0.9670 0.9690
3.517000 0.9690 0.9700 0.9720 0.9740 0.9760
3.550889 0.9790 0.9820 0.9820 0.9840 0.9840
3.585000 0.9860 0.9860 0.9880 0.9880 0.9880
3.618889 0.9880 0.9880 0.9880 0.9880 0.9890
3.653000 0.9890 0.9890 0.9890 0.9890 0.9890
3.686889 0.9890 0.9890 0.9890 0.9890 0.9890
3.721000 0.9880 0.9880 0.9860 0.9860 0.9860
3.754889 0.9860 0.9860 0.9880 0.9880 0.9890
3.788000 0.9890 0.9910 0.9910 0.9910 0.9910
3.821889 0.9910 0.9910 0.9910 0.9910 0.9910
3.856000 0.9890 0.9890 0.9890 0.9890 0.9890
3.889889 0.9890 0.9890 0.9890 0.9890 0.9880
3.924000 0.9880 0.9880 0.9880 0.9860 0.9860
3.957889 0.9860 0.9860 0.9880 0.9880 0.9880
3.992000 0.9880 0.9880 0.9880 0.9880 0.9880
4.025889 0.9860 0.9840 0.9770 0.9740 0.9650
4.059000 0.9550 0.9500 0.9430 0.9410 0.9410
4.092889 0.9470 0.9520 0.9570 0.9670 0.9720
4.127000 0.9740 0.9770 0.9790 0.9810 0.9810
4.160889 0.9810 0.9820 0.9820 0.9840 0.9840
4.195000 0.9840 0.9840 0.9840 0.9860 0.9860
4.228889 0.9860 0.9880 0.9890 0.9910 0.9910
4.263000 0.9910 0.9910 0.9910 0.9910 0.9910
4.296889 0.9910 0.9910 0.9910 0.9910 0.9910
4.330000 0.9910 0.9890 0.9890 0.9890 0.9890
4.363889 0.9880 0.9880 0.9860 0.9860 0.9840
4.398000 0.9820 0.9820 0.9810 0.9810 0.9790
4.431889 0.9790 0.9770 0.9770 0.9760 0.9740
4.466000 0.9740 0.9690 0.9640 0.9570 0.9520
4.499889 0.9410 0.9280 0.9240 0.9240 0.9280
4.534000 0.9330 0.9400 0.9480 0.9520 0.9550
4.567889 0.9620 0.9640 0.9670 0.9670 0.9670
4.601000 0.9670 0.9650 0.9620 0.9600 0.9530
4.634889 0.9500 0.9480 0.9410 0.9380 0.9310
4.669000 0.9260 0.9240 0.9240 0.9260 0.9350
4.702889 0.9430 0.9500 0.9530 0.9580 0.9600
4.737000 0.9640 0.9640 0.9670 0.9670 0.9670
4.770889 0.9650 0.9640 0.9620 0.9580 0.9530
4.805000 0.9480 0.9350 0.9160 0.8950 0.8730
4.838889 0.8510 0.8470 0.8470 0.8520 0.8830
4.872000 0.9000 0.9190 0.9450 0.9520 0.9570
4.905889 0.9640 0.9690 0.9720 0.9740 0.9760
4.940000 0.9770 0.9790 0.9810 0.9820 0.9820
4.973889 0.9820 0.9820 0.9840 0.9840 0.9860
5.008000 0.9860 0.9860 0.9840 0.9840 0.9840
5.041889 0.9840 0.9840 0.9840 0.9840 0.9840
5.076000 0.9860 0.9860 0.9860 0.9860 0.9860
5.109889 0.9860 0.9860 0.9860 0.9860 0.9860
5.143000 0.9860 0.9860 0.9860 0.9840 0.9840
5.176889 0.9840 0.9840 0.9840 0.9840 0.9840
5.211000 0.9840 0.9840 0.9840 0.9860 0.9860
5.244889 0.9860 0.9860 0.9860 0.9860 0.9860
5.279000 0.9860 0.9880 0.9880 0.9880 0.9890
5.312889 0.9890 0.9890 0.9890 0.9880 0.9880
5.347000 0.9880 0.9860 0.9860 0.9860 0.9840
5.380889 0.9840 0.9820 0.9810 0.9790 0.9770
5.414000 0.9740 0.9720 0.9700 0.9700 0.9720
5.447889 0.9720 0.9720 0.9740 0.9770 0.9790
5.482000 0.9820 0.9820 0.9840 0.9860 0.9860
5.515889 0.9860 0.9860 0.9880 0.9880 0.9880
5.550000 0.9890 0.9890 0.9890 0.9890 0.9890
5.583889 0.9890 0.9890 0.9890 0.9890 0.9890
5.618000 0.9880 0.9880 0.9880 0.9860 0.9840
5.651889 0.9820 0.9810 0.9790 0.9770 0.9760
5.685000 0.9740 0.9740 0.9740 0.9740 0.9740
5.718889 0.9760 0.9760 0.9760 0.9760 0.9770
5.753000 0.9790 0.9810 0.9810 0.9820 0.9820
5.786889 0.9820 0.9840 0.9840 0.9840 0.9860
5.821000 0.9860 0.9860 0.9860 0.9860 0.9860
5.854889 0.9860 0.9860 0.9860 0.9860 0.9860
5.888000 0.9860 0.9860 0.9860 0.9840 0.9840
5.921889 0.9840 0.9840 0.9840 0.9840 0.9840
5.956000 0.9840 0.9840 0.9840 0.9840 0.9840
5.989889 0.9840 0.9840 0.9840 0.9840 0.9840
6.024000 0.9840 0.9840 0.9840 0.9840 0.9840
6.057889 0.9840 0.9840 0.9840 0.9840 0.9840
6.092000 0.9840 0.9860 0.9860 0.9860 0.9860
6.125889 0.9860 0.9860 0.9860 0.9860 0.9860
6.159000 0.9860 0.9860 0.9860 0.9860 0.9860
6.192889 0.9840 0.9840 0.9820 0.9820 0.9810
6.227000 0.9810 0.9810 0.9810 0.9810 0.9810
6.260889 0.9810 0.9810 0.9810 0.9820 0.9820
6.295000 0.9840 0.9840 0.9840 0.9860 0.9860
6.328889 0.9880 0.9880 0.9880 0.9880 0.9890
6.363000 0.9890 0.9890 0.9890 0.9890 0.9880
6.396889 0.9880 0.9880 0.9890 0.9890 0.9890
6.430000 0.9890 0.9890 0.9890 0.9890 0.9890
6.463889 0.9890 0.9890 0.9910 0.9910 0.9910
6.498000 0.9890 0.9890 0.9890 0.9880 0.9880
6.531889 0.9880 0.9880 0.9880 0.9880 0.9880
6.566000 0.9880 0.9880 0.9860 0.9860 0.9840
6.599889 0.9840 0.9840 0.9840 0.9840 0.9840
6.634000 0.9840 0.9840 0.9840 0.9820 0.9820
6.667889 0.9810 0.9810 0.9810 0.9810 0.9790
6.701000 0.9790 0.9790 0.9770 0.9770 0.9770
6.734889 0.9770 0.9770 0.9760 0.9740 0.9740
6.769000 0.9740 0.9720 0.9720 0.9700 0.9690
6.802889 0.9690 0.9670 0.9650 0.9650 0.9650
6.837000 0.9650 0.9650 0.9640 0.9640 0.9640
6.870889 0.9620 0.9620 0.9620 0.9600 0.9600
6.905000 0.9600 0.9600 0.9580 0.9580 0.9580
6.938889 0.9570 0.9570 0.9570 0.9550 0.9550
6.972000 0.9550 0.9550 0.9550 0.9550 0.9550
7.005889 0.9550 0.9550 0.9550 0.9550 0.9550
7.040000 0.9550 0.9570 0.9570 0.9570 0.9580
7.073889 0.9580 0.9580 0.9580 0.9580 0.9580
7.108000 0.9580 0.9580 0.9580 0.9580 0.9580
7.141889 0.9580 0.9570 0.9570 0.9570 0.9570
7.176000 0.9550 0.9530 0.9520 0.9480 0.9470
7.209889 0.9470 0.9450 0.9430 0.9410 0.9400
7.243000 0.9360 0.9330 0.9290 0.9260 0.9240
7.276889 0.9210 0.9160 0.9110 0.9050 0.9040
7.311000 0.9000 0.8920 0.8820 0.8760 0.8680
7.344889 0.8540 0.8410 0.8250 0.8130 0.8050
7.379000 0.7980 0.7940 0.7940 0.7980 0.8010
7.412889 0.8060 0.8150 0.8220 0.8320 0.8410
7.447000 0.8510 0.8560 0.8700 0.8780 0.8850
7.480889 0.8900 0.8940 0.9000 0.9050 0.9140
7.514000 0.9210 0.9230 0.9240 0.9280 0.9310
7.547889 0.9330 0.9360 0.9380 0.9400 0.9430
7.582000 0.9450 0.9470 0.9480 0.9480 0.9500
7.615889 0.9520 0.9520 0.9520 0.9530 0.9530
7.650000 0.9550 0.9550 0.9580 0.9580 0.9580
7.683889 0.9600 0.9600 0.9600 0.9620 0.9620
7.718000 0.9620 0.9620 0.9620 0.9620 0.9620
7.751889 0.9620 0.9600 0.9600 0.9600 0.9600
7.785000 0.9600 0.9580 0.9580 0.9570 0.9570
7.818889 0.9570 0.9580 0.9580 0.9600 0.9600
7.853000 0.9620 0.9640 0.9640 0.9640 0.9620
7.886889 0.9620 0.9620 0.9620 0.9620 0.9600
7.921000 0.9600 0.9600 0.9600 0.9600 0.9600
7.954889 0.9620 0.9620 0.9620 0.9600 0.9600
7.989000 0.9600 0.9600 0.9600 0.9580 0.9570
8.022889 0.9570 0.9570 0.9570 0.9550 0.9550
8.056000 0.9550 0.9550 0.9520 0.9520 0.9500
8.089889 0.9450 0.9380 0.9330 0.9260 0.9210
8.124000 0.9140 0.9050 0.9000 0.8940 0.8870
8.157889 0.8820 0.8820 0.8830 0.8870 0.8940
8.192000 0.9040 0.9120 0.9170 0.9230 0.9260
8.225889 0.9290 0.9330 0.9360 0.9380 0.9410
8.260000 0.9430 0.9450 0.9480 0.9500 0.9500
8.293889 0.9520 0.9520 0.9530 0.9530 0.9530
8.327000 0.9530 0.9530 0.9520 0.9520 0.9500
8.360889 0.9500 0.9500 0.9480 0.9480 0.9470
8.395000 0.9470 0.9430 0.9430 0.9410 0.9410
8.428889 0.9400 0.9380 0.9360 0.9350 0.9290
8.463000 0.9240 0.9210 0.9190 0.9170 0.9160
8.496889 0.9140 0.9140 0.9140 0.9140 0.9160
8.530000 0.9160 0.9170 0.9170 0.9170 0.9170
8.563889 0.9160 0.9140 0.9120 0.9110 0.9090
8.598000 0.9070 0.9050 0.9040 0.9020 0.9020
8.631889 0.9000 0.8950 0.8900 0.8870 0.8830
8.666000 0.8820 0.8750 0.8700 0.8630 0.8610
8.699889 0.8580 0.8540 0.8510 0.8490 0.8410
8.734000 0.8370 0.8320 0.8270 0.8200 0.8110
8.767889 0.8050 0.8000 0.7930 0.7840 0.7770
8.801000 0.7690 0.7570 0.7480 0.7360 0.7190
8.834889 0.7020 0.6830 0.6630 0.6420 0.6130
8.869000 0.5930 0.5770 0.5520 0.5070 0.4580
8.902889 0.4080 0.3720 0.3580 0.3410 0.2780
8.937000 0.2150 0.1880 0.1570 0.1280 0.1050
8.970889 0.0850 0.0440 0.0410 0.0340 0.0270
9.005000 0.0200 0.0150 0.0110 0.0080 0.0060
9.038889 0.0050 0.0050 0.0050 0.0050 0.0060
9.072000 0.0080 0.0110 0.0170 0.0220 0.0290
9.105889 0.0440 0.0510 0.2060 0.2760 0.3310
9.140000 0.3620 0.3910 0.4030 0.4170 0.4270
9.173889 0.4350 0.4470 0.4610 0.4920 0.5550
9.208000 0.5980 0.6150 0.6290 0.6390 0.6510
9.241889 0.6610 0.6700 0.6820 0.6920 0.7040
9.276000 0.7160 0.7290 0.7350 0.7430 0.7500
9.309889 0.7550 0.7640 0.7700 0.7740 0.7810
9.343000 0.7860 0.7930 0.8000 0.8030 0.8050
9.376889 0.8100 0.8130 0.8170 0.8200 0.8230
9.411000 0.8270 0.8300 0.8320 0.8340 0.8370
9.444889 0.8390 0.8410 0.8420 0.8440 0.8460
9.479000 0.8470 0.8490 0.8510 0.8520 0.8540
9.512889 0.8540 0.8560 0.8580 0.8580 0.8590
9.547000 0.8590 0.8590 0.8590 0.8590 0.8590
9.580889 0.8580 0.8560 0.8540 0.8520 0.8510
9.614000 0.8490 0.8440 0.8390 0.8370 0.8320
9.647889 0.8290 0.8270 0.8230 0.8220 0.8200
9.682000 0.8200 0.8200 0.8200 0.8200 0.8220
9.715889 0.8230 0.8250 0.8290 0.8340 0.8370
9.750000 0.8420 0.8470 0.8510 0.8540 0.8580
9.783889 0.8610 0.8640 0.8700 0.8730 0.8780
9.818000 0.8820 0.8870 0.8900 0.8920 0.9000
9.851889 0.9020 0.9020 0.9040 0.9070 0.9090
9.885000 0.9120 0.9140 0.9160 0.9170 0.9190
9.918889 0.9210 0.9210 0.9230 0.9240 0.9280
9.953000 0.9280 0.9290 0.9310 0.9330 0.9330
9.986889 0.9330 0.9350 0.9350 0.9360 0.9380
10.021000 0.9380 0.9400 0.9400 0.9400 0.9410
10.054889 0.9410 0.9430 0.9430 0.9430 0.9430
10.089000 0.9430 0.9450 0.9450 0.9450 0.9470
10.122889 0.9470 0.9500 0.9500 0.9500 0.9520
10.156000 0.9520 0.9520 0.9520 0.9520 0.9520
10.189889 0.9520 0.9520 0.9520 0.9520 0.9530
10.224000 0.9530 0.9530 0.9530 0.9530 0.9550
10.257889 0.9550 0.9550 0.9570 0.9570 0.9570
10.292000 0.9570 0.9580 0.9580 0.9580 0.9580
10.325889 0.9600 0.9600 0.9600 0.9600 0.9600
10.360000 0.9620 0.9620 0.9620 0.9640 0.9640
10.393889 0.9640 0.9640 0.9650 0.9650 0.9650
10.427000 0.9650 0.9650 0.9650 0.9650 0.9670
10.460889 0.9670 0.9670 0.9670 0.9670 0.9670
10.495000 0.9690 0.9690 0.9690 0.9690 0.9690
10.528889 0.9690 0.9690 0.9690 0.9690 0.9690
10.563000 0.9700 0.9700 0.9700 0.9700 0.9700
10.596889 0.9700 0.9700 0.9700 0.9700 0.9700
10.631000 0.9700 0.9720 0.9720 0.9720 0.9720
10.664889 0.9720 0.9720 0.9720 0.9720 0.9720
10.698000 0.9720 0.9720 0.9700 0.9700 0.9700
10.731889 0.9700 0.9700 0.9700 0.9700 0.9700
10.766000 0.9700 0.9700 0.9690 0.9690 0.9690
10.799889 0.9690 0.9690 0.9690 0.9690 0.9690
10.834000 0.9690 0.9690 0.9690 0.9690 0.9690
10.867889 0.9690 0.9690 0.9690 0.9690 0.9690
10.902000 0.9670 0.9670 0.9670 0.9670 0.9670
10.935889 0.9670 0.9670 0.9670 0.9670 0.9670
10.969000 0.9670 0.9670 0.9670 0.9670 0.9670
11.002889 0.9670 0.9670 0.9670 0.9670 0.9670
11.037000 0.9670 0.9670 0.9690 0.9690 0.9690
11.070889 0.9670 0.9670 0.9670 0.9670 0.9670
11.105000 0.9670 0.9690 0.9690 0.9690 0.9690
11.138889 0.9690 0.9690 0.9690 0.9690 0.9690
11.172000 0.9690 0.9690 0.9690 0.9690 0.9690
11.205889 0.9690 0.9690 0.9690 0.9690 0.9690
11.240000 0.9690 0.9690 0.9690 0.9690 0.9690
11.273889 0.9690 0.9700 0.9700 0.9700 0.9700
11.308000 0.9700 0.9700 0.9700 0.9720 0.9720
11.341889 0.9720 0.9720 0.9720 0.9720 0.9720
11.376000 0.9720 0.9720 0.9720 0.9720 0.9720
11.409889 0.9720 0.9720 0.9720 0.9720 0.9720
11.443000 0.9740 0.9740 0.9740 0.9740 0.9740
11.476889 0.9740 0.9740 0.9740 0.9760 0.9760
11.511000 0.9760 0.9760 0.9760 0.9760 0.9760
11.544889 0.9760 0.9760 0.9760 0.9760 0.9760
11.579000 0.9770 0.9770 0.9770 0.9770 0.9770
11.612889 0.9770 0.9770 0.9770 0.9770 0.9770
11.647000 0.9770 0.9770 0.9770 0.9770 0.9760
11.680889 0.9760 0.9760 0.9760 0.9760 0.9760
11.714000 0.9760 0.9760 0.9760 0.9760 0.9760
11.747889 0.9760 0.9760 0.9760 0.9760 0.9760
11.782000 0.9760 0.9770 0.9770 0.9770 0.9770
11.815889 0.9770 0.9770 0.9770 0.9760 0.9760
11.850000 0.9760 0.9740 0.9740 0.9740 0.9720
11.883889 0.9720 0.9720 0.9720 0.9720 0.9700
11.918000 0.9690 0.9690 0.9670 0.9670 0.9650
11.951889 0.9650 0.9650 0.9640 0.9640 0.9640
11.985000 0.9640 0.9640 0.9640 0.9640 0.9640
12.018889 0.9640 0.9640 0.9650 0.9650 0.9650
12.053000 0.9650 0.9650 0.9670 0.9670 0.9670
12.086889 0.9670 0.9690 0.9690 0.9690 0.9690
12.121000 0.9690 0.9690 0.9690 0.9690 0.9690
12.154889 0.9690 0.9670 0.9670 0.9670 0.9670
12.189000 0.9670 0.9670 0.9670 0.9670 0.9670
12.222889 0.9670 0.9670 0.9670 0.9650 0.9650
12.256000 0.9650 0.9640 0.9640 0.9640 0.9620
12.289889 0.9620 0.9620 0.9620 0.9600 0.9600
12.324000 0.9600 0.9600 0.9600 0.9600 0.9600
12.357889 0.9600 0.9600 0.9600 0.9600 0.9600
12.392000 0.9580 0.9580 0.9580 0.9580 0.9580
12.425889 0.9580 0.9580 0.9580 0.9580 0.9550
12.460000 0.9550 0.9530 0.9530 0.9530 0.9530
12.493889 0.9530 0.9530 0.9530 0.9530 0.9530
12.527000 0.9520 0.9520 0.9520 0.9500 0.9500
12.560889 0.9480 0.9480 0.9480 0.9480 0.9470
12.595000 0.9470 0.9470 0.9470 0.9450 0.9450
12.628889 0.9450 0.9450 0.9450 0.9450 0.9450
12.663000 0.9450 0.9430 0.9430 0.9430 0.9430
12.696889 0.9430 0.9430 0.9430 0.9430 0.9430
12.731000 0.9430 0.9430 0.9430 0.9410 0.9410
12.764889 0.9410 0.9410 0.9410 0.9400 0.9400
12.798000 0.9400 0.9380 0.9380 0.9380 0.9360
12.831889 0.9360 0.9360 0.9350 0.9350 0.9350
12.866000 0.9350 0.9330 0.9330 0.9330 0.9330
12.899889 0.9330 0.9330 0.9330 0.9330 0.9330
12.934000 0.9330 0.9330 0.9330 0.9330 0.9330
12.967889 0.9330 0.9330 0.9330 0.9330 0.9330
13.002000 0.9330 0.9330 0.9310 0.9310 0.9310
13.035889 0.9310 0.9310 0.9310 0.9310 0.9310
13.069000 0.9290 0.9290 0.9290 0.9290 0.9290
13.102889 0.9290 0.9290 0.9290 0.9280 0.9280
13.137000 0.9280 0.9280 0.9280 0.9260 0.9260
13.170889 0.9260 0.9240 0.9240 0.9240 0.9240
13.205000 0.9240 0.9240 0.9230 0.9230 0.9230
13.238889 0.9230 0.9230 0.9210 0.9210 0.9190
13.273000 0.9170 0.9170 0.9170 0.9160 0.9160
13.306889 0.9140 0.9140 0.9140 0.9120 0.9120
13.340000 0.9120 0.9110 0.9110 0.9110 0.9090
13.373889 0.9090 0.9090 0.9070 0.9070 0.9070
13.408000 0.9050 0.9050 0.9040 0.9040 0.9020
13.441889 0.9000 0.9000 0.8990 0.8990 0.8970
13.476000 0.8940 0.8920 0.8920 0.8900 0.8880
13.509889 0.8850 0.8820 0.8800 0.8760 0.8750
13.544000 0.8710 0.8700 0.8680 0.8660 0.8630
13.577889 0.8610 0.8590 0.8540 0.8540 0.8510
13.611000 0.8490 0.8440 0.8410 0.8370 0.8340
13.644889 0.8250 0.8200 0.8150 0.8050 0.8030
13.679000 0.8000 0.7910 0.7840 0.7790 0.7740
13.712889 0.7670 0.7640 0.7550 0.7520 0.7480
13.747000 0.7360 0.7240 0.7120 0.6990 0.6870
13.780889 0.6750 0.6630 0.6490 0.6350 0.6220
13.814000 0.6080 0.6030 0.5910 0.5770 0.5570
13.847889 0.5360 0.5110 0.4870 0.4610 0.4410
13.882000 0.4180 0.4050 0.3960 0.3790 0.3600
13.915889 0.3120 0.2630 0.2470 0.2350 0.2220
13.950000 0.2100 0.1960 0.1810 0.1600 0.1430
13.983889 0.1360 0.1310 0.1290 0.1280 0.1280
14.018000 0.1280 0.1280 0.1290 0.1360 0.1500
14.051889 0.1690 0.1890 0.2150 0.2410 0.2640
14.085000 0.2870 0.3050 0.3260 0.3470 0.3740
14.118889 0.3940 0.4080 0.4300 0.4580 0.4940
14.153000 0.5120 0.5360 0.5580 0.5810 0.6000
14.186889 0.6130 0.6300 0.6420 0.6540 0.6660
14.221000 0.6760 0.6850 0.6950 0.7050 0.7160
14.254889 0.7280 0.7380 0.7450 0.7480 0.7550
14.289000 0.7650 0.7700 0.7760 0.7790 0.7860
14.322889 0.7880 0.7910 0.7940 0.8010 0.8030
14.356000 0.8030 0.8050 0.8100 0.8110 0.8130
14.389889 0.8170 0.8170 0.8180 0.8200 0.8220
14.424000 0.8220 0.8230 0.8250 0.8250 0.8270
14.457889 0.8300 0.8320 0.8320 0.8340 0.8350
14.492000 0.8350 0.8370 0.8370 0.8390 0.8410
14.525889 0.8410 0.8410 0.8420 0.8420 0.8440
14.560000 0.8440 0.8460 0.8460 0.8460 0.8470
14.593889 0.8470 0.8470 0.8470 0.8470 0.8490
14.627000 0.8490 0.8490 0.8490 0.8490 0.8490
14.660889 0.8490 0.8490 0.8490 0.8490 0.8490
14.695000 0.8490 0.8490 0.8490 0.8490 0.8490
14.728889 0.8490 0.8490 0.8490 0.8490 0.8490
14.763000 0.8490 0.8490 0.8490 0.8490 0.8490
14.796889 0.8490 0.8490 0.8490 0.8490 0.8470
14.831000 0.8470 0.8470 0.8460 0.8460 0.8460
14.864889 0.8460 0.8460 0.8460 0.8460 0.8460
14.898000 0.8460 0.8460 0.8460 0.8460 0.8440
14.931889 0.8440 0.8440 0.8420 0.8420 0.8420
14.966000 0.8440 0.8460 0.8460 0.8510 0.8520
14.999889 0.8510 0.8510 0.8490 0.8490 0.8460
15.034000 0.8440 0.8410 0.8410 0.8390 0.8370
15.067889 0.8370 0.8370 0.8350 0.8350 0.8350
15.102000 0.8350 0.8340 0.8320 0.8320 0.8320
15.135889 0.8320 0.8320 0.8300 0.8300 0.8300
15.169000 0.8290 0.8290 0.8290 0.8270 0.8270
15.202889 0.8250 0.8250 0.8250 0.8250 0.8250
15.237000 0.8250 0.8250 0.8230 0.8230 0.8230
15.270889 0.8230 0.8230 0.8230 0.8220 0.8220
15.305000 0.8220 0.8220 0.8220 0.8220 0.8220
15.338889 0.8200 0.8200 0.8200 0.8200 0.8200
15.373000 0.8200 0.8200 0.8200 0.8200 0.8200
15.406889 0.8200
##END=
