##TITLE=Carbon disulfide
##JCAMP-DX=4.24
##DATA TYPE=INFRARED SPECTRUM
##CLASS=COBLENTZ
##ORIGIN=DOW CHEMICAL COMPANY
##OWNER=COBLENTZ SOC.
Collection (C) 2018 copyright by the U.S. Secretary of Commerce
on behalf of the United States of America. All rights reserved.
##DATE=1964
##NAMES=dithioxomethane
##CAS REGISTRY NO=75-15-0
##MOLFORM=C S2
##SOURCE REFERENCE=COBLENTZ NO. 08754
##$NIST SOURCE=COBLENTZ
##$NIST IMAGE=cob8754
##SPECTROMETER/DATA SYSTEM=DOW KBr FOREPRISM-GRATING
##INSTRUMENT PARAMETERS=GRATING CHANGED AT 5.0, 7.5, 15.0 MICRON
##STATE=GAS (100 mmHg, N2 ADDED, TOTAL PRESSURE 600 mmHg)
##PATH LENGTH=5 CM
$$ SPECTRAL CONTAMINATION DUE TO UNKNOWNS AROUND 915, AND 740 CM^-^1
##SAMPLING PROCEDURE=TRANSMISSION
##RESOLUTION=2
##DATA PROCESSING=DIGITIZED BY COBLENTZ SOCIETY (BATCH I) FROM HARD COPY
##XUNITS=1/CM
##YUNITS=TRANSMITTANCE
##XLABEL=Wavenumbers (cm-1)
##YLABEL=% Transmission
##XFACTOR=1
##YFACTOR=1
##DELTAX=1
##FIRSTX=461
##LASTX=3796
##FIRSTY=0.8294
##MAXX=3796
##MINX=461
##MAXY=0.9112
##MINY=0.001
##NPOINTS=3336
##XYDATA=(X++(Y..Y))
461.000000 0.8294 0.8295 0.8296 0.8297 0.8298
466.000000 0.8299 0.8300 0.8301 0.8302 0.8302
471.000000 0.8302 0.8302 0.8302 0.8302 0.8302
476.000000 0.8302 0.8302 0.8302 0.8302 0.8304
481.000000 0.8308 0.8312 0.8316 0.8318 0.8323
486.000000 0.8334 0.8351 0.8368 0.8385 0.8401
491.000000 0.8418 0.8438 0.8457 0.8475 0.8494
496.000000 0.8499 0.8504 0.8505 0.8505 0.8505
501.000000 0.8505 0.8505 0.8504 0.8503 0.8501
506.000000 0.8499 0.8498 0.8496 0.8494 0.8494
511.000000 0.8495 0.8497 0.8498 0.8499 0.8501
516.000000 0.8502 0.8503 0.8505 0.8508 0.8513
521.000000 0.8518 0.8521 0.8527 0.8531 0.8536
526.000000 0.8543 0.8550 0.8558 0.8565 0.8571
531.000000 0.8574 0.8575 0.8575 0.8575 0.8577
536.000000 0.8578 0.8578 0.8578 0.8578 0.8578
541.000000 0.8578 0.8578 0.8580 0.8583 0.8586
546.000000 0.8589 0.8592 0.8595 0.8598 0.8601
551.000000 0.8604 0.8607 0.8609 0.8612 0.8615
556.000000 0.8618 0.8621 0.8624 0.8627 0.8630
561.000000 0.8633 0.8636 0.8638 0.8641 0.8643
566.000000 0.8645 0.8647 0.8649 0.8651 0.8653
571.000000 0.8655 0.8657 0.8659 0.8661 0.8663
576.000000 0.8665 0.8666 0.8668 0.8670 0.8671
581.000000 0.8673 0.8675 0.8677 0.8678 0.8678
586.000000 0.8680 0.8681 0.8682 0.8682 0.8683
591.000000 0.8685 0.8686 0.8688 0.8690 0.8691
596.000000 0.8693 0.8695 0.8697 0.8698 0.8700
601.000000 0.8702 0.8704 0.8705 0.8707 0.8707
606.000000 0.8707 0.8707 0.8707 0.8707 0.8707
611.000000 0.8707 0.8706 0.8705 0.8704 0.8704
616.000000 0.8703 0.8702 0.8701 0.8701 0.8700
621.000000 0.8699 0.8699 0.8698 0.8698 0.8697
626.000000 0.8697 0.8696 0.8696 0.8696 0.8695
631.000000 0.8695 0.8695 0.8694 0.8694 0.8694
636.000000 0.8694 0.8693 0.8693 0.8693 0.8693
641.000000 0.8692 0.8692 0.8692 0.8692 0.8692
646.000000 0.8691 0.8691 0.8691 0.8691 0.8692
651.000000 0.8693 0.8695 0.8696 0.8698 0.8700
656.000000 0.8701 0.8703 0.8705 0.8706 0.8708
661.000000 0.8710 0.8711 0.8713 0.8714 0.8716
666.000000 0.8721 0.8733 0.8750 0.8773 0.8796
671.000000 0.8825 0.8859 0.8887 0.8913 0.8931
676.000000 0.8940 0.8934 0.8931 0.8928 0.8925
681.000000 0.8921 0.8918 0.8915 0.8911 0.8908
686.000000 0.8904 0.8901 0.8898 0.8894 0.8889
691.000000 0.8883 0.8877 0.8871 0.8865 0.8859
696.000000 0.8853 0.8847 0.8841 0.8834 0.8825
701.000000 0.8818 0.8812 0.8805 0.8798 0.8791
706.000000 0.8782 0.8770 0.8758 0.8746 0.8734
711.000000 0.8721 0.8710 0.8695 0.8678 0.8663
716.000000 0.8646 0.8630 0.8614 0.8595 0.8571
721.000000 0.8549 0.8525 0.8502 0.8474 0.8446
726.000000 0.8418 0.8393 0.8371 0.8350 0.8336
731.000000 0.8324 0.8312 0.8301 0.8290 0.8278
736.000000 0.8267 0.8263 0.8261 0.8257 0.8257
741.000000 0.8258 0.8259 0.8260 0.8262 0.8266
746.000000 0.8270 0.8275 0.8278 0.8284 0.8288
751.000000 0.8298 0.8331 0.8373 0.8391 0.8409
756.000000 0.8423 0.8434 0.8444 0.8451 0.8458
761.000000 0.8464 0.8471 0.8477 0.8481 0.8482
766.000000 0.8487 0.8496 0.8509 0.8525 0.8550
771.000000 0.8583 0.8617 0.8648 0.8678 0.8694
776.000000 0.8710 0.8725 0.8741 0.8755 0.8768
781.000000 0.8782 0.8791 0.8801 0.8808 0.8816
786.000000 0.8824 0.8832 0.8839 0.8847 0.8854
791.000000 0.8861 0.8868 0.8875 0.8882 0.8889
796.000000 0.8894 0.8898 0.8902 0.8906 0.8910
801.000000 0.8914 0.8918 0.8923 0.8927 0.8931
806.000000 0.8934 0.8938 0.8942 0.8945 0.8949
811.000000 0.8952 0.8953 0.8953 0.8954 0.8954
816.000000 0.8955 0.8955 0.8955 0.8956 0.8956
821.000000 0.8956 0.8956 0.8956 0.8956 0.8956
826.000000 0.8956 0.8956 0.8955 0.8964 0.8953
831.000000 0.8953 0.8954 0.8955 0.8956 0.8956
836.000000 0.8956 0.8957 0.8958 0.8960 0.8960
841.000000 0.8960 0.8960 0.8960 0.8959 0.8958
846.000000 0.8957 0.8956 0.8955 0.8954 0.8952
851.000000 0.8951 0.8950 0.8948 0.8944 0.8939
856.000000 0.8934 0.8928 0.8915 0.8901 0.8886
861.000000 0.8864 0.8841 0.8814 0.8787 0.8759
866.000000 0.8731 0.8718 0.8718 0.8718 0.8712
871.000000 0.8746 0.8774 0.8817 0.8864 0.8874
876.000000 0.8874 0.8878 0.8865 0.8837 0.8767
881.000000 0.8681 0.8634 0.8620 0.8608 0.8642
886.000000 0.8671 0.8718 0.8768 0.8812 0.8851
891.000000 0.8885 0.8917 0.8939 0.8961 0.8982
896.000000 0.8982 0.8982 0.8981 0.8974 0.8967
901.000000 0.8958 0.8947 0.8938 0.8931 0.8923
906.000000 0.8916 0.8908 0.8901 0.8895 0.8889
911.000000 0.8884 0.8878 0.8873 0.8868 0.8871
916.000000 0.8875 0.8878 0.8883 0.8892 0.8905
921.000000 0.8917 0.8930 0.8949 0.8968 0.8986
926.000000 0.8999 0.9011 0.9024 0.9035 0.9047
931.000000 0.9058 0.9067 0.9075 0.9077 0.9077
936.000000 0.9077 0.9077 0.9077 0.9077 0.9077
941.000000 0.9077 0.9077 0.9077 0.9077 0.9077
946.000000 0.9077 0.9077 0.9077 0.9078 0.9078
951.000000 0.9078 0.9080 0.9080 0.9081 0.9081
956.000000 0.9082 0.9083 0.9083 0.9083 0.9083
961.000000 0.9083 0.9082 0.9081 0.9080 0.9080
966.000000 0.9078 0.9078 0.9078 0.9077 0.9075
971.000000 0.9075 0.9075 0.9077 0.9077 0.9077
976.000000 0.9078 0.9078 0.9078 0.9078 0.9078
981.000000 0.9078 0.9078 0.9078 0.9078 0.9078
986.000000 0.9078 0.9078 0.9078 0.9078 0.9078
991.000000 0.9078 0.9078 0.9078 0.9077 0.9075
996.000000 0.9074 0.9071 0.9071 0.9068 0.9068
1001.000000 0.9066 0.9065 0.9063 0.9060 0.9057
1006.000000 0.9054 0.9051 0.9048 0.9044 0.9041
1011.000000 0.9039 0.9037 0.9035 0.9033 0.9031
1016.000000 0.9028 0.9027 0.9027 0.9027 0.9030
1021.000000 0.9032 0.9039 0.9046 0.9053 0.9057
1026.000000 0.9059 0.9061 0.9062 0.9062 0.9061
1031.000000 0.9060 0.9058 0.9057 0.9056 0.9055
1036.000000 0.9053 0.9050 0.9048 0.9046 0.9044
1041.000000 0.9042 0.9040 0.9038 0.9036 0.9034
1046.000000 0.9031 0.9028 0.9025 0.9021 0.9018
1051.000000 0.9015 0.9011 0.9008 0.9005 0.9001
1056.000000 0.8997 0.8993 0.8988 0.8984 0.8980
1061.000000 0.8975 0.8971 0.8967 0.8963 0.8957
1066.000000 0.8952 0.8947 0.8942 0.8936 0.8931
1071.000000 0.8925 0.8921 0.8918 0.8918 0.8918
1076.000000 0.8918 0.8918 0.8918 0.8918 0.8924
1081.000000 0.8931 0.8938 0.8944 0.8949 0.8954
1086.000000 0.8959 0.8963 0.8966 0.8968 0.8970
1091.000000 0.8971 0.8974 0.8975 0.8978 0.8980
1096.000000 0.8981 0.8983 0.8984 0.8985 0.8986
1101.000000 0.8988 0.8988 0.8989 0.8990 0.8991
1106.000000 0.8991 0.8993 0.8998 0.9002 0.9007
1111.000000 0.9011 0.9016 0.9021 0.9025 0.9031
1116.000000 0.9035 0.9040 0.9045 0.9049 0.9048
1121.000000 0.9047 0.9046 0.9046 0.9046 0.9047
1126.000000 0.9048 0.9049 0.9052 0.9054 0.9056
1131.000000 0.9057 0.9057 0.9054 0.9051 0.9047
1136.000000 0.9042 0.9035 0.9027 0.9020 0.9013
1141.000000 0.9009 0.9005 0.9004 0.9004 0.9005
1146.000000 0.9007 0.9009 0.9012 0.9015 0.9017
1151.000000 0.9020 0.9023 0.9025 0.9028 0.9032
1156.000000 0.9035 0.9038 0.9041 0.9043 0.9046
1161.000000 0.9049 0.9052 0.9055 0.9058 0.9062
1166.000000 0.9065 0.9068 0.9071 0.9070 0.9068
1171.000000 0.9068 0.9068 0.9065 0.9060 0.9055
1176.000000 0.9048 0.9035 0.9023 0.9010 0.9010
1181.000000 0.9009 0.9021 0.9033 0.9047 0.9060
1186.000000 0.9070 0.9078 0.9083 0.9086 0.9087
1191.000000 0.9088 0.9088 0.9089 0.9090 0.9090
1196.000000 0.9091 0.9092 0.9092 0.9093 0.9094
1201.000000 0.9094 0.9095 0.9096 0.9097 0.9097
1206.000000 0.9098 0.9099 0.9099 0.9100 0.9101
1211.000000 0.9101 0.9102 0.9103 0.9103 0.9104
1216.000000 0.9105 0.9105 0.9106 0.9107 0.9107
1221.000000 0.9108 0.9109 0.9109 0.9110 0.9111
1226.000000 0.9112 0.9112 0.9111 0.9110 0.9109
1231.000000 0.9108 0.9108 0.9108 0.9108 0.9108
1236.000000 0.9097 0.9086 0.9074 0.9062 0.9050
1241.000000 0.9038 0.9025 0.9014 0.9002 0.8991
1246.000000 0.8980 0.8968 0.8962 0.8956 0.8950
1251.000000 0.8944 0.8938 0.8932 0.8928 0.8925
1256.000000 0.8921 0.8918 0.8916 0.8915 0.8915
1261.000000 0.8915 0.8915 0.8915 0.8917 0.8918
1266.000000 0.8918 0.8920 0.8921 0.8921 0.8921
1271.000000 0.8921 0.8921 0.8921 0.8921 0.8921
1276.000000 0.8921 0.8921 0.8921 0.8921 0.8920
1281.000000 0.8920 0.8918 0.8918 0.8918 0.8918
1286.000000 0.8918 0.8918 0.8920 0.8920 0.8920
1291.000000 0.8921 0.8921 0.8921 0.8921 0.8923
1296.000000 0.8924 0.8925 0.8927 0.8928 0.8928
1301.000000 0.8931 0.8932 0.8932 0.8931 0.8930
1306.000000 0.8928 0.8927 0.8925 0.8924 0.8921
1311.000000 0.8920 0.8918 0.8917 0.8916 0.8914
1316.000000 0.8913 0.8911 0.8910 0.8909 0.8907
1321.000000 0.8906 0.8904 0.8903 0.8902 0.8902
1326.000000 0.8902 0.8902 0.8902 0.8902 0.8901
1331.000000 0.8901 0.8900 0.8900 0.8899 0.8898
1336.000000 0.8898 0.8861 0.8816 0.8771 0.8725
1341.000000 0.8702 0.8812 0.8944 0.8946 0.8948
1346.000000 0.8951 0.8956 0.8962 0.8968 0.8975
1351.000000 0.8983 0.8990 0.8999 0.9009 0.9018
1356.000000 0.9028 0.9039 0.9052 0.9063 0.9061
1361.000000 0.9060 0.9055 0.9047 0.9039 0.9031
1366.000000 0.9023 0.9014 0.9006 0.8996 0.8986
1371.000000 0.8975 0.8966 0.8953 0.8940 0.8925
1376.000000 0.8912 0.8898 0.8885 0.8871 0.8859
1381.000000 0.8848 0.8837 0.8825 0.8820 0.8816
1386.000000 0.8812 0.8808 0.8804 0.8800 0.8796
1391.000000 0.8795 0.8794 0.8794 0.8793 0.8793
1396.000000 0.8795 0.8798 0.8800 0.8802 0.8806
1401.000000 0.8810 0.8814 0.8818 0.8823 0.8828
1406.000000 0.8834 0.8840 0.8845 0.8850 0.8852
1411.000000 0.8854 0.8857 0.8859 0.8861 0.8863
1416.000000 0.8865 0.8867 0.8868 0.8871 0.8870
1421.000000 0.8868 0.8867 0.8864 0.8862 0.8859
1426.000000 0.8859 0.8859 0.8861 0.8864 0.8867
1431.000000 0.8868 0.8871 0.8873 0.8874 0.8875
1436.000000 0.8875 0.8875 0.8873 0.8868 0.8860
1441.000000 0.8850 0.8838 0.8827 0.8818 0.8812
1446.000000 0.8808 0.8805 0.8804 0.8801 0.8790
1451.000000 0.8774 0.8753 0.8725 0.8699 0.8671
1456.000000 0.8632 0.8594 0.8553 0.8504 0.8430
1461.000000 0.8324 0.8045 0.7938 0.7858 0.7771
1466.000000 0.7672 0.7537 0.7441 0.7357 0.7271
1471.000000 0.7176 0.6776 0.6360 0.5947 0.5601
1476.000000 0.5501 0.5426 0.5384 0.5364 0.5368
1481.000000 0.5375 0.5392 0.5428 0.5467 0.5492
1486.000000 0.5545 0.5846 0.6058 0.6051 0.6046
1491.000000 0.4864 0.3966 0.3682 0.3632 0.3603
1496.000000 0.3587 0.3570 0.3552 0.3534 0.3516
1501.000000 0.3400 0.2696 0.1993 0.0440 0.0272
1506.000000 0.0201 0.0115 0.0074 0.0051 0.0032
1511.000000 0.0012 0.0011 0.0011 0.0011 0.0011
1516.000000 0.0011 0.0011 0.0011 0.0011 0.0011
1521.000000 0.0011 0.0011 0.0011 0.0011 0.0011
1526.000000 0.0011 0.0011 0.0011 0.0011 0.0011
1531.000000 0.0011 0.0011 0.0011 0.0011 0.0011
1536.000000 0.0011 0.0011 0.0011 0.0011 0.0010
1541.000000 0.0010 0.0010 0.0010 0.0010 0.0010
1546.000000 0.0010 0.0010 0.0010 0.0010 0.0010
1551.000000 0.1604 0.3222 0.4840 0.6458 0.8075
1556.000000 0.8604 0.8668 0.8704 0.8732 0.8758
1561.000000 0.8778 0.8798 0.8809 0.8818 0.8830
1566.000000 0.8841 0.8852 0.8862 0.8870 0.8877
1571.000000 0.8883 0.8888 0.8891 0.8891 0.8890
1576.000000 0.8889 0.8886 0.8883 0.8878 0.8870
1581.000000 0.8861 0.8852 0.8845 0.8837 0.8832
1586.000000 0.8828 0.8825 0.8825 0.8825 0.8825
1591.000000 0.8827 0.8827 0.8828 0.8828 0.8828
1596.000000 0.8828 0.8828 0.8827 0.8825 0.8825
1601.000000 0.8824 0.8823 0.8821 0.8820 0.8818
1606.000000 0.8816 0.8814 0.8812 0.8810 0.8808
1611.000000 0.8806 0.8803 0.8801 0.8798 0.8796
1616.000000 0.8794 0.8792 0.8790 0.8788 0.8786
1621.000000 0.8784 0.8783 0.8781 0.8778 0.8777
1626.000000 0.8775 0.8775 0.8775 0.8775 0.8775
1631.000000 0.8775 0.8783 0.8791 0.8810 0.8821
1636.000000 0.8823 0.8815 0.8805 0.8791 0.8777
1641.000000 0.8762 0.8747 0.8736 0.8728 0.8728
1646.000000 0.8728 0.8730 0.8733 0.8735 0.8739
1651.000000 0.8743 0.8747 0.8750 0.8753 0.8757
1656.000000 0.8760 0.8762 0.8764 0.8767 0.8768
1661.000000 0.8771 0.8775 0.8780 0.8784 0.8788
1666.000000 0.8791 0.8794 0.8797 0.8799 0.8802
1671.000000 0.8806 0.8809 0.8812 0.8816 0.8818
1676.000000 0.8820 0.8820 0.8820 0.8820 0.8821
1681.000000 0.8825 0.8843 0.8868 0.8884 0.8880
1686.000000 0.8875 0.8871 0.8867 0.8863 0.8859
1691.000000 0.8853 0.8848 0.8843 0.8843 0.8844
1696.000000 0.8855 0.8866 0.8878 0.8895 0.8915
1701.000000 0.8938 0.8936 0.8925 0.8914 0.8904
1706.000000 0.8894 0.8883 0.8875 0.8870 0.8864
1711.000000 0.8865 0.8870 0.8887 0.8903 0.8920
1716.000000 0.8936 0.8942 0.8946 0.8940 0.8934
1721.000000 0.8928 0.8923 0.8915 0.8907 0.8898
1726.000000 0.8891 0.8886 0.8881 0.8877 0.8878
1731.000000 0.8880 0.8887 0.8902 0.8918 0.8939
1736.000000 0.8960 0.8958 0.8939 0.8921 0.8907
1741.000000 0.8900 0.8893 0.8888 0.8883 0.8878
1746.000000 0.8873 0.8871 0.8870 0.8868 0.8866
1751.000000 0.8863 0.8860 0.8857 0.8855 0.8852
1756.000000 0.8849 0.8846 0.8843 0.8840 0.8837
1761.000000 0.8834 0.8831 0.8828 0.8825 0.8824
1766.000000 0.8821 0.8820 0.8818 0.8820 0.8821
1771.000000 0.8823 0.8824 0.8827 0.8832 0.8838
1776.000000 0.8839 0.8834 0.8825 0.8815 0.8808
1781.000000 0.8803 0.8798 0.8794 0.8790 0.8790
1786.000000 0.8790 0.8793 0.8797 0.8804 0.8811
1791.000000 0.8818 0.8824 0.8828 0.8833 0.8833
1796.000000 0.8833 0.8830 0.8827 0.8823 0.8820
1801.000000 0.8817 0.8813 0.8809 0.8805 0.8800
1806.000000 0.8796 0.8792 0.8787 0.8783 0.8781
1811.000000 0.8778 0.8775 0.8774 0.8771 0.8771
1816.000000 0.8771 0.8774 0.8775 0.8775 0.8778
1821.000000 0.8778 0.8778 0.8780 0.8781 0.8782
1826.000000 0.8782 0.8783 0.8784 0.8784 0.8785
1831.000000 0.8786 0.8786 0.8786 0.8786 0.8786
1836.000000 0.8785 0.8785 0.8786 0.8791 0.8795
1841.000000 0.8799 0.8804 0.8803 0.8800 0.8797
1846.000000 0.8793 0.8789 0.8786 0.8784 0.8784
1851.000000 0.8783 0.8782 0.8780 0.8778 0.8777
1856.000000 0.8775 0.8773 0.8771 0.8768 0.8767
1861.000000 0.8766 0.8766 0.8766 0.8766 0.8766
1866.000000 0.8766 0.8766 0.8766 0.8766 0.8767
1871.000000 0.8767 0.8767 0.8768 0.8768 0.8768
1876.000000 0.8768 0.8768 0.8770 0.8770 0.8771
1881.000000 0.8771 0.8771 0.8771 0.8771 0.8771
1886.000000 0.8771 0.8771 0.8771 0.8771 0.8771
1891.000000 0.8770 0.8770 0.8768 0.8768 0.8768
1896.000000 0.8767 0.8766 0.8765 0.8764 0.8764
1901.000000 0.8763 0.8762 0.8761 0.8760 0.8759
1906.000000 0.8758 0.8757 0.8757 0.8758 0.8759
1911.000000 0.8760 0.8761 0.8761 0.8762 0.8763
1916.000000 0.8764 0.8765 0.8766 0.8767 0.8768
1921.000000 0.8768 0.8770 0.8771 0.8771 0.8771
1926.000000 0.8771 0.8771 0.8771 0.8771 0.8771
1931.000000 0.8771 0.8771 0.8771 0.8771 0.8771
1936.000000 0.8771 0.8771 0.8773 0.8773 0.8773
1941.000000 0.8774 0.8774 0.8774 0.8775 0.8775
1946.000000 0.8775 0.8775 0.8775 0.8775 0.8777
1951.000000 0.8777 0.8777 0.8778 0.8778 0.8778
1956.000000 0.8778 0.8778 0.8781 0.8782 0.8783
1961.000000 0.8784 0.8786 0.8786 0.8786 0.8785
1966.000000 0.8785 0.8785 0.8784 0.8784 0.8783
1971.000000 0.8783 0.8783 0.8782 0.8781 0.8780
1976.000000 0.8778 0.8778 0.8777 0.8775 0.8774
1981.000000 0.8773 0.8771 0.8771 0.8770 0.8768
1986.000000 0.8768 0.8767 0.8767 0.8768 0.8768
1991.000000 0.8770 0.8771 0.8771 0.8773 0.8774
1996.000000 0.8775 0.8775 0.8777 0.8778 0.8778
2001.000000 0.8778 0.8780 0.8780 0.8781 0.8781
2006.000000 0.8782 0.8782 0.8783 0.8783 0.8784
2011.000000 0.8784 0.8785 0.8785 0.8785 0.8785
2016.000000 0.8785 0.8785 0.8785 0.8785 0.8785
2021.000000 0.8785 0.8785 0.8785 0.8785 0.8785
2026.000000 0.8785 0.8785 0.8785 0.8785 0.8785
2031.000000 0.8785 0.8785 0.8784 0.8784 0.8783
2036.000000 0.8783 0.8782 0.8781 0.8780 0.8780
2041.000000 0.8778 0.8778 0.8777 0.8777 0.8775
2046.000000 0.8775 0.8775 0.8774 0.8773 0.8773
2051.000000 0.8771 0.8771 0.8770 0.8770 0.8768
2056.000000 0.8768 0.8767 0.8767 0.8766 0.8765
2061.000000 0.8764 0.8764 0.8763 0.8762 0.8761
2066.000000 0.8761 0.8761 0.8761 0.8760 0.8760
2071.000000 0.8760 0.8760 0.8759 0.8759 0.8759
2076.000000 0.8759 0.8758 0.8758 0.8758 0.8758
2081.000000 0.8757 0.8757 0.8755 0.8754 0.8753
2086.000000 0.8752 0.8751 0.8750 0.8748 0.8747
2091.000000 0.8746 0.8745 0.8743 0.8742 0.8741
2096.000000 0.8740 0.8739 0.8738 0.8736 0.8734
2101.000000 0.8732 0.8731 0.8728 0.8728 0.8725
2106.000000 0.8725 0.8723 0.8721 0.8720 0.8718
2111.000000 0.8716 0.8714 0.8711 0.8709 0.8706
2116.000000 0.8704 0.8701 0.8698 0.8694 0.8690
2121.000000 0.8685 0.8680 0.8674 0.8668 0.8663
2126.000000 0.8658 0.8650 0.8643 0.8635 0.8628
2131.000000 0.8611 0.8595 0.8583 0.8571 0.8565
2136.000000 0.8559 0.8555 0.8551 0.8546 0.8542
2141.000000 0.8537 0.8532 0.8495 0.8458 0.8411
2146.000000 0.8365 0.8335 0.8305 0.8271 0.8240
2151.000000 0.8206 0.8172 0.8121 0.8071 0.7986
2156.000000 0.7901 0.7595 0.7290 0.7071 0.6851
2161.000000 0.6734 0.6617 0.6510 0.6403 0.6226
2166.000000 0.6050 0.5773 0.5497 0.5220 0.4943
2171.000000 0.4699 0.4456 0.4457 0.4458 0.4601
2176.000000 0.4744 0.4805 0.4866 0.4423 0.3980
2181.000000 0.3362 0.2746 0.2608 0.2440 0.2682
2186.000000 0.2893 0.3454 0.4014 0.4576 0.5138
2191.000000 0.5699 0.6260 0.6571 0.6875 0.6769
2196.000000 0.6657 0.4541 0.2394 0.2422 0.2420
2201.000000 0.3098 0.3777 0.5054 0.6331 0.7537
2206.000000 0.8744 0.8758 0.8773 0.8778 0.8786
2211.000000 0.8788 0.8791 0.8791 0.8791 0.8790
2216.000000 0.8790 0.8789 0.8789 0.8788 0.8788
2221.000000 0.8787 0.8787 0.8785 0.8784 0.8783
2226.000000 0.8782 0.8780 0.8778 0.8778 0.8777
2231.000000 0.8775 0.8775 0.8774 0.8773 0.8771
2236.000000 0.8771 0.8770 0.8768 0.8768 0.8767
2241.000000 0.8766 0.8765 0.8764 0.8763 0.8763
2246.000000 0.8763 0.8763 0.8763 0.8763 0.8763
2251.000000 0.8763 0.8763 0.8763 0.8763 0.8763
2256.000000 0.8763 0.8763 0.8763 0.8763 0.8763
2261.000000 0.8763 0.8763 0.8764 0.8765 0.8765
2266.000000 0.8766 0.8767 0.8768 0.8768 0.8768
2271.000000 0.8770 0.8771 0.8771 0.8771 0.8773
2276.000000 0.8774 0.8774 0.8774 0.8773 0.8773
2281.000000 0.8771 0.8771 0.8771 0.8771 0.8771
2286.000000 0.8771 0.8768 0.8766 0.8763 0.8761
2291.000000 0.8758 0.8755 0.8750 0.8745 0.8737
2296.000000 0.8728 0.8720 0.8712 0.8702 0.8692
2301.000000 0.8682 0.8671 0.8658 0.8644 0.8621
2306.000000 0.8599 0.8566 0.8534 0.8494 0.8455
2311.000000 0.8410 0.8366 0.8301 0.8237 0.8133
2316.000000 0.8028 0.7924 0.7819 0.7715 0.7611
2321.000000 0.7556 0.7500 0.7499 0.7491 0.7524
2326.000000 0.7551 0.7661 0.7774 0.7886 0.7998
2331.000000 0.8037 0.8075 0.7940 0.8065 0.7541
2336.000000 0.7278 0.7265 0.7240 0.7251 0.7251
2341.000000 0.7458 0.7665 0.7876 0.8088 0.8299
2346.000000 0.8511 0.8697 0.8884 0.8892 0.8901
2351.000000 0.8908 0.8915 0.8918 0.8921 0.8925
2356.000000 0.8928 0.8928 0.8928 0.8928 0.8928
2361.000000 0.8925 0.8935 0.8923 0.8921 0.8918
2366.000000 0.8915 0.8910 0.8906 0.8901 0.8896
2371.000000 0.8891 0.8887 0.8881 0.8875 0.8868
2376.000000 0.8863 0.8857 0.8851 0.8846 0.8841
2381.000000 0.8836 0.8831 0.8828 0.8828 0.8825
2386.000000 0.8825 0.8823 0.8821 0.8820 0.8818
2391.000000 0.8818 0.8818 0.8817 0.8817 0.8816
2396.000000 0.8815 0.8814 0.8814 0.8814 0.8814
2401.000000 0.8813 0.8813 0.8812 0.8812 0.8811
2406.000000 0.8811 0.8810 0.8810 0.8809 0.8809
2411.000000 0.8808 0.8808 0.8807 0.8807 0.8807
2416.000000 0.8807 0.8806 0.8806 0.8805 0.8805
2421.000000 0.8804 0.8804 0.8803 0.8803 0.8803
2426.000000 0.8803 0.8803 0.8803 0.8803 0.8803
2431.000000 0.8803 0.8803 0.8803 0.8803 0.8803
2436.000000 0.8803 0.8803 0.8804 0.8804 0.8804
2441.000000 0.8804 0.8805 0.8805 0.8806 0.8806
2446.000000 0.8807 0.8807 0.8807 0.8807 0.8808
2451.000000 0.8808 0.8809 0.8809 0.8809 0.8809
2456.000000 0.8810 0.8810 0.8811 0.8811 0.8812
2461.000000 0.8812 0.8812 0.8812 0.8813 0.8813
2466.000000 0.8814 0.8814 0.8814 0.8814 0.8814
2471.000000 0.8814 0.8814 0.8814 0.8814 0.8813
2476.000000 0.8813 0.8813 0.8813 0.8813 0.8813
2481.000000 0.8812 0.8812 0.8812 0.8812 0.8812
