##TITLE=METHANE, TRIBROMO-
##JCAMP-DX=4.24
##DATA TYPE=INFRARED SPECTRUM
##CLASS=COBLENTZ III
##ORIGIN=DOW CHEMICAL COMPANY
##OWNER=COBLENTZ SOCIETY
Collection (C) 2018 copyright by the U.S. Secretary of Commerce
on behalf of the United States of America. All rights reserved.
##DATE=1977/03/11
##NAMES=bromoform
BROMOFORM
##CAS REGISTRY NO=75-25-2
##MOLFORM=C H Br3
##BP=150 C
##SOURCE REFERENCE=COBLENTZ NO. 10621
##$NIST SOURCE=COBLENTZ
##$NIST IMAGE=cob10621
##SPECTROMETER/DATA SYSTEM=PERKIN-ELMER 283
##STATE=LIQUID (NEAT)
##PATH LENGTH=0.01 CM CsI CELL
$$ SEE SPECTRUM NO. 10575 FOR "SOLUTION" STATE
##SAMPLING PROCEDURE=TRANSMISSION
##RESOLUTION=4
##DATA PROCESSING=DIGITIZED BY NIST FROM HARD COPY (FROM TWO SEGMENTS)
##XUNITS=1/CM
##YUNITS=TRANSMITTANCE
##XFACTOR=1.000000
##YFACTOR=1
##DELTAX=1.122810
##FIRSTX=206.877
##LASTX=4009.83
##FIRSTY=0.856
##MAXX=4009.83
##MINX=206.877
##MAXY=0.969
##MINY=0
##NPOINTS=3388
##XYDATA=(X++(Y..Y))
206.877000 0.8560 0.8600 0.8620 0.8610 0.8600
212.491050 0.8580 0.8510 0.8381 0.8181 0.7971
218.105100 0.7430 0.7430 0.7869 0.7910 0.8529
223.719150 0.8690 0.8849 0.8860 0.8870 0.8890
229.333200 0.8900 0.8920 0.9010 0.9050 0.9060
234.947250 0.9060 0.9080 0.9120 0.9150 0.9160
240.561300 0.9180 0.9200 0.9210 0.9210 0.9180
246.175350 0.9170 0.9180 0.9210 0.9250 0.9260
251.789400 0.9220 0.9220 0.9220 0.9220 0.9240
257.403450 0.9240 0.9250 0.9250 0.9250 0.9250
263.017500 0.9240 0.9240 0.9220 0.9210 0.9210
268.631550 0.9200 0.9200 0.9210 0.9210 0.9220
274.245600 0.9250 0.9250 0.9280 0.9280 0.9290
279.859650 0.9290 0.9300 0.9310 0.9330 0.9340
285.473700 0.9340 0.9350 0.9360 0.9360 0.9380
291.087750 0.9390 0.9390 0.9400 0.9400 0.9400
296.701800 0.9410 0.9410 0.9430 0.9450 0.9460
302.315850 0.9470 0.9480 0.9480 0.9480 0.9470
307.929900 0.9470 0.9480 0.9480 0.9480 0.9480
313.543950 0.9480 0.9480 0.9490 0.9490 0.9500
319.158000 0.9500 0.9520 0.9530 0.9530 0.9530
324.772050 0.9530 0.9530 0.9540 0.9540 0.9540
330.386100 0.9530 0.9520 0.9520 0.9500 0.9520
336.000150 0.9530 0.9530 0.9540 0.9540 0.9550
341.614200 0.9550 0.9550 0.9550 0.9550 0.9550
347.228250 0.9550 0.9550 0.9560 0.9570 0.9570
352.842300 0.9560 0.9550 0.9540 0.9540 0.9520
358.456350 0.9520 0.9500 0.9480 0.9480 0.9450
364.070400 0.9430 0.9390 0.9360 0.9300 0.9220
369.684450 0.9150 0.9120 0.9120 0.9150 0.9160
375.298500 0.9180 0.9190 0.9190 0.9180 0.9170
380.912550 0.9150 0.9140 0.9140 0.9150 0.9190
386.526600 0.9270 0.9310 0.9390 0.9430 0.9480
392.140650 0.9490 0.9490 0.9500 0.9530 0.9530
397.754700 0.9520 0.9440 0.9400 0.9370 0.9350
403.368750 0.9340 0.9300 0.9290 0.9240 0.9210
408.982800 0.9200 0.9140 0.9010 0.8990 0.8870
414.596850 0.8790 0.8621 0.8401 0.8330 0.8250
420.210900 0.8040 0.7900 0.7770 0.7630 0.7510
425.824950 0.7380 0.7310 0.7270 0.7280 0.7310
431.439000 0.7370 0.7420 0.7510 0.7610 0.7710
437.053050 0.7760 0.7870 0.7970 0.8159 0.8488
442.667100 0.8610 0.8770 0.8890 0.8990 0.9070
448.281150 0.9120 0.9180 0.9240 0.9250 0.9250
453.895201 0.9250 0.9250 0.9250 0.9250 0.9240
459.509251 0.9220 0.9200 0.9190 0.9180 0.9170
465.123301 0.9150 0.9110 0.9090 0.9080 0.9060
470.737351 0.9060 0.9050 0.9050 0.9020 0.9010
476.351401 0.9000 0.8970 0.8910 0.8850 0.8750
481.965451 0.8680 0.8531 0.8430 0.8380 0.8310
487.579501 0.8210 0.8110 0.8010 0.7850 0.7760
493.193551 0.7720 0.7650 0.7600 0.7570 0.7570
498.807601 0.7600 0.7610 0.7650 0.7710 0.7760
504.421651 0.7800 0.7840 0.7930 0.7970 0.8020
510.035701 0.8110 0.8200 0.8250 0.8280 0.8280
515.649751 0.8280 0.8240 0.8220 0.8200 0.8150
521.263801 0.8120 0.8110 0.8090 0.8040 0.7930
526.877851 0.7840 0.7740 0.7630 0.7520 0.7052
532.491901 0.6560 0.6070 0.4791 0.3521 0.2252
538.105951 0.0973 0.0721 0.1677 0.2536 0.3595
543.720001 0.5000 0.5510 0.6780 0.7100 0.7240
549.334051 0.7350 0.7510 0.7600 0.7620 0.7630
554.948101 0.7630 0.7620 0.7580 0.7560 0.7480
560.562151 0.7360 0.7220 0.7061 0.6891 0.6890
566.176201 0.6930 0.7040 0.7160 0.7380 0.7540
571.790251 0.7610 0.7640 0.7640 0.7620 0.7600
577.404301 0.7570 0.7550 0.7510 0.7480 0.7420
583.018351 0.7350 0.7280 0.7220 0.7170 0.7090
588.632401 0.7040 0.6970 0.6850 0.6780 0.6670
594.246451 0.6610 0.6550 0.6490 0.6450 0.6012
599.860501 0.5530 0.5310 0.5000 0.4930 0.4850
605.474551 0.4621 0.4431 0.4201 0.3911 0.3532
611.088601 0.3380 0.3210 0.3010 0.2720 0.2530
616.702651 0.2201 0.1841 0.1461 0.0982 0.0662
622.316701 0.0500 0.0340 0.0130 0.0110 0.0080
627.930751 0.0070 0.0070 0.0070 0.0070 0.0060
633.544801 0.0060 0.0060 0.0060 0.0060 0.0060
639.158851 0.0050 0.0040 0.0040 0.0040 0.0040
644.772901 0.0050 0.0060 0.0060 0.0070 0.0070
650.386951 0.0070 0.0070 0.0060 0.0060 0.0060
656.001001 0.0060 0.0060 0.0060 0.0060 0.0060
661.615051 0.0070 0.0070 0.0070 0.0070 0.0070
667.229101 0.0070 0.0070 0.0070 0.0080 0.0100
672.843151 0.0100 0.0120 0.0160 0.0200 0.0230
678.457201 0.0290 0.0300 0.0300 0.0270 0.0250
684.071251 0.0210 0.0170 0.0120 0.0100 0.0080
689.685301 0.0100 0.0110 0.0160 0.0180 0.0230
695.299351 0.0320 0.0430 0.0540 0.0689 0.0929
700.913401 0.2380 0.2480 0.2710 0.3420 0.3829
706.527451 0.4429 0.4629 0.5238 0.5399 0.5539
712.141501 0.5680 0.5730 0.5750 0.5780 0.5800
717.755551 0.5820 0.5830 0.5840 0.5830 0.5810
723.369601 0.5780 0.5690 0.5540 0.5390 0.5170
728.983651 0.5030 0.4940 0.4850 0.4790 0.4770
734.597701 0.4750 0.4740 0.4600 0.4430 0.4240
740.211751 0.4040 0.3701 0.3341 0.2991 0.2472
745.825801 0.2470 0.2500 0.2600 0.2720 0.2860
751.439851 0.3349 0.3709 0.3899 0.4049 0.4219
757.053901 0.4400 0.4550 0.4690 0.5000 0.5240
762.667951 0.5489 0.5640 0.5869 0.6109 0.6369
768.282001 0.7140 0.7340 0.7930 0.8370 0.8500
773.896051 0.8670 0.8780 0.8880 0.8980 0.9000
779.510101 0.9060 0.9090 0.9100 0.9120 0.9140
785.124151 0.9140 0.9140 0.9150 0.9160 0.9170
790.738201 0.9180 0.9180 0.9160 0.9150 0.9120
796.352251 0.9100 0.9050 0.9020 0.9010 0.8970
801.966301 0.8950 0.8950 0.8960 0.8970 0.8980
807.580351 0.9000 0.9040 0.9080 0.9110 0.9160
813.194401 0.9180 0.9200 0.9250 0.9280 0.9300
818.808451 0.9330 0.9390 0.9440 0.9470 0.9480
824.422501 0.9480 0.9490 0.9490 0.9490 0.9490
830.036551 0.9490 0.9490 0.9480 0.9480 0.9470
835.650601 0.9460 0.9460 0.9440 0.9430 0.9410
841.264651 0.9390 0.9360 0.9330 0.9300 0.9290
846.878701 0.9280 0.9270 0.9270 0.9270 0.9260
852.492751 0.9200 0.9160 0.9110 0.9070 0.9000
858.106801 0.8980 0.8910 0.8880 0.8780 0.8690
863.720851 0.8590 0.8490 0.8410 0.8370 0.8310
869.334901 0.8270 0.8200 0.8130 0.8110 0.8110
874.948951 0.8120 0.8130 0.8160 0.8190 0.8210
880.563001 0.8250 0.8440 0.8500 0.8580 0.8620
886.177051 0.8730 0.8820 0.8950 0.9050 0.9170
891.791101 0.9200 0.9290 0.9370 0.9400 0.9450
897.405151 0.9480 0.9500 0.9530 0.9540 0.9540
903.019201 0.9540 0.9540 0.9530 0.9530 0.9520
908.633251 0.9520 0.9500 0.9500 0.9500 0.9520
914.247301 0.9520 0.9520 0.9520 0.9530 0.9530
919.861351 0.9530 0.9530 0.9540 0.9540 0.9550
925.475401 0.9550 0.9550 0.9560 0.9560 0.9560
931.089451 0.9560 0.9570 0.9570 0.9580 0.9580
936.703502 0.9580 0.9580 0.9580 0.9580 0.9580
942.317552 0.9580 0.9580 0.9580 0.9570 0.9570
947.931602 0.9570 0.9560 0.9570 0.9580 0.9580
953.545652 0.9580 0.9580 0.9570 0.9570 0.9570
959.159702 0.9570 0.9580 0.9590 0.9590 0.9600
964.773752 0.9600 0.9600 0.9600 0.9600 0.9600
970.387802 0.9600 0.9600 0.9600 0.9590 0.9590
976.001852 0.9580 0.9580 0.9580 0.9580 0.9590
981.615902 0.9590 0.9590 0.9590 0.9590 0.9590
987.229952 0.9590 0.9600 0.9600 0.9590 0.9590
992.844002 0.9580 0.9580 0.9570 0.9570 0.9570
998.458052 0.9570 0.9570 0.9570 0.9570 0.9570
1004.072102 0.9570 0.9570 0.9570 0.9570 0.9570
1009.686152 0.9570 0.9570 0.9570 0.9570 0.9560
1015.300202 0.9540 0.9520 0.9500 0.9490 0.9480
1020.914252 0.9470 0.9470 0.9460 0.9450 0.9440
1026.528302 0.9440 0.9430 0.9430 0.9410 0.9410
1032.142352 0.9400 0.9400 0.9400 0.9400 0.9400
1037.756402 0.9400 0.9400 0.9410 0.9410 0.9410
1043.370452 0.9430 0.9430 0.9430 0.9410 0.9410
1048.984502 0.9410 0.9400 0.9390 0.9380 0.9360
1054.598552 0.9340 0.9310 0.9290 0.9280 0.9280
1060.212602 0.9270 0.9210 0.9180 0.9120 0.9080
1065.826652 0.9010 0.8980 0.8900 0.8850 0.8750
1071.440702 0.8690 0.8590 0.8470 0.8390 0.8350
1077.054752 0.8310 0.8240 0.8200 0.8190 0.8130
1082.668802 0.8080 0.8010 0.7970 0.7910 0.7820
1088.282852 0.7710 0.7610 0.7500 0.7380 0.7231
1093.896902 0.7090 0.6930 0.6800 0.6680 0.6620
1099.510952 0.6560 0.6350 0.6121 0.5881 0.5651
1105.125002 0.5520 0.5370 0.5180 0.5050 0.4920
1110.739052 0.4441 0.4200 0.3821 0.3611 0.3471
1116.353102 0.3309 0.3040 0.2720 0.2550 0.1840
1121.967152 0.1570 0.1291 0.0811 0.0521 0.0371
1127.581202 0.0200 0.0110 0.0050 0.0030 0.0020
1133.195252 0.0010 0.0000 0.0000 0.0000 0.0010
1138.809302 0.0010 0.0030 0.0030 0.0010 0.0000
1144.423352 0.0000 0.0000 0.0010 0.0020 0.0030
1150.037402 0.0040 0.0060 0.0080 0.0110 0.0120
1155.651452 0.0160 0.0220 0.0310 0.0420 0.0540
1161.265502 0.0630 0.0840 0.0940 0.1100 0.1280
1166.879552 0.1889 0.2020 0.2429 0.2550 0.2809
1172.493602 0.3410 0.3590 0.3800 0.3950 0.4190
1178.107652 0.4310 0.4500 0.4620 0.4790 0.4999
1183.721702 0.5000 0.5000 0.4980 0.4970 0.4930
1189.335752 0.4870 0.4820 0.4820 0.4870 0.5049
1194.949802 0.5311 0.5521 0.5940 0.6220 0.6880
1200.563852 0.7090 0.7260 0.7330 0.7420 0.7580
1206.177902 0.7660 0.7740 0.7800 0.7810 0.7820
1211.791952 0.7820 0.7800 0.7790 0.7790 0.7800
1217.406002 0.7840 0.7970 0.8100 0.8380 0.8520
1223.020052 0.8600 0.8680 0.8700 0.8790 0.8800
1228.634102 0.8850 0.8880 0.8900 0.8980 0.8990
1234.248152 0.8990 0.9010 0.9080 0.9100 0.9110
1239.862202 0.9140 0.9150 0.9150 0.9150 0.9150
1245.476252 0.9160 0.9180 0.9180 0.9190 0.9190
1251.090302 0.9200 0.9200 0.9200 0.9200 0.9190
1256.704352 0.9180 0.9180 0.9170 0.9140 0.9120
1262.318402 0.9100 0.9080 0.9050 0.9000 0.8990
1267.932452 0.8950 0.8900 0.8850 0.8780 0.8720
1273.546502 0.8690 0.8610 0.8520 0.8480 0.8400
1279.160552 0.8330 0.8250 0.8100 0.7891 0.7741
1284.774602 0.7509 0.7259 0.6960 0.6720 0.6560
1290.388652 0.6380 0.5911 0.5551 0.5351 0.5220
1296.002702 0.5120 0.5110 0.5120 0.5230 0.5340
1301.616752 0.5530 0.5710 0.5800 0.5900 0.6000
1307.230802 0.6090 0.6190 0.6220 0.6290 0.6330
1312.844852 0.6400 0.6450 0.6510 0.6580 0.6710
1318.458902 0.6810 0.6910 0.7040 0.7150 0.7260
1324.072952 0.7370 0.7500 0.7620 0.7760 0.7820
1329.687002 0.7920 0.8020 0.8160 0.8210 0.8390
1335.301052 0.8480 0.8500 0.8510 0.8590 0.8610
1340.915102 0.8630 0.8640 0.8680 0.8710 0.8770
1346.529152 0.8800 0.8850 0.8860 0.8890 0.8930
1352.143202 0.8970 0.8980 0.8990 0.8990 0.8980
1357.757252 0.8980 0.8980 0.8990 0.9020 0.9080
1363.371302 0.9090 0.9120 0.9160 0.9190 0.9210
1368.985352 0.9280 0.9300 0.9380 0.9410 0.9430
1374.599402 0.9450 0.9480 0.9520 0.9540 0.9550
1380.213452 0.9560 0.9580 0.9580 0.9550 0.9550
1385.827502 0.9540 0.9540 0.9550 0.9570 0.9580
1391.441552 0.9580 0.9590 0.9590 0.9600 0.9600
1397.055602 0.9600 0.9590 0.9590 0.9590 0.9590
1402.669652 0.9590 0.9590 0.9580 0.9580 0.9580
1408.283702 0.9580 0.9570 0.9570 0.9570 0.9570
1413.897752 0.9570 0.9570 0.9570 0.9570 0.9580
1419.511803 0.9580 0.9580 0.9590 0.9600 0.9600
1425.125853 0.9620 0.9620 0.9600 0.9590 0.9590
1430.739903 0.9590 0.9590 0.9600 0.9600 0.9600
1436.353953 0.9590 0.9590 0.9590 0.9590 0.9580
1441.968003 0.9580 0.9590 0.9590 0.9580 0.9580
1447.582053 0.9570 0.9570 0.9570 0.9570 0.9570
1453.196103 0.9570 0.9580 0.9600 0.9620 0.9620
1458.810153 0.9600 0.9600 0.9590 0.9590 0.9590
1464.424203 0.9590 0.9590 0.9580 0.9580 0.9580
1470.038253 0.9590 0.9590 0.9600 0.9600 0.9600
1475.652303 0.9600 0.9620 0.9620 0.9620 0.9630
1481.266353 0.9640 0.9640 0.9630 0.9630 0.9630
1486.880403 0.9630 0.9630 0.9630 0.9640 0.9640
1492.494453 0.9650 0.9650 0.9660 0.9660 0.9660
1498.108503 0.9660 0.9660 0.9650 0.9650 0.9650
1503.722553 0.9650 0.9650 0.9650 0.9650 0.9650
1509.336603 0.9650 0.9650 0.9650 0.9640 0.9640
1514.950653 0.9640 0.9640 0.9640 0.9650 0.9650
1520.564703 0.9650 0.9660 0.9660 0.9660 0.9660
1526.178753 0.9660 0.9660 0.9660 0.9650 0.9650
1531.792803 0.9650 0.9640 0.9640 0.9650 0.9650
1537.406853 0.9660 0.9660 0.9670 0.9670 0.9670
1543.020903 0.9670 0.9670 0.9670 0.9670 0.9670
1548.634953 0.9670 0.9670 0.9670 0.9670 0.9670
1554.249003 0.9670 0.9660 0.9660 0.9660 0.9660
1559.863053 0.9650 0.9640 0.9640 0.9640 0.9640
1565.477103 0.9640 0.9640 0.9640 0.9630 0.9630
1571.091153 0.9630 0.9620 0.9620 0.9620 0.9600
1576.705203 0.9600 0.9600 0.9590 0.9590 0.9580
1582.319253 0.9560 0.9530 0.9500 0.9490 0.9410
1587.933303 0.9370 0.9280 0.9190 0.9100 0.9020
1593.547353 0.8960 0.8880 0.8860 0.8860 0.8870
1599.161403 0.8890 0.8960 0.9000 0.9080 0.9140
1604.775453 0.9200 0.9280 0.9310 0.9370 0.9410
1610.389503 0.9470 0.9490 0.9500 0.9540 0.9570
1616.003553 0.9580 0.9590 0.9590 0.9600 0.9620
1621.617603 0.9620 0.9620 0.9630 0.9630 0.9640
1627.231653 0.9640 0.9640 0.9650 0.9650 0.9650
1632.845703 0.9650 0.9650 0.9650 0.9650 0.9650
1638.459753 0.9650 0.9650 0.9650 0.9650 0.9650
1644.073803 0.9640 0.9640 0.9640 0.9640 0.9640
1649.687853 0.9630 0.9630 0.9630 0.9630 0.9630
1655.301903 0.9630 0.9630 0.9630 0.9630 0.9640
1660.915953 0.9640 0.9640 0.9630 0.9630 0.9620
1666.530003 0.9620 0.9620 0.9620 0.9600 0.9590
1672.144053 0.9590 0.9590 0.9590 0.9590 0.9590
1677.758103 0.9590 0.9580 0.9580 0.9570 0.9570
1683.372153 0.9570 0.9570 0.9570 0.9570 0.9570
1688.986203 0.9580 0.9600 0.9620 0.9620 0.9630
1694.600253 0.9630 0.9630 0.9630 0.9630 0.9630
1700.214303 0.9630 0.9630 0.9630 0.9620 0.9620
1705.828353 0.9600 0.9600 0.9600 0.9600 0.9600
1711.442403 0.9600 0.9600 0.9600 0.9600 0.9600
1717.056453 0.9600 0.9600 0.9600 0.9600 0.9600
1722.670503 0.9600 0.9620 0.9620 0.9630 0.9630
1728.284553 0.9640 0.9640 0.9640 0.9640 0.9640
1733.898603 0.9640 0.9640 0.9640 0.9640 0.9640
1739.512653 0.9630 0.9630 0.9630 0.9630 0.9640
1745.126703 0.9640 0.9650 0.9650 0.9650 0.9660
1750.740753 0.9660 0.9660 0.9660 0.9660 0.9660
1756.354803 0.9660 0.9660 0.9650 0.9650 0.9650
1761.968853 0.9640 0.9640 0.9630 0.9630 0.9630
1767.582903 0.9630 0.9620 0.9620 0.9620 0.9620
1773.196953 0.9620 0.9600 0.9600 0.9600 0.9590
1778.811003 0.9590 0.9580 0.9580 0.9580 0.9580
1784.425053 0.9570 0.9560 0.9550 0.9550 0.9540
1790.039103 0.9540 0.9530 0.9530 0.9520 0.9520
1795.653153 0.9520 0.9520 0.9520 0.9530 0.9530
1801.267203 0.9530 0.9530 0.9540 0.9540 0.9540
1806.881253 0.9550 0.9550 0.9560 0.9570 0.9580
1812.495303 0.9580 0.9590 0.9590 0.9600 0.9600
1818.109353 0.9620 0.9630 0.9630 0.9640 0.9640
1823.723403 0.9640 0.9640 0.9640 0.9640 0.9650
1829.337453 0.9650 0.9650 0.9650 0.9650 0.9650
1834.951503 0.9650 0.9650 0.9650 0.9650 0.9650
1840.565553 0.9660 0.9660 0.9660 0.9660 0.9670
1846.179603 0.9670 0.9670 0.9680 0.9680 0.9680
1851.793653 0.9680 0.9680 0.9680 0.9680 0.9680
1857.407703 0.9680 0.9680 0.9670 0.9670 0.9670
1863.021753 0.9670 0.9670 0.9670 0.9670 0.9670
1868.635803 0.9670 0.9670 0.9670 0.9670 0.9670
1874.249853 0.9670 0.9670 0.9670 0.9670 0.9670
1879.863903 0.9670 0.9670 0.9680 0.9680 0.9680
1885.477953 0.9680 0.9680 0.9680 0.9680 0.9680
1891.092003 0.9680 0.9680 0.9680 0.9680 0.9680
1896.706053 0.9680 0.9680 0.9670 0.9670 0.9670
1902.320103 0.9670 0.9670 0.9660 0.9660 0.9660
1907.934154 0.9660 0.9660 0.9660 0.9650 0.9650
1913.548204 0.9650 0.9650 0.9640 0.9640 0.9640
1919.162254 0.9630 0.9630 0.9630 0.9630 0.9630
1924.776304 0.9630 0.9620 0.9620 0.9620 0.9620
1930.390354 0.9620 0.9620 0.9600 0.9600 0.9590
1936.004404 0.9590 0.9590 0.9590 0.9590 0.9600
1941.618454 0.9600 0.9620 0.9620 0.9620 0.9630
1947.232504 0.9630 0.9630 0.9630 0.9630 0.9630
1952.846554 0.9630 0.9630 0.9640 0.9640 0.9640
1958.460604 0.9640 0.9650 0.9650 0.9650 0.9650
1964.074654 0.9660 0.9660 0.9660 0.9660 0.9670
1969.688704 0.9670 0.9670 0.9670 0.9670 0.9670
1975.302754 0.9670 0.9670 0.9670 0.9670 0.9670
1980.916804 0.9670 0.9670 0.9680 0.9680 0.9680
1986.530854 0.9670 0.9670 0.9670 0.9670 0.9680
1992.144904 0.9680 0.9680 0.9680 0.9680 0.9680
1997.758954 0.9680 0.9680 0.9680 0.9685 0.9690
2003.373004 0.9690 0.9690 0.9690 0.9690 0.9690
2008.987054 0.9690 0.9690 0.9690 0.9690 0.9690
2014.601104 0.9690 0.9690 0.9690 0.9690 0.9690
2020.215154 0.9690 0.9690 0.9690 0.9690 0.9690
2025.829204 0.9690 0.9690 0.9686 0.9681 0.9680
2031.443254 0.9680 0.9680 0.9680 0.9680 0.9680
2037.057304 0.9684 0.9689 0.9690 0.9690 0.9690
2042.671354 0.9690 0.9686 0.9681 0.9680 0.9680
2048.285404 0.9680 0.9680 0.9680 0.9680 0.9676
2053.899454 0.9671 0.9670 0.9670 0.9670 0.9670
2059.513504 0.9670 0.9670 0.9670 0.9670 0.9673
2065.127554 0.9678 0.9680 0.9680 0.9680 0.9680
2070.741604 0.9680 0.9680 0.9677 0.9672 0.9670
2076.355654 0.9670 0.9673 0.9678 0.9680 0.9680
2081.969704 0.9683 0.9688 0.9690 0.9690 0.9690
2087.583754 0.9690 0.9690 0.9690 0.9690 0.9690
2093.197804 0.9690 0.9690 0.9690 0.9690 0.9690
2098.811854 0.9690 0.9688 0.9683 0.9680 0.9680
2104.425904 0.9680 0.9680 0.9680 0.9680 0.9678
2110.039954 0.9673 0.9670 0.9670 0.9668 0.9663
2115.654004 0.9660 0.9660 0.9656 0.9646 0.9640
2121.268054 0.9640 0.9638 0.9633 0.9628 0.9623
2126.882104 0.9620 0.9620 0.9617 0.9607 0.9600
2132.496154 0.9600 0.9599 0.9594 0.9590 0.9590
2138.110204 0.9591 0.9596 0.9603 0.9613 0.9620
2143.724254 0.9620 0.9621 0.9626 0.9631 0.9636
2149.338304 0.9640 0.9640 0.9640 0.9640 0.9641
2154.952354 0.9646 0.9650 0.9650 0.9650 0.9650
2160.566404 0.9650 0.9650 0.9650 0.9650 0.9650
2166.180454 0.9650 0.9649 0.9644 0.9640 0.9640
2171.794504 0.9640 0.9640 0.9640 0.9640 0.9640
2177.408554 0.9635 0.9630 0.9625 0.9620 0.9610
2183.022604 0.9600 0.9600 0.9600 0.9595 0.9590
2188.636654 0.9590 0.9590 0.9585 0.9580 0.9575
2194.250704 0.9570 0.9565 0.9560 0.9555 0.9550
2199.864754 0.9545 0.9540 0.9531 0.9521 0.9502
2205.478804 0.9482 0.9466 0.9451 0.9423 0.9393
2211.092854 0.9368 0.9343 0.9310 0.9275 0.9240
2216.706904 0.9205 0.9166 0.9127 0.9062 0.8993
2222.320954 0.8944 0.8899 0.8846 0.8791 0.8740
2227.935004 0.8690 0.8601 0.8502 0.8445 0.8400
2233.549054 0.8352 0.8302 0.8197 0.8073 0.7956
2239.163104 0.7842 0.7691 0.7528 0.7297 0.7039
2244.777154 0.6850 0.6691 0.6527 0.6361 0.5885
2250.391204 0.5270 0.4959 0.4796 0.4625 0.4451
2256.005254 0.4390 0.4390 0.4462 0.4576 0.4694
2261.619304 0.4813 0.5013 0.5266 0.5528 0.5796
2267.233354 0.6076 0.6364 0.6569 0.6710 0.6790
2272.847404 0.6825 0.6846 0.6855 0.6865 0.6875
2278.461454 0.6880 0.6880 0.6883 0.6888 0.6895
2284.075504 0.6905 0.6927 0.6962 0.6994 0.7024
2289.689554 0.7072 0.7141 0.7202 0.7252 0.7322
2295.303604 0.7417 0.7520 0.7634 0.7780 0.7968
2300.917654 0.8100 0.8150 0.8211 0.8291 0.8359
2306.531704 0.8408 0.8464 0.8528 0.8580 0.8610
2312.145754 0.8643 0.8683 0.8725 0.8770 0.8815
2317.759804 0.8859 0.8901 0.8936 0.8965 0.8979
2323.373854 0.9001 0.9041 0.9074 0.9089 0.9110
2328.987904 0.9150 0.9184 0.9199 0.9218 0.9253
2334.601954 0.9289 0.9328 0.9364 0.9384 0.9403
2340.216004 0.9418 0.9434 0.9454 0.9471 0.9476
2345.830054 0.9480 0.9480 0.9481 0.9486 0.9490
2351.444104 0.9490 0.9491 0.9496 0.9500 0.9500
2357.058154 0.9500 0.9500 0.9500 0.9500 0.9500
2362.672204 0.9500 0.9500 0.9500 0.9500 0.9500
2368.286254 0.9500 0.9510 0.9520 0.9520 0.9520
2373.900304 0.9520 0.9520 0.9520 0.9520 0.9520
2379.514354 0.9520 0.9525 0.9530 0.9530 0.9530
2385.128404 0.9530 0.9530 0.9530 0.9530 0.9530
2390.742455 0.9530 0.9525 0.9520 0.9520 0.9520
2396.356505 0.9520 0.9520 0.9520 0.9520 0.9520
2401.970555 0.9520 0.9511 0.9502 0.9500 0.9500
2407.584605 0.9500 0.9500 0.9500 0.9500 0.9496
2413.198655 0.9491 0.9490 0.9490 0.9490 0.9490
2418.812705 0.9486 0.9481 0.9480 0.9480 0.9480
2424.426755 0.9480 0.9484 0.9489 0.9490 0.9490
2430.040805 0.9490 0.9490 0.9486 0.9481 0.9480
2435.654855 0.9480 0.9480 0.9480 0.9480 0.9480
2441.268905 0.9480 0.9480 0.9483 0.9488 0.9490
2446.882955 0.9490 0.9493 0.9498 0.9500 0.9500
2452.497005 0.9500 0.9500 0.9506 0.9516 0.9520
2458.111055 0.9520 0.9514 0.9504 0.9500 0.9500
2463.725105 0.9500 0.9500 0.9500 0.9500 0.9497
2469.339155 0.9492 0.9490 0.9490 0.9490 0.9490
2474.953205 0.9490 0.9490 0.9492 0.9497 0.9505
2480.567255 0.9515 0.9520 0.9520 0.9522 0.9527
2486.181305 0.9532 0.9537 0.9540 0.9540 0.9540
2491.795355 0.9540 0.9540 0.9540 0.9542 0.9547
