##TITLE=2-Bromopropane
##JCAMP-DX=4.24
$$ By DXEDIT 1.05 (RS McDonald)
##DATA TYPE=INFRARED SPECTRUM
##CLASS=COBLENTZ III
##ORIGIN=DOW CHEMICAL COMPANY
##OWNER=COPYRIGHT (C) 1988 by COBLENTZ SOCIETY INC.
Collection (C) 2018 copyright by the U.S. Secretary of Commerce
on behalf of the United States of America. All rights reserved.
##DATE=1963/01/03
##CAS REGISTRY NO=75-26-3
##MOLFORM=C3 H7 Br
##SOURCE REFERENCE=COBLENTZ NO. 6313
##$NIST SOURCE=COBLENTZ
##$NIST IMAGE=cob6313
##SPECTROMETER/DATA SYSTEM=DOW KBr FOREPRISM-GRATING
##INSTRUMENT PARAMETERS=BLAZED AT 3.5, 12.0, 20.0 MICRON AND CHANGED AT 5.0, 7.5, 14.9 MICRON
##STATE=SOLUTION (10% CCl4 FOR 3800-1340, 10% CS2 FOR 1340-400 CM^-^1)
##PATH LENGTH=0.011 CM, 0.011 CM
$$SPECTRAL CONTAMINATIONS DUE TO CS2 AROUND 400, 650, 850 AND CCl4 AROUND 1550 CM^-^1 HAVE BEEN SUBTRACTED
##SAMPLING PROCEDURE=TRANSMISSION
##RESOLUTION=2
##DATA PROCESSING=DIGITIZED BY COBLENTZ SOCIETY (BATCH I) FROM HARD COPY
##XUNITS=1/CM
##YUNITS=TRANSMITTANCE
##XFACTOR=1
##YFACTOR=1
##DELTAX=1
##FIRSTX=3806
##LASTX=382
##FIRSTY=0.8509
##MAXX=3806
##MINX=382
##MAXY=0.9523
##MINY=-0.0036
##NPOINTS=3425
##XYDATA=(X++(Y..Y))
3806.000000 0.8509 0.8510 0.8512 0.8513 0.8505
3801.000000 0.8505 0.8507 0.8509 0.8511 0.8514
3796.000000 0.8524 0.8518 0.8529 0.8531 0.8533
3791.000000 0.8534 0.8536 0.8536 0.8539 0.8541
3786.000000 0.8543 0.8543 0.8539 0.8535 0.8535
3781.000000 0.8545 0.8548 0.8539 0.8547 0.8546
3776.000000 0.8546 0.8535 0.8546 0.8546 0.8546
3771.000000 0.8545 0.8545 0.8543 0.8543 0.8543
3766.000000 0.8543 0.8543 0.8543 0.8542 0.8542
3761.000000 0.8542 0.8548 0.8546 0.8541 0.8539
3756.000000 0.8539 0.8539 0.8539 0.8539 0.8539
3751.000000 0.8538 0.8538 0.8536 0.8536 0.8536
3746.000000 0.8536 0.8536 0.8535 0.8534 0.8534
3741.000000 0.8533 0.8533 0.8536 0.8544 0.8544
3736.000000 0.8544 0.8542 0.8537 0.8530 0.8536
3731.000000 0.8540 0.8540 0.8540 0.8540 0.8539
3726.000000 0.8539 0.8538 0.8538 0.8537 0.8537
3721.000000 0.8537 0.8537 0.8525 0.8526 0.8536
3716.000000 0.8536 0.8535 0.8535 0.8535 0.8538
3711.000000 0.8542 0.8538 0.8544 0.8544 0.8544
3706.000000 0.8544 0.8543 0.8543 0.8543 0.8543
3701.000000 0.8542 0.8542 0.8542 0.8542 0.8541
3696.000000 0.8531 0.8529 0.8529 0.8529 0.8529
3691.000000 0.8528 0.8527 0.8526 0.8525 0.8522
3686.000000 0.8513 0.8512 0.8511 0.8510 0.8510
3681.000000 0.8509 0.8508 0.8507 0.8507 0.8506
3676.000000 0.8506 0.8505 0.8504 0.8503 0.8503
3671.000000 0.8502 0.8510 0.8501 0.8499 0.8498
3666.000000 0.8498 0.8497 0.8496 0.8495 0.8495
3661.000000 0.8493 0.8493 0.8492 0.8492 0.8492
3656.000000 0.8492 0.8490 0.8490 0.8490 0.8490
3651.000000 0.8490 0.8490 0.8490 0.8490 0.8490
3646.000000 0.8490 0.8490 0.8490 0.8490 0.8490
3641.000000 0.8490 0.8490 0.8490 0.8490 0.8490
3636.000000 0.8490 0.8489 0.8489 0.8491 0.8500
3631.000000 0.8500 0.8497 0.8489 0.8493 0.8500
3626.000000 0.8500 0.8499 0.8499 0.8499 0.8499
3621.000000 0.8499 0.8499 0.8499 0.8499 0.8499
3616.000000 0.8499 0.8499 0.8499 0.8499 0.8499
3611.000000 0.8499 0.8500 0.8499 0.8490 0.8500
3606.000000 0.8501 0.8501 0.8501 0.8497 0.8495
3601.000000 0.8503 0.8499 0.8493 0.8498 0.8504
3596.000000 0.8506 0.8506 0.8506 0.8506 0.8507
3591.000000 0.8507 0.8508 0.8508 0.8509 0.8509
3586.000000 0.8510 0.8510 0.8511 0.8511 0.8512
3581.000000 0.8512 0.8512 0.8512 0.8513 0.8513
3576.000000 0.8511 0.8506 0.8515 0.8515 0.8511
3571.000000 0.8505 0.8505 0.8505 0.8505 0.8505
3566.000000 0.8506 0.8506 0.8506 0.8506 0.8506
3561.000000 0.8506 0.8506 0.8506 0.8507 0.8507
3556.000000 0.8507 0.8517 0.8507 0.8508 0.8518
3551.000000 0.8518 0.8515 0.8510 0.8519 0.8519
3546.000000 0.8519 0.8514 0.8513 0.8519 0.8519
3541.000000 0.8519 0.8512 0.8515 0.8512 0.8517
3536.000000 0.8520 0.8520 0.8520 0.8520 0.8520
3531.000000 0.8520 0.8520 0.8508 0.8509 0.8509
3526.000000 0.8509 0.8509 0.8509 0.8509 0.8509
3521.000000 0.8509 0.8509 0.8509 0.8509 0.8509
3516.000000 0.8510 0.8510 0.8510 0.8510 0.8510
3511.000000 0.8510 0.8510 0.8510 0.8510 0.8510
3506.000000 0.8510 0.8510 0.8510 0.8510 0.8511
3501.000000 0.8511 0.8511 0.8511 0.8511 0.8511
3496.000000 0.8511 0.8511 0.8511 0.8511 0.8511
3491.000000 0.8511 0.8512 0.8512 0.8512 0.8512
3486.000000 0.8512 0.8512 0.8512 0.8512 0.8512
3481.000000 0.8512 0.8512 0.8512 0.8512 0.8512
3476.000000 0.8513 0.8513 0.8513 0.8513 0.8513
3471.000000 0.8513 0.8513 0.8513 0.8513 0.8513
3466.000000 0.8513 0.8513 0.8513 0.8513 0.8513
3461.000000 0.8513 0.8514 0.8514 0.8514 0.8514
3456.000000 0.8514 0.8514 0.8514 0.8514 0.8514
3451.000000 0.8514 0.8514 0.8514 0.8514 0.8514
3446.000000 0.8515 0.8515 0.8515 0.8515 0.8515
3441.000000 0.8515 0.8515 0.8515 0.8515 0.8515
3436.000000 0.8515 0.8515 0.8515 0.8515 0.8516
3431.000000 0.8516 0.8516 0.8516 0.8516 0.8516
3426.000000 0.8517 0.8507 0.8515 0.8517 0.8518
3421.000000 0.8518 0.8518 0.8518 0.8518 0.8518
3416.000000 0.8519 0.8519 0.8519 0.8519 0.8520
3411.000000 0.8520 0.8520 0.8520 0.8521 0.8526
3406.000000 0.8526 0.8521 0.8521 0.8521 0.8522
3401.000000 0.8522 0.8522 0.8521 0.8521 0.8521
3396.000000 0.8523 0.8522 0.8522 0.8522 0.8522
3391.000000 0.8522 0.8523 0.8523 0.8523 0.8523
3386.000000 0.8523 0.8523 0.8523 0.8523 0.8524
3381.000000 0.8524 0.8524 0.8524 0.8524 0.8524
3376.000000 0.8525 0.8525 0.8525 0.8525 0.8525
3371.000000 0.8525 0.8535 0.8526 0.8525 0.8525
3366.000000 0.8526 0.8526 0.8526 0.8526 0.8526
3361.000000 0.8526 0.8526 0.8526 0.8526 0.8526
3356.000000 0.8526 0.8526 0.8526 0.8526 0.8526
3351.000000 0.8526 0.8526 0.8526 0.8526 0.8526
3346.000000 0.8527 0.8536 0.8538 0.8529 0.8537
3341.000000 0.8528 0.8527 0.8526 0.8537 0.8537
3336.000000 0.8536 0.8526 0.8526 0.8525 0.8525
3331.000000 0.8525 0.8525 0.8525 0.8525 0.8524
3326.000000 0.8524 0.8524 0.8524 0.8524 0.8524
3321.000000 0.8523 0.8523 0.8523 0.8523 0.8522
3316.000000 0.8522 0.8521 0.8520 0.8519 0.8529
3311.000000 0.8528 0.8527 0.8526 0.8523 0.8514
3306.000000 0.8522 0.8521 0.8517 0.8508 0.8507
3301.000000 0.8506 0.8505 0.8504 0.8503 0.8502
3296.000000 0.8501 0.8500 0.8499 0.8498 0.8497
3291.000000 0.8496 0.8494 0.8492 0.8491 0.8489
3286.000000 0.8489 0.8488 0.8487 0.8497 0.8495
3281.000000 0.8484 0.8484 0.8492 0.8487 0.8477
3276.000000 0.8477 0.8481 0.8477 0.8473 0.8470
3271.000000 0.8466 0.8463 0.8460 0.8457 0.8453
3266.000000 0.8448 0.8445 0.8441 0.8438 0.8435
3261.000000 0.8432 0.8429 0.8426 0.8422 0.8419
3256.000000 0.8406 0.8413 0.8410 0.8407 0.8404
3251.000000 0.8401 0.8396 0.8393 0.8389 0.8386
3246.000000 0.8384 0.8375 0.8372 0.8375 0.8371
3241.000000 0.8368 0.8366 0.8363 0.8360 0.8357
3236.000000 0.8355 0.8352 0.8350 0.8346 0.8343
3231.000000 0.8340 0.8337 0.8334 0.8333 0.8328
3226.000000 0.8317 0.8316 0.8324 0.8323 0.8325
3221.000000 0.8326 0.8328 0.8329 0.8331 0.8332
3216.000000 0.8334 0.8334 0.8337 0.8339 0.8341
3211.000000 0.8343 0.8346 0.8348 0.8341 0.8341
3206.000000 0.8345 0.8347 0.8349 0.8351 0.8354
3201.000000 0.8356 0.8359 0.8369 0.8365 0.8374
3196.000000 0.8372 0.8383 0.8385 0.8389 0.8393
3191.000000 0.8396 0.8394 0.8398 0.8406 0.8409
3186.000000 0.8405 0.8404 0.8407 0.8411 0.8414
3181.000000 0.8415 0.8416 0.8417 0.8418 0.8419
3176.000000 0.8420 0.8421 0.8422 0.8422 0.8423
3171.000000 0.8423 0.8423 0.8422 0.8422 0.8421
3166.000000 0.8421 0.8420 0.8425 0.8430 0.8424
3161.000000 0.8424 0.8428 0.8424 0.8414 0.8415
3156.000000 0.8408 0.8402 0.8409 0.8408 0.8406
3151.000000 0.8400 0.8394 0.8388 0.8371 0.8365
3146.000000 0.8359 0.8354 0.8350 0.8348 0.8347
3141.000000 0.8348 0.8355 0.8353 0.8352 0.8351
3136.000000 0.8350 0.8349 0.8349 0.8349 0.8349
3131.000000 0.8349 0.8349 0.8347 0.8347 0.8347
3126.000000 0.8347 0.8347 0.8347 0.8346 0.8346
3121.000000 0.8346 0.8346 0.8346 0.8346 0.8345
3116.000000 0.8345 0.8345 0.8345 0.8345 0.8345
3111.000000 0.8343 0.8343 0.8343 0.8343 0.8349
3106.000000 0.8354 0.8353 0.8353 0.8351 0.8351
3101.000000 0.8351 0.8360 0.8362 0.8362 0.8371
3096.000000 0.8383 0.8393 0.8393 0.8391 0.8389
3091.000000 0.8380 0.8378 0.8366 0.8358 0.8360
3086.000000 0.8364 0.8350 0.8343 0.8343 0.8343
3081.000000 0.8343 0.8343 0.8342 0.8349 0.8360
3076.000000 0.8363 0.8362 0.8371 0.8371 0.8361
3071.000000 0.8357 0.8356 0.8343 0.8353 0.8340
3066.000000 0.8339 0.8338 0.8335 0.8324 0.8323
3061.000000 0.8320 0.8322 0.8327 0.8325 0.8319
3056.000000 0.8311 0.8314 0.8312 0.8305 0.8304
3051.000000 0.8309 0.8309 0.8304 0.8299 0.8292
3046.000000 0.8293 0.8288 0.8292 0.8296 0.8301
3041.000000 0.8305 0.8309 0.8302 0.8296 0.8287
3036.000000 0.8268 0.8252 0.8242 0.8220 0.8202
3031.000000 0.8189 0.8171 0.8152 0.8139 0.8112
3026.000000 0.8086 0.8057 0.8028 0.7998 0.7970
3021.000000 0.7911 0.7854 0.7801 0.7741 0.7677
3016.000000 0.7604 0.7526 0.7450 0.7368 0.7289
3011.000000 0.7229 0.7168 0.7109 0.7047 0.6868
3006.000000 0.6696 0.6605 0.6506 0.5947 0.5389
3001.000000 0.4600 0.3815 0.3026 0.2235 0.2140
2996.000000 0.2061 0.2043 0.2042 0.2045 0.2046
2991.000000 0.2073 0.2101 0.2153 0.2206 0.2258
2986.000000 0.2311 0.2362 0.2415 0.2468 0.2521
2981.000000 0.2573 0.2627 0.2677 0.2723 0.2736
2976.000000 0.2753 0.2775 0.2798 0.2822 0.2845
2971.000000 0.2966 0.3086 0.3230 0.3372 0.3515
2966.000000 0.3658 0.3799 0.3942 0.4083 0.4226
2961.000000 0.4367 0.4510 0.4658 0.4801 0.4936
2956.000000 0.5077 0.5219 0.5363 0.5511 0.5653
2951.000000 0.5795 0.5938 0.6080 0.6222 0.6360
2946.000000 0.6498 0.6602 0.6712 0.6712 0.6714
2941.000000 0.6711 0.6715 0.6715 0.6715 0.6525
2936.000000 0.6335 0.6117 0.5906 0.5694 0.5484
2931.000000 0.5274 0.5064 0.4852 0.4642 0.4432
2926.000000 0.4222 0.4010 0.3800 0.3772 0.3761
2921.000000 0.3735 0.3731 0.3750 0.3767 0.3907
2916.000000 0.4046 0.4185 0.4325 0.4463 0.4602
2911.000000 0.4742 0.4881 0.5020 0.5166 0.5305
2906.000000 0.5437 0.5576 0.5716 0.5855 0.5994
2901.000000 0.6023 0.6052 0.6059 0.6066 0.6073
2896.000000 0.6083 0.6089 0.6095 0.6102 0.6111
2891.000000 0.6125 0.6143 0.6172 0.6201 0.6245
2886.000000 0.6287 0.6332 0.6377 0.6420 0.6464
2881.000000 0.6508 0.6551 0.6595 0.6638 0.6674
2876.000000 0.6727 0.6756 0.6814 0.6796 0.6804
2871.000000 0.6804 0.6804 0.6800 0.6795 0.6731
2866.000000 0.6667 0.6547 0.6428 0.6310 0.6190
2861.000000 0.6131 0.6072 0.6066 0.6076 0.6062
2856.000000 0.6064 0.6101 0.6131 0.6172 0.6212
2851.000000 0.6385 0.6559 0.6735 0.6915 0.7094
2846.000000 0.7280 0.7459 0.7634 0.7719 0.7816
2841.000000 0.7869 0.7918 0.7948 0.7988 0.8015
2836.000000 0.8037 0.8051 0.8072 0.8090 0.8110
2831.000000 0.8124 0.8139 0.8159 0.8163 0.8181
2826.000000 0.8192 0.8186 0.8191 0.8205 0.8200
2821.000000 0.8212 0.8214 0.8214 0.8206 0.8206
2816.000000 0.8205 0.8203 0.8202 0.8199 0.8199
2811.000000 0.8196 0.8195 0.8194 0.8199 0.8209
2806.000000 0.8214 0.8224 0.8234 0.8247 0.8261
2801.000000 0.8274 0.8288 0.8301 0.8314 0.8327
2796.000000 0.8341 0.8350 0.8360 0.8365 0.8367
2791.000000 0.8364 0.8375 0.8371 0.8376 0.8380
2786.000000 0.8386 0.8394 0.8405 0.8403 0.8401
2781.000000 0.8412 0.8420 0.8424 0.8427 0.8429
2776.000000 0.8432 0.8434 0.8437 0.8438 0.8439
2771.000000 0.8439 0.8440 0.8440 0.8441 0.8436
2766.000000 0.8432 0.8424 0.8417 0.8403 0.8388
2761.000000 0.8381 0.8372 0.8369 0.8368 0.8368
2756.000000 0.8368 0.8368 0.8371 0.8372 0.8377
2751.000000 0.8379 0.8382 0.8384 0.8387 0.8391
2746.000000 0.8395 0.8398 0.8402 0.8407 0.8411
2741.000000 0.8412 0.8413 0.8414 0.8416 0.8400
2736.000000 0.8385 0.8362 0.8342 0.8309 0.8277
2731.000000 0.8241 0.8206 0.8182 0.8157 0.8152
2726.000000 0.8148 0.8147 0.8145 0.8153 0.8160
2721.000000 0.8187 0.8213 0.8257 0.8299 0.8317
2716.000000 0.8336 0.8353 0.8372 0.8384 0.8397
2711.000000 0.8406 0.8416 0.8424 0.8434 0.8443
2706.000000 0.8452 0.8461 0.8471 0.8479 0.8487
2701.000000 0.8491 0.8496 0.8500 0.8504 0.8508
2696.000000 0.8512 0.8516 0.8520 0.8520 0.8524
2691.000000 0.8525 0.8527 0.8528 0.8530 0.8532
2686.000000 0.8534 0.8535 0.8537 0.8538 0.8540
2681.000000 0.8541 0.8543 0.8544 0.8545 0.8545
2676.000000 0.8546 0.8546 0.8547 0.8548 0.8549
2671.000000 0.8549 0.8550 0.8550 0.8551 0.8552
2666.000000 0.8553 0.8553 0.8554 0.8554 0.8555
2661.000000 0.8556 0.8557 0.8557 0.8559 0.8569
2656.000000 0.8569 0.8569 0.8569 0.8569 0.8569
2651.000000 0.8564 0.8556 0.8554 0.8558 0.8562
2646.000000 0.8561 0.8553 0.8546 0.8544 0.8549
2641.000000 0.8543 0.8538 0.8534 0.8531 0.8527
2636.000000 0.8524 0.8520 0.8528 0.8523 0.8517
2631.000000 0.8501 0.8498 0.8507 0.8506 0.8505
2626.000000 0.8504 0.8503 0.8502 0.8502 0.8501
2621.000000 0.8502 0.8505 0.8508 0.8512 0.8515
2616.000000 0.8519 0.8522 0.8527 0.8531 0.8535
2611.000000 0.8538 0.8541 0.8543 0.8545 0.8547
2606.000000 0.8549 0.8550 0.8552 0.8555 0.8557
2601.000000 0.8558 0.8560 0.8562 0.8564 0.8565
2596.000000 0.8567 0.8569 0.8571 0.8572 0.8574
2591.000000 0.8576 0.8578 0.8579 0.8579 0.8581
2586.000000 0.8582 0.8582 0.8586 0.8587 0.8587
2581.000000 0.8589 0.8590 0.8590 0.8592 0.8593
2576.000000 0.8594 0.8595 0.8597 0.8598 0.8599
2571.000000 0.8600 0.8601 0.8602 0.8603 0.8604
2566.000000 0.8605 0.8606 0.8607 0.8608 0.8609
2561.000000 0.8610 0.8611 0.8612 0.8613 0.8614
2556.000000 0.8615 0.8616 0.8618 0.8618 0.8619
2551.000000 0.8619 0.8620 0.8620 0.8621 0.8621
2546.000000 0.8621 0.8621 0.8621 0.8621 0.8621
2541.000000 0.8620 0.8622 0.8623 0.8625 0.8627
2536.000000 0.8630 0.8631 0.8634 0.8636 0.8638
2531.000000 0.8641 0.8643 0.8645 0.8648 0.8651
2526.000000 0.8653 0.8654 0.8656 0.8658 0.8660
2521.000000 0.8661 0.8663 0.8664 0.8664 0.8664
2516.000000 0.8664 0.8663 0.8662 0.8661 0.8661
2511.000000 0.8655 0.8649 0.8643 0.8637 0.8631
2506.000000 0.8625 0.8622 0.8619 0.8616 0.8616
2501.000000 0.8616 0.8618 0.8620 0.8622 0.8624
2496.000000 0.8627 0.8630 0.8636 0.8640 0.8644
2491.000000 0.8648 0.8652 0.8656 0.8660 0.8665
2486.000000 0.8669 0.8672 0.8675 0.8676 0.8677
2481.000000 0.8685 0.8691 0.8692 0.8693 0.8694
2476.000000 0.8694 0.8696 0.8697 0.8699 0.8700
2471.000000 0.8701 0.8701 0.8703 0.8704 0.8704
2466.000000 0.8706 0.8707 0.8708 0.8709 0.8710
2461.000000 0.8711 0.8712 0.8713 0.8710 0.8711
2456.000000 0.8712 0.8708 0.8710 0.8719 0.8725
2451.000000 0.8726 0.8719 0.8726 0.8731 0.8727
2446.000000 0.8722 0.8718 0.8714 0.8710 0.8706
2441.000000 0.8703 0.8701 0.8696 0.8695 0.8693
2436.000000 0.8691 0.8689 0.8687 0.8685 0.8683
2431.000000 0.8680 0.8677 0.8676 0.8676 0.8676
2426.000000 0.8677 0.8678 0.8681 0.8682 0.8683
2421.000000 0.8684 0.8686 0.8687 0.8688 0.8689
2416.000000 0.8691 0.8692 0.8693 0.8693 0.8693
2411.000000 0.8693 0.8695 0.8698 0.8704 0.8700
2406.000000 0.8707 0.8706 0.8706 0.8704 0.8704
2401.000000 0.8704 0.8703 0.8702 0.8702 0.8700
2396.000000 0.8699 0.8697 0.8695 0.8693 0.8691
2391.000000 0.8688 0.8687 0.8697 0.8695 0.8693
2386.000000 0.8690 0.8690 0.8698 0.8696 0.8697
2381.000000 0.8703 0.8701 0.8701 0.8707 0.8710
2376.000000 0.8714 0.8711 0.8715 0.8717 0.8715
2371.000000 0.8712 0.8710 0.8698 0.8693 0.8690
2366.000000 0.8688 0.8685 0.8681 0.8678 0.8676
2361.000000 0.8673 0.8682 0.8679 0.8688 0.8687
2356.000000 0.8696 0.8704 0.8702 0.8699 0.8697
2351.000000 0.8689 0.8680 0.8678 0.8682 0.8690
2346.000000 0.8693 0.8690 0.8680 0.8674 0.8672
2341.000000 0.8671 0.8670 0.8658 0.8666 0.8665
2336.000000 0.8653 0.8651 0.8662 0.8659 0.8658
2331.000000 0.8658 0.8667 0.8666 0.8663 0.8666
2326.000000 0.8672 0.8676 0.8682 0.8678 0.8675
2321.000000 0.8670 0.8666 0.8662 0.8658 0.8653
2316.000000 0.8649 0.8645 0.8641 0.8636 0.8630
2311.000000 0.8626 0.8622 0.8616 0.8612 0.8607
2306.000000 0.8601 0.8598 0.8598 0.8599 0.8605
2301.000000 0.8609 0.8613 0.8620 0.8632 0.8636
2296.000000 0.8640 0.8643 0.8648 0.8649 0.8649
2291.000000 0.8651 0.8651 0.8649 0.8640 0.8637
2286.000000 0.8637 0.8636 0.8635 0.8622 0.8621
2281.000000 0.8621 0.8620 0.8618 0.8607 0.8606
2276.000000 0.8603 0.8592 0.8591 0.8590 0.8587
2271.000000 0.8578 0.8577 0.8570 0.8562 0.8560
2266.000000 0.8559 0.8551 0.8545 0.8545 0.8545
2261.000000 0.8535 0.8532 0.8532 0.8523 0.8521
2256.000000 0.8521 0.8533 0.8534 0.8545 0.8557
2251.000000 0.8563 0.8561 0.8569 0.8576 0.8584
2246.000000 0.8593 0.8596 0.8597 0.8604 0.8613
2241.000000 0.8620 0.8629 0.8638 0.8646 0.8654
2236.000000 0.8662 0.8663 0.8668 0.8673 0.8678
2231.000000 0.8684 0.8689 0.8693 0.8698 0.8702
2226.000000 0.8709 0.8712 0.8716 0.8719 0.8720
2221.000000 0.8714 0.8717 0.8720 0.8723 0.8726
2216.000000 0.8729 0.8731 0.8733 0.8734 0.8734
2211.000000 0.8736 0.8735 0.8734 0.8733 0.8732
2206.000000 0.8732 0.8731 0.8731 0.8730 0.8730
2201.000000 0.8729 0.8728 0.8727 0.8727 0.8726
2196.000000 0.8725 0.8715 0.8725 0.8721 0.8712
2191.000000 0.8711 0.8711 0.8710 0.8709 0.8708
2186.000000 0.8708 0.8707 0.8712 0.8710 0.8704
2181.000000 0.8703 0.8702 0.8701 0.8709 0.8710
2176.000000 0.8709 0.8708 0.8707 0.8706 0.8705
2171.000000 0.8704 0.8703 0.8699 0.8689 0.8688
2166.000000 0.8686 0.8686 0.8688 0.8689 0.8689
2161.000000 0.8691 0.8692 0.8693 0.8694 0.8695
2156.000000 0.8696 0.8697 0.8698 0.8700 0.8701
2151.000000 0.8702 0.8703 0.8704 0.8705 0.8707
2146.000000 0.8709 0.8711 0.8713 0.8715 0.8717
2141.000000 0.8718 0.8720 0.8722 0.8724 0.8726
2136.000000 0.8728 0.8731 0.8733 0.8734 0.8737
2131.000000 0.8738 0.8741 0.8741 0.8744 0.8745
2126.000000 0.8747 0.8748 0.8749 0.8750 0.8743
2121.000000 0.8752 0.8754 0.8755 0.8757 0.8757
2116.000000 0.8757 0.8757 0.8757 0.8756 0.8756
2111.000000 0.8755 0.8755 0.8754 0.8753 0.8752
2106.000000 0.8752 0.8751 0.8751 0.8750 0.8750
2101.000000 0.8749 0.8749 0.8748 0.8738 0.8733
2096.000000 0.8741 0.8743 0.8730 0.8738 0.8737
2091.000000 0.8737 0.8736 0.8735 0.8733 0.8733
2086.000000 0.8732 0.8730 0.8730 0.8730 0.8729
2081.000000 0.8728 0.8728 0.8727 0.8726 0.8725
2076.000000 0.8725 0.8724 0.8723 0.8722 0.8722
2071.000000 0.8720 0.8719 0.8718 0.8718 0.8717
2066.000000 0.8716 0.8715 0.8715 0.8715 0.8715
2061.000000 0.8715 0.8716 0.8716 0.8716 0.8719
2056.000000 0.8728 0.8728 0.8728 0.8728 0.8723
2051.000000 0.8721 0.8727 0.8721 0.8716 0.8715
2046.000000 0.8714 0.8713 0.8712 0.8711 0.8710
2041.000000 0.8709 0.8708 0.8707 0.8707 0.8706
2036.000000 0.8704 0.8703 0.8703 0.8702 0.8702
2031.000000 0.8701 0.8701 0.8700 0.8704 0.8706
2026.000000 0.8697 0.8701 0.8706 0.8705 0.8704
2021.000000 0.8703 0.8702 0.8699 0.8699 0.8696
2016.000000 0.8696 0.8694 0.8692 0.8691 0.8689
2011.000000 0.8688 0.8686 0.8684 0.8683 0.8682
2006.000000 0.8682 0.8683 0.8685 0.8686 0.8687
2001.000000 0.8699 0.8712 0.8726 0.8738 0.8748
1996.000000 0.8764 0.8780 0.8788 0.8791 0.8794
1991.000000 0.8799 0.8802 0.8807 0.8814 0.8821
1986.000000 0.8818 0.8823 0.8831 0.8837 0.8844
1981.000000 0.8851 0.8858 0.8863 0.8857 0.8864
1976.000000 0.8869 0.8874 0.8880 0.8884 0.8888
1971.000000 0.8892 0.8896 0.8899 0.8903 0.8905
1966.000000 0.8914 0.8915 0.8915 0.8925 0.8930
1961.000000 0.8932 0.8934 0.8935 0.8938 0.8940
1956.000000 0.8943 0.8944 0.8934 0.8936 0.8938
1951.000000 0.8940 0.8940 0.8933 0.8933 0.8933
1946.000000 0.8928 0.8925 0.8921 0.8918 0.8914
1941.000000 0.8911 0.8907 0.8904 0.8903 0.8901
1936.000000 0.8901 0.8900 0.8899 0.8897 0.8896
1931.000000 0.8895 0.8895 0.8894 0.8894 0.8894
1926.000000 0.8893 0.8893 0.8893 0.8892 0.8892
1921.000000 0.8892 0.8893 0.8894 0.8895 0.8896
1916.000000 0.8897 0.8898 0.8898 0.8899 0.8901
1911.000000 0.8903 0.8904 0.8907 0.8908 0.8920
1906.000000 0.8923 0.8925 0.8923 0.8920 0.8918
1901.000000 0.8915 0.8912 0.8908 0.8905 0.8902
1896.000000 0.8898 0.8894 0.8889 0.8884 0.8879
1891.000000 0.8871 0.8859 0.8856 0.8852 0.8849
1886.000000 0.8847 0.8844 0.8848 0.8849 0.8846
1881.000000 0.8843 0.8844 0.8844 0.8844 0.8844
1876.000000 0.8844 0.8856 0.8857 0.8861 0.8863
1871.000000 0.8865 0.8868 0.8870 0.8872 0.8875
1866.000000 0.8877 0.8879 0.8881 0.8884 0.8886
1861.000000 0.8888 0.8891 0.8893 0.8895 0.8904
1856.000000 0.8903 0.8901 0.8902 0.8902 0.8903
1851.000000 0.8903 0.8904 0.8905 0.8905 0.8906
1846.000000 0.8906 0.8907 0.8907 0.8908 0.8908
1841.000000 0.8909 0.8909 0.8910 0.8911 0.8913
1836.000000 0.8910 0.8905 0.8910 0.8915 0.8922
1831.000000 0.8928 0.8929 0.8924 0.8918 0.8912
1826.000000 0.8907 0.8901 0.8895 0.8890 0.8884
1821.000000 0.8880 0.8880 0.8891 0.8890 0.8890
1816.000000 0.8890 0.8890 0.8892 0.8894 0.8897
1811.000000 0.8899 0.8901 0.8899 0.8894 0.8898
