##TITLE=METHANE, BROMODICHLORO-
##JCAMP-DX=4.24
##DATA TYPE=INFRARED SPECTRUM
##CLASS=COBLENTZ
##ORIGIN=DOW CHEMICAL COMPANY
##OWNER=COBLENTZ SOCIETY
Collection (C) 2018 copyright by the U.S. Secretary of Commerce
on behalf of the United States of America. All rights reserved.
##DATE=1968/11/27
##NAMES=bromo(dichloro)methane
##CAS REGISTRY NO=75-27-4
##MOLFORM=C H Br Cl2
##BP=91 C
##SOURCE REFERENCE=COBLENTZ NO. 10620
##$NIST SOURCE=COBLENTZ
##$NIST IMAGE=cob10620
##SPECTROMETER/DATA SYSTEM=PERKIN-ELMER 225
##STATE=GAS (50 mmHg DILUTED TO A TOTAL PRESSURE OF 600 mmHg WITH N2)
##PATH LENGTH=5 CM CsI CELL
$$SPECTRAL CONTAMINATION DUE TO AN UNKNOWN AROUND 1738 CM^-^1
$$ SEE SPECTRUM NO. 10584 FOR SOLUTION STATE
##SAMPLING PROCEDURE=TRANSMISSION
##RESOLUTION=4
##DATA PROCESSING=DIGITIZED BY NIST FROM HARD COPY (FROM TWO SEGMENTS)
##XUNITS=1/CM
##YUNITS=TRANSMITTANCE
##XFACTOR=1.000000
##YFACTOR=1
##DELTAX=1.022647
##FIRSTX=212.418
##LASTX=3799.86
##FIRSTY=0.409
##MAXX=3799.86
##MINX=212.418
##MAXY=0.974
##MINY=0.006
##NPOINTS=3509
##XYDATA=(X++(Y..Y))
212.418000 0.4090 0.4260 0.4260 0.4360 0.4470
217.531235 0.4510 0.4590 0.4719 0.4839 0.4939
222.644469 0.5020 0.5050 0.5110 0.5270 0.5400
227.757704 0.5480 0.5490 0.5510 0.5630 0.5710
232.870939 0.5730 0.5760 0.5840 0.5870 0.5900
237.984173 0.5970 0.6030 0.6050 0.6080 0.6160
243.097408 0.6190 0.6310 0.6380 0.6440 0.6500
248.210643 0.6520 0.6520 0.6500 0.6520 0.6759
253.323877 0.6760 0.6740 0.6710 0.6680 0.6680
258.437112 0.6760 0.6790 0.6800 0.6840 0.6900
263.550347 0.6910 0.7060 0.7090 0.7100 0.7100
268.663581 0.7120 0.7120 0.7150 0.7170 0.7200
273.776816 0.7200 0.7100 0.7100 0.7420 0.7480
278.890051 0.7500 0.7500 0.7500 0.7480 0.7420
284.003285 0.7370 0.7370 0.7440 0.7450 0.7550
289.116520 0.7590 0.7590 0.7530 0.7530 0.7530
294.229755 0.7550 0.7550 0.7580 0.7580 0.7610
299.342989 0.7630 0.7660 0.7859 0.7880 0.7860
304.456224 0.7830 0.7810 0.7750 0.7740 0.7740
309.569459 0.7750 0.7770 0.7770 0.7780 0.7800
314.682693 0.7810 0.7810 0.7810 0.7800 0.7770
319.795928 0.7780 0.7800 0.7830 0.7880 0.7880
324.909163 0.7850 0.7850 0.7850 0.7830 0.7750
330.022397 0.7700 0.7740 0.7750 0.7780 0.7810
335.135632 0.7770 0.7770 0.7770 0.7770 0.7770
340.248866 0.7780 0.7800 0.7800 0.7810 0.7830
345.362101 0.7830 0.7800 0.7780 0.7800 0.7880
350.475336 0.7960 0.7970 0.7990 0.7990 0.7970
355.588570 0.7970 0.7960 0.7940 0.7930 0.7910
360.701805 0.7890 0.7890 0.7880 0.7880 0.7880
365.815040 0.7880 0.7880 0.7890 0.7890 0.7910
370.928274 0.7910 0.7930 0.7930 0.7960 0.7990
376.041509 0.7990 0.7880 0.7830 0.7810 0.7800
381.154744 0.7810 0.7810 0.7800 0.7800 0.7780
386.267978 0.7750 0.7740 0.7720 0.7690 0.7690
391.381213 0.7700 0.7700 0.7720 0.7740 0.7740
396.494448 0.7750 0.7750 0.7700 0.7640 0.7630
401.607682 0.7630 0.7640 0.7660 0.7660 0.7690
406.720917 0.7690 0.7700 0.7720 0.7740 0.7770
411.834152 0.7800 0.7810 0.7830 0.7850 0.7860
416.947386 0.7880 0.7880 0.7880 0.7860 0.7830
422.060621 0.7810 0.7800 0.7780 0.7750 0.7740
427.173856 0.7720 0.7720 0.7740 0.7740 0.7750
432.287090 0.7750 0.7750 0.7750 0.7740 0.7740
437.400325 0.7720 0.7720 0.7700 0.7690 0.7690
442.513560 0.7690 0.7700 0.7700 0.7700 0.7700
447.626794 0.7700 0.7700 0.7720 0.7720 0.7750
452.740029 0.7750 0.7830 0.7910 0.7970 0.7990
457.853264 0.8000 0.8020 0.8040 0.8040 0.8050
462.966498 0.8070 0.8070 0.8070 0.8070 0.8070
468.079733 0.8070 0.8070 0.8070 0.8050 0.8050
473.192968 0.8050 0.8070 0.8070 0.8070 0.8070
478.306202 0.8040 0.8020 0.8020 0.8020 0.8020
483.419437 0.8000 0.8000 0.8000 0.7990 0.7970
488.532672 0.7960 0.7940 0.7940 0.7930 0.7890
493.645906 0.7890 0.7880 0.7880 0.7880 0.7860
498.759141 0.7850 0.7830 0.7810 0.7800 0.7800
503.872376 0.7800 0.7780 0.7780 0.7780 0.7780
508.985610 0.7780 0.7780 0.7780 0.7780 0.7780
514.098845 0.7800 0.7800 0.7800 0.7800 0.7800
519.212080 0.7800 0.7800 0.7800 0.7800 0.7800
524.325314 0.7810 0.7810 0.7830 0.7850 0.7850
529.438549 0.7860 0.7860 0.7830 0.7810 0.7800
534.551784 0.7780 0.7780 0.7780 0.7780 0.7770
539.665018 0.7750 0.7740 0.7740 0.7740 0.7750
544.778253 0.7750 0.7770 0.7780 0.7780 0.7780
549.891488 0.7800 0.7800 0.7800 0.7800 0.7810
555.004722 0.7830 0.7830 0.7830 0.7810 0.7810
560.117957 0.7810 0.7810 0.7810 0.7810 0.7830
565.231192 0.7830 0.7830 0.7830 0.7830 0.7830
570.344426 0.7810 0.7810 0.7810 0.7810 0.7800
575.457661 0.7800 0.7800 0.7800 0.7780 0.7770
580.570896 0.7750 0.7700 0.7670 0.7630 0.7530
585.684130 0.7400 0.7310 0.7250 0.7120 0.7030
590.797365 0.6840 0.6630 0.6380 0.5820 0.5430
595.910599 0.5071 0.4801 0.4451 0.4181 0.4090
601.023834 0.3980 0.3880 0.3820 0.3800 0.3770
606.137069 0.2243 0.2240 0.4443 0.4450 0.3683
611.250303 0.2890 0.2710 0.2710 0.3150 0.4119
616.363538 0.4529 0.5947 0.6329 0.7117 0.7339
621.476773 0.7480 0.7580 0.7700 0.7850 0.7880
626.590007 0.7890 0.7940 0.7960 0.8000 0.8020
631.703242 0.8040 0.8040 0.8040 0.8050 0.8070
636.816477 0.8070 0.8080 0.8080 0.8080 0.8080
641.929711 0.8080 0.8080 0.8080 0.8070 0.8070
647.042946 0.8070 0.8070 0.8050 0.8050 0.8070
652.156181 0.8100 0.8120 0.8130 0.8130 0.8130
657.269415 0.8150 0.8160 0.8180 0.8190 0.8210
662.382650 0.8210 0.8230 0.8240 0.8240 0.8340
667.495885 0.8340 0.8290 0.8270 0.8260 0.8260
672.609119 0.8230 0.8190 0.8180 0.8180 0.8160
677.722354 0.8160 0.8160 0.8150 0.8150 0.8150
682.835589 0.8130 0.8120 0.8100 0.8080 0.8050
687.948823 0.8040 0.8000 0.7990 0.7970 0.7970
693.062058 0.7940 0.7860 0.7800 0.7750 0.7720
698.175293 0.7690 0.7530 0.7341 0.7280 0.7250
703.288527 0.7140 0.7070 0.7010 0.6930 0.6680
708.401762 0.6440 0.6161 0.5791 0.5302 0.4662
713.514997 0.4089 0.3820 0.3549 0.2680 0.2180
718.628231 0.1451 0.1071 0.0741 0.0411 0.0260
723.741466 0.0150 0.0120 0.0120 0.0090 0.0090
728.854701 0.0070 0.0070 0.0070 0.0090 0.0110
733.967935 0.0110 0.0110 0.0090 0.0070 0.0060
739.081170 0.0060 0.0090 0.0220 0.1018 0.2017
744.194405 0.4061 0.4781 0.5540 0.5700 0.5700
749.307639 0.5620 0.5161 0.4591 0.4371 0.4121
754.420874 0.3869 0.3249 0.2630 0.2190 0.1640
759.534109 0.1041 0.0691 0.0331 0.0300 0.0170
764.647343 0.0140 0.0110 0.0070 0.0070 0.0060
769.760578 0.0060 0.0070 0.0070 0.0090 0.0120
774.873813 0.0150 0.0170 0.0150 0.0120 0.0110
779.987047 0.0120 0.0150 0.0200 0.0310 0.0479
785.100282 0.1091 0.1610 0.2110 0.2510 0.3079
790.213517 0.4278 0.4829 0.5259 0.5868 0.6089
795.326751 0.7121 0.7560 0.7630 0.7640 0.7610
800.439986 0.7560 0.7470 0.7390 0.7310 0.7250
805.553221 0.7150 0.7090 0.7030 0.6990 0.6960
810.666455 0.6950 0.6930 0.6910 0.6910 0.6910
815.779690 0.6910 0.6910 0.6900 0.6880 0.6850
820.892925 0.6840 0.6770 0.6760 0.6820 0.7169
826.006159 0.7470 0.7610 0.7740 0.7750 0.7750
831.119394 0.7750 0.7750 0.7770 0.7780 0.7810
836.232629 0.7850 0.7970 0.8120 0.8150 0.8180
841.345863 0.8230 0.8240 0.8260 0.8270 0.8270
846.459098 0.8290 0.8290 0.8290 0.8300 0.8300
851.572332 0.8300 0.8300 0.8300 0.8320 0.8340
856.685567 0.8340 0.8340 0.8350 0.8350 0.8350
861.798802 0.8350 0.8350 0.8350 0.8350 0.8350
866.912036 0.8350 0.8350 0.8350 0.8340 0.8340
872.025271 0.8340 0.8340 0.8340 0.8340 0.8340
877.138506 0.8340 0.8340 0.8340 0.8350 0.8350
882.251740 0.8350 0.8350 0.8350 0.8350 0.8350
887.364975 0.8370 0.8370 0.8370 0.8370 0.8370
892.478210 0.8380 0.8380 0.8400 0.8400 0.8400
897.591444 0.8420 0.8420 0.8420 0.8420 0.8420
902.704679 0.8420 0.8430 0.8430 0.8430 0.8430
907.817914 0.8450 0.8450 0.8450 0.8450 0.8450
912.931148 0.8450 0.8450 0.8450 0.8450 0.8450
918.044383 0.8430 0.8430 0.8400 0.8380 0.8380
923.157618 0.8370 0.8350 0.8340 0.8320 0.8320
928.270852 0.8300 0.8300 0.8300 0.8300 0.8300
933.384087 0.8300 0.8300 0.8300 0.8300 0.8300
938.497322 0.8300 0.8300 0.8300 0.8320 0.8300
943.610556 0.8300 0.8300 0.8300 0.8300 0.8300
948.723791 0.8300 0.8300 0.8300 0.8290 0.8290
953.837026 0.8300 0.8300 0.8320 0.8320 0.8320
958.950260 0.8340 0.8340 0.8340 0.8340 0.8340
964.063495 0.8340 0.8340 0.8320 0.8320 0.8320
969.176730 0.8300 0.8290 0.8290 0.8270 0.8260
974.289964 0.8260 0.8240 0.8240 0.8240 0.8240
979.403199 0.8240 0.8230 0.8210 0.8210 0.8210
984.516434 0.8210 0.8230 0.8230 0.8240 0.8240
989.629668 0.8240 0.8240 0.8240 0.8240 0.8260
994.742903 0.8260 0.8260 0.8260 0.8260 0.8240
999.856138 0.8240 0.8240 0.8230 0.8230 0.8230
1004.969372 0.8230 0.8230 0.8210 0.8210 0.8190
1010.082607 0.8190 0.8190 0.8190 0.8180 0.8180
1015.195842 0.8180 0.8180 0.8180 0.8180 0.8180
1020.309076 0.8180 0.8180 0.8180 0.8180 0.8190
1025.422311 0.8190 0.8190 0.8180 0.8160 0.8150
1030.535546 0.8150 0.8130 0.8130 0.8130 0.8130
1035.648780 0.8130 0.8130 0.8130 0.8130 0.8130
1040.762015 0.8150 0.8150 0.8130 0.8120 0.8120
1045.875250 0.8100 0.8100 0.8100 0.8100 0.8100
1050.988484 0.8100 0.8100 0.8080 0.8080 0.8080
1056.101719 0.8070 0.8070 0.8070 0.8050 0.8050
1061.214954 0.8050 0.8050 0.8040 0.8040 0.8040
1066.328188 0.8040 0.8040 0.8040 0.8040 0.8040
1071.441423 0.8040 0.8050 0.8050 0.8050 0.8050
1076.554658 0.8040 0.8040 0.8040 0.8040 0.8040
1081.667892 0.8040 0.8040 0.8040 0.8020 0.8020
1086.781127 0.8020 0.8020 0.8020 0.8020 0.8020
1091.894362 0.8020 0.8020 0.8000 0.8000 0.8000
1097.007596 0.8000 0.7990 0.7990 0.7990 0.7990
1102.120831 0.7970 0.7970 0.7970 0.7970 0.7970
1107.234065 0.7960 0.7960 0.7960 0.7940 0.7940
1112.347300 0.7940 0.7930 0.7930 0.7910 0.7910
1117.460535 0.7910 0.7910 0.7910 0.7910 0.7910
1122.573769 0.7910 0.7910 0.7910 0.7910 0.7910
1127.687004 0.7910 0.7910 0.7910 0.7890 0.7890
1132.800239 0.7890 0.7880 0.7880 0.7860 0.7850
1137.913473 0.7830 0.7830 0.7810 0.7800 0.7780
1143.026708 0.7750 0.7700 0.7670 0.7660 0.7630
1148.139943 0.7610 0.7470 0.7420 0.7360 0.7260
1153.253177 0.7170 0.7010 0.6840 0.6550 0.6220
1158.366412 0.5920 0.4921 0.4291 0.4061 0.3821
1163.479647 0.2948 0.2299 0.1940 0.1941 0.2510
1168.592881 0.2520 0.2520 0.1541 0.0552 0.4141
1173.706116 0.4146 0.2897 0.1639 0.1150 0.1150
1178.819351 0.1560 0.1870 0.3299 0.4578 0.5129
1183.932585 0.6442 0.7100 0.7290 0.7340 0.7330
1189.045820 0.7280 0.7230 0.7200 0.7100 0.7010
1194.159055 0.6910 0.6819 0.6610 0.6470 0.6170
1199.272289 0.5870 0.5460 0.5080 0.4890 0.4501
1204.385524 0.4119 0.3718 0.2810 0.2590 0.2590
1209.498759 0.2700 0.2930 0.4278 0.5018 0.5598
1214.611993 0.5596 0.4337 0.3080 0.3080 0.3361
1219.725228 0.4260 0.4470 0.4700 0.5029 0.5240
1224.838463 0.5461 0.5780 0.6000 0.6360 0.6630
1229.951697 0.6800 0.7100 0.7200 0.7420 0.7590
1235.064932 0.7660 0.7700 0.7740 0.7770 0.7780
1240.178167 0.7780 0.7800 0.7810 0.7810 0.7810
1245.291401 0.7810 0.7810 0.7810 0.7810 0.7810
1250.404636 0.7810 0.7810 0.7810 0.7810 0.7810
1255.517871 0.7810 0.7810 0.7810 0.7810 0.7810
1260.631105 0.7810 0.7810 0.7830 0.7830 0.7830
1265.744340 0.7850 0.7850 0.7850 0.7850 0.7850
1270.857575 0.7860 0.7860 0.7860 0.7880 0.7890
1275.970809 0.7910 0.7910 0.7910 0.7910 0.7930
1281.084044 0.7930 0.7930 0.7930 0.7930 0.7930
1286.197279 0.7930 0.7930 0.7930 0.7930 0.7930
1291.310513 0.7930 0.7930 0.7930 0.7910 0.7910
1296.423748 0.7890 0.7890 0.7890 0.7880 0.7880
1301.536983 0.7880 0.7880 0.7880 0.7860 0.7860
1306.650217 0.7860 0.7860 0.7860 0.7860 0.7850
1311.763452 0.7850 0.7850 0.7830 0.7830 0.7830
1316.876687 0.7830 0.7830 0.7810 0.7800 0.7780
1321.989921 0.7770 0.7770 0.7770 0.7770 0.7770
1327.103156 0.7770 0.7770 0.7770 0.7770 0.7770
1332.216391 0.7770 0.7770 0.7770 0.7770 0.7770
1337.329625 0.7770 0.7770 0.7750 0.7750 0.7750
1342.442860 0.7750 0.7740 0.7740 0.7740 0.7740
1347.556095 0.7720 0.7720 0.7720 0.7720 0.7720
1352.669329 0.7720 0.7720 0.7720 0.7700 0.7700
1357.782564 0.7700 0.7700 0.7700 0.7700 0.7700
1362.895798 0.7700 0.7700 0.7720 0.7720 0.7720
1368.009033 0.7720 0.7720 0.7720 0.7720 0.7740
1373.122268 0.7740 0.7750 0.7750 0.7750 0.7750
1378.235502 0.7750 0.7770 0.7780 0.7800 0.7810
1383.348737 0.7830 0.7850 0.7860 0.7910 0.7940
1388.461972 0.7960 0.7960 0.7960 0.7970 0.7990
1393.575206 0.8000 0.8000 0.8020 0.8020 0.8020
1398.688441 0.8020 0.8020 0.8020 0.8020 0.8020
1403.801676 0.8020 0.8020 0.8020 0.8020 0.8020
1408.914910 0.8020 0.8020 0.8020 0.8000 0.7990
1414.028145 0.7970 0.7970 0.7970 0.7970 0.7960
1419.141380 0.7960 0.7960 0.7970 0.7970 0.7970
1424.254614 0.7970 0.7990 0.8000 0.8000 0.8000
1429.367849 0.8020 0.8020 0.8000 0.8000 0.8020
1434.481084 0.8050 0.8070 0.8080 0.8080 0.8120
1439.594318 0.8120 0.8120 0.8120 0.8120 0.8120
1444.707553 0.8130 0.8130 0.8150 0.8150 0.8150
1449.820788 0.8130 0.8120 0.8120 0.8120 0.8100
1454.934022 0.8100 0.8100 0.8120 0.8120 0.8120
1460.047257 0.8120 0.8100 0.8100 0.8100 0.8080
1465.160492 0.8080 0.8070 0.8040 0.8000 0.7970
1470.273726 0.7960 0.7940 0.7940 0.7910 0.7880
1475.386961 0.7850 0.7830 0.7810 0.7810 0.7800
1480.500196 0.7800 0.7780 0.7750 0.7740 0.7700
1485.613430 0.7690 0.7670 0.7670 0.7670 0.7660
1490.726665 0.7660 0.7660 0.7660 0.7660 0.7670
1495.839900 0.7670 0.7700 0.7740 0.7930 0.7960
1500.953134 0.8020 0.8040 0.8040 0.8050 0.8070
1506.066369 0.8120 0.8160 0.8190 0.8230 0.8240
1511.179604 0.8240 0.8240 0.8230 0.8230 0.8230
1516.292838 0.8210 0.8180 0.8180 0.8160 0.8160
1521.406073 0.8150 0.8130 0.8120 0.8120 0.8120
1526.519308 0.8120 0.8120 0.8100 0.8100 0.8070
1531.632542 0.8070 0.8120 0.8180 0.8180 0.8150
1536.745777 0.8130 0.8120 0.8120 0.8100 0.8100
1541.859012 0.8120 0.8120 0.8150 0.8190 0.8230
1546.972246 0.8240 0.8300 0.8400 0.8420 0.8420
1552.085481 0.8420 0.8420 0.8380 0.8350 0.8320
1557.198716 0.8320 0.8320 0.8300 0.8300 0.8300
1562.311950 0.8300 0.8300 0.8300 0.8290 0.8290
1567.425185 0.8290 0.8290 0.8300 0.8290 0.8290
1572.538420 0.8290 0.8270 0.8270 0.8270 0.8270
1577.651654 0.8270 0.8270 0.8290 0.8290 0.8290
1582.764889 0.8290 0.8290 0.8290 0.8290 0.8270
1587.878124 0.8270 0.8270 0.8270 0.8260 0.8260
1592.991358 0.8260 0.8260 0.8260 0.8260 0.8260
1598.104593 0.8260 0.8260 0.8260 0.8270 0.8270
1603.217828 0.8270 0.8270 0.8270 0.8290 0.8290
1608.331062 0.8290 0.8300 0.8300 0.8300 0.8300
1613.444297 0.8300 0.8290 0.8290 0.8290 0.8290
1618.557531 0.8300 0.8300 0.8230 0.8180 0.8160
1623.670766 0.8160 0.8180 0.8180 0.8190 0.8190
1628.784001 0.8230 0.8260 0.8340 0.8370 0.8320
1633.897235 0.8290 0.8270 0.8270 0.8290 0.8290
1639.010470 0.8300 0.8320 0.8370 0.8400 0.8450
1644.123705 0.8450 0.8420 0.8420 0.8420 0.8560
1649.236939 0.8560 0.8530 0.8400 0.8370 0.8370
1654.350174 0.8370 0.8370 0.8370 0.8380 0.8380
1659.463409 0.8380 0.8340 0.8340 0.8350 0.8350
1664.576643 0.8380 0.8420 0.8420 0.8400 0.8400
1669.689878 0.8400 0.8400 0.8420 0.8380 0.8350
1674.803113 0.8350 0.8380 0.8400 0.8420 0.8420
1679.916347 0.8420 0.8430 0.8420 0.8380 0.8370
1685.029582 0.8370 0.8370 0.8380 0.8400 0.8400
1690.142817 0.8420 0.8420 0.8430 0.8430 0.8400
1695.256051 0.8370 0.8350 0.8340 0.8300 0.8270
1700.369286 0.8240 0.8210 0.8190 0.8150 0.8130
1705.482521 0.8120 0.8120 0.8100 0.8080 0.8070
1710.595755 0.8070 0.8050 0.8050 0.8050 0.8040
1715.708990 0.7970 0.7960 0.7890 0.7880 0.7880
1720.822225 0.7860 0.7860 0.7860 0.7860 0.7880
1725.935459 0.7880 0.7880 0.7890 0.7910 0.7930
1731.048694 0.7930 0.7860 0.7830 0.7800 0.7780
1736.161929 0.7780 0.7780 0.7770 0.7770 0.7780
1741.275163 0.7830 0.7850 0.7860 0.7910 0.7930
1746.388398 0.7930 0.7940 0.7940 0.7960 0.7960
1751.501633 0.7940 0.7940 0.7960 0.7990 0.8020
1756.614867 0.8050 0.8070 0.8070 0.8100 0.8120
1761.728102 0.8120 0.8120 0.8120 0.8130 0.8180
1766.841337 0.8230 0.8240 0.8260 0.8270 0.8270
1771.954571 0.8260 0.8260 0.8260 0.8260 0.8260
1777.067806 0.8270 0.8270 0.8270 0.8300 0.8320
1782.181041 0.8320 0.8320 0.8300 0.8300 0.8320
1787.294275 0.8340 0.8340 0.8370 0.8370 0.8370
1792.407510 0.8370 0.8370 0.8370 0.8370 0.8370
1797.520745 0.8370 0.8370 0.8350 0.8350 0.8370
1802.633979 0.8370 0.8370 0.8370 0.8370 0.8370
1807.747214 0.8370 0.8370 0.8350 0.8350 0.8340
1812.860449 0.8340 0.8350 0.8350 0.8380 0.8380
1817.973683 0.8400 0.8400 0.8400 0.8420 0.8420
1823.086918 0.8420 0.8420 0.8420 0.8420 0.8420
1828.200153 0.8400 0.8400 0.8400 0.8420 0.8420
1833.313387 0.8420 0.8420 0.8420 0.8430 0.8430
1838.426622 0.8430 0.8450 0.8460 0.8480 0.8480
1843.539857 0.8460 0.8430 0.8420 0.8420 0.8420
1848.653091 0.8420 0.8420 0.8420 0.8420 0.8420
1853.766326 0.8420 0.8420 0.8420 0.8420 0.8430
1858.879561 0.8430 0.8430 0.8450 0.8450 0.8450
1863.992795 0.8450 0.8460 0.8460 0.8450 0.8450
1869.106030 0.8430 0.8420 0.8420 0.8420 0.8420
1874.219264 0.8420 0.8420 0.8430 0.8430 0.8430
1879.332499 0.8430 0.8420 0.8420 0.8420 0.8400
1884.445734 0.8400 0.8380 0.8380 0.8380 0.8420
1889.558968 0.8430 0.8430 0.8430 0.8430 0.8430
1894.672203 0.8450 0.8450 0.8450 0.8430 0.8420
1899.785438 0.8420 0.8420 0.8420 0.8400 0.8400
1904.898672 0.8400 0.8400 0.8400 0.8400 0.8400
1910.011907 0.8400 0.8400 0.8400 0.8400 0.8400
1915.125142 0.8400 0.8420 0.8420 0.8420 0.8420
1920.238376 0.8420 0.8430 0.8430 0.8420 0.8420
1925.351611 0.8420 0.8420 0.8420 0.8400 0.8400
1930.464846 0.8420 0.8420 0.8420 0.8420 0.8400
1935.578080 0.8400 0.8400 0.8400 0.8420 0.8420
1940.691315 0.8420 0.8430 0.8430 0.8430 0.8430
1945.804550 0.8430 0.8430 0.8430 0.8430 0.8430
1950.917784 0.8430 0.8450 0.8430 0.8430 0.8430
1956.031019 0.8430 0.8430 0.8450 0.8450 0.8430
1961.144254 0.8430 0.8450 0.8450 0.8450 0.8430
1966.257488 0.8430 0.8430 0.8430 0.8450 0.8450
1971.370723 0.8450 0.8450 0.8450 0.8450 0.8450
1976.483958 0.8450 0.8450 0.8450 0.8430 0.8430
1981.597192 0.8430 0.8430 0.8450 0.8450 0.8450
1986.710427 0.8450 0.8450 0.8430 0.8430 0.8430
1991.823662 0.8430 0.8430 0.8430 0.8430 0.8430
1996.936896 0.8430 0.8430 0.8430 0.8430 0.8425
2002.050131 0.8420 0.8410 0.8400 0.8390 0.8380
2007.163366 0.8380 0.8380 0.8380 0.8381 0.8391
2012.276600 0.8400 0.8400 0.8401 0.8411 0.8421
2017.389835 0.8426 0.8430 0.8430 0.8433 0.8448
2022.503070 0.8460 0.8460 0.8462 0.8472 0.8483
2027.616304 0.8499 0.8510 0.8510 0.8510 0.8510
2032.729539 0.8513 0.8523 0.8534 0.8550 0.8562
2037.842774 0.8567 0.8573 0.8583 0.8590 0.8590
2042.956008 0.8590 0.8590 0.8590 0.8590 0.8590
2048.069243 0.8590 0.8590 0.8590 0.8590 0.8590
2053.182478 0.8592 0.8597 0.8600 0.8600 0.8605
2058.295712 0.8615 0.8620 0.8620 0.8625 0.8636
2063.408947 0.8640 0.8640 0.8640 0.8640 0.8640
2068.522182 0.8640 0.8640 0.8640 0.8640 0.8640
2073.635416 0.8643 0.8648 0.8650 0.8650 0.8650
2078.748651 0.8650 0.8650 0.8650 0.8650 0.8650
2083.861886 0.8650 0.8650 0.8650 0.8650 0.8650
2088.975120 0.8650 0.8650 0.8650 0.8650 0.8650
2094.088355 0.8658 0.8668 0.8674 0.8679 0.8680
2099.201590 0.8680 0.8689 0.8699 0.8709 0.8719
2104.314824 0.8720 0.8720 0.8720 0.8720 0.8720
2109.428059 0.8720 0.8725 0.8730 0.8730 0.8730
2114.541294 0.8730 0.8730 0.8730 0.8730 0.8730
2119.654528 0.8730 0.8730 0.8730 0.8725 0.8720
2124.767763 0.8720 0.8720 0.8720 0.8720 0.8720
2129.880997 0.8720 0.8720 0.8720 0.8720 0.8721
2134.994232 0.8726 0.8730 0.8730 0.8732 0.8742
2140.107467 0.8751 0.8756 0.8760 0.8760 0.8763
2145.220701 0.8773 0.8780 0.8780 0.8780 0.8780
2150.333936 0.8780 0.8780 0.8780 0.8780 0.8780
2155.447171 0.8780 0.8780 0.8780 0.8780 0.8780
2160.560405 0.8782 0.8787 0.8790 0.8790 0.8788
2165.673640 0.8783 0.8780 0.8780 0.8780 0.8780
2170.786875 0.8780 0.8780 0.8783 0.8788 0.8790
2175.900109 0.8790 0.8790 0.8790 0.8790 0.8790
2181.013344 0.8790 0.8790 0.8790 0.8790 0.8796
2186.126579 0.8806 0.8810 0.8810 0.8810 0.8810
2191.239813 0.8810 0.8810 0.8810 0.8810 0.8810
2196.353048 0.8810 0.8810 0.8810 0.8817 0.8828
2201.466283 0.8834 0.8839 0.8840 0.8840 0.8840
2206.579517 0.8840 0.8852 0.8868 0.8870 0.8870
2211.692752 0.8870 0.8870 0.8870 0.8870 0.8870
2216.805987 0.8870 0.8870 0.8870 0.8870 0.8870
2221.919221 0.8870 0.8870 0.8870 0.8870 0.8870
2227.032456 0.8870 0.8870 0.8870 0.8870 0.8870
2232.145691 0.8870 0.8870 0.8870 0.8870 0.8870
2237.258925 0.8870 0.8870 0.8870 0.8870 0.8871
2242.372160 0.8881 0.8890 0.8890 0.8890 0.8890
2247.485395 0.8891 0.8896 0.8900 0.8900 0.8900
2252.598629 0.8900 0.8902 0.8912 0.8920 0.8920
2257.711864 0.8920 0.8920 0.8920 0.8920 0.8920
2262.825099 0.8920 0.8923 0.8933 0.8940 0.8940
2267.938333 0.8940 0.8940 0.8942 0.8947 0.8954
2273.051568 0.8964 0.8970 0.8970 0.8970 0.8970
2278.164803 0.8970 0.8970 0.8970 0.8970 0.8970
2283.278037 0.8970 0.8973 0.8978 0.8980 0.8980
