##TITLE=ISO-PROPYLAMINE GAS
##JCAMP-DX=4.24
##DATA TYPE=INFRARED SPECTRUM
##CLASS=COBLENTZ
##ORIGIN=WYANDOTTE CHEMICALS CORP., WYANDOTTE, MICHIGAN, USA
##OWNER=COBLENTZ SOCIETY
Collection (C) 2018 copyright by the U.S. Secretary of Commerce
on behalf of the United States of America. All rights reserved.
##DATE=Not specified, most likely prior to 1970
##NAMES=isopropylamine
2-propanamine
##CAS REGISTRY NO=75-31-0
##MOLFORM=C3 H9 N
##BP=34 C
##SOURCE REFERENCE=COBLENTZ NO. 3813
##$NIST SOURCE=COBLENTZ
##$NIST IMAGE=cob3813
##SPECTROMETER/DATA SYSTEM=Not specified, most likely a prism, grating, or hybrid spectrometer.
##STATE=GAS
##PATH LENGTH=5 CMS; MORE THAN 240 mmHg
##SAMPLING PROCEDURE=TRANSMISSION
##RESOLUTION=4
##DATA PROCESSING=DIGITIZED BY NIST FROM HARD COPY
##XUNITS=MICROMETERS
##YUNITS=TRANSMITTANCE
##XFACTOR=1.000000
##YFACTOR=1
##DELTAX=000.006189
##FIRSTX=2.031
##LASTX=16.0003
##FIRSTY=0.959
##MAXX=16.0003
##MINX=2.031
##MAXY=0.982
##MINY=0.013
##NPOINTS=2258
##XYDATA=(X++(Y..Y))
2.031000 0.9590 0.9590 0.9590 0.9590 0.9610
2.061960 0.9610 0.9610 0.9610 0.9590 0.9580
2.093000 0.9580 0.9580 0.9560 0.9560 0.9560
2.123960 0.9580 0.9590 0.9590 0.9580 0.9560
2.155000 0.9530 0.9530 0.9510 0.9450 0.9390
2.185960 0.9310 0.9250 0.9190 0.9140 0.9050
2.217000 0.8920 0.8860 0.8830 0.8830 0.8810
2.247960 0.8810 0.8800 0.8800 0.8800 0.8810
2.279000 0.8810 0.8810 0.8810 0.8830 0.8830
2.309960 0.8840 0.8860 0.8860 0.8880 0.8880
2.340000 0.8890 0.8890 0.8920 0.8940 0.8970
2.370960 0.9030 0.9060 0.9080 0.9090 0.9120
2.402000 0.9200 0.9310 0.9330 0.9340 0.9360
2.432960 0.9370 0.9370 0.9390 0.9390 0.9390
2.464000 0.9390 0.9390 0.9400 0.9400 0.9400
2.494960 0.9420 0.9440 0.9470 0.9500 0.9500
2.526000 0.9510 0.9510 0.9530 0.9530 0.9530
2.556960 0.9530 0.9530 0.9530 0.9530 0.9540
2.588000 0.9540 0.9560 0.9580 0.9590 0.9590
2.618960 0.9610 0.9640 0.9650 0.9650 0.9650
2.650000 0.9670 0.9670 0.9700 0.9700 0.9700
2.680960 0.9720 0.9730 0.9750 0.9760 0.9790
2.712000 0.9810 0.9810 0.9820 0.9820 0.9820
2.742960 0.9820 0.9820 0.9810 0.9810 0.9810
2.774000 0.9790 0.9790 0.9790 0.9790 0.9790
2.804960 0.9790 0.9790 0.9790 0.9790 0.9790
2.836000 0.9790 0.9780 0.9780 0.9780 0.9780
2.866960 0.9780 0.9780 0.9780 0.9780 0.9780
2.897000 0.9750 0.9750 0.9720 0.9700 0.9680
2.927960 0.9670 0.9640 0.9610 0.9590 0.9580
2.959000 0.9560 0.9540 0.9530 0.9480 0.9400
2.989960 0.9310 0.9170 0.8970 0.8700 0.8350
3.021000 0.8020 0.7990 0.8100 0.8530 0.8840
3.051960 0.9110 0.9310 0.9330 0.9260 0.9170
3.083000 0.9080 0.9000 0.8910 0.8800 0.8690
3.113960 0.8580 0.8470 0.8420 0.8350 0.8330
3.145000 0.8350 0.8360 0.8410 0.8460 0.8520
3.175960 0.8580 0.8660 0.8750 0.8860 0.9000
3.207000 0.9110 0.9140 0.9160 0.9190 0.9190
3.237960 0.9190 0.9190 0.9190 0.9190 0.9190
3.269000 0.9190 0.9170 0.9120 0.8970 0.8560
3.299960 0.8000 0.7070 0.5870 0.4750 0.4150
3.331000 0.2480 0.1500 0.0620 0.0200 0.0130
3.361960 0.0130 0.0240 0.0260 0.0260 0.0260
3.393000 0.0270 0.0290 0.0350 0.0380 0.0400
3.423960 0.0410 0.0410 0.0450 0.0450 0.0460
3.454000 0.0460 0.0480 0.0490 0.0510 0.0540
3.484960 0.0630 0.0740 0.0910 0.1100 0.1250
3.516000 0.1520 0.1800 0.2060 0.2670 0.3290
3.546960 0.3740 0.4300 0.4630 0.5190 0.5530
3.578000 0.5780 0.5970 0.6200 0.6530 0.6740
3.608960 0.6820 0.6900 0.6950 0.6980 0.7010
3.640000 0.7010 0.6990 0.6960 0.6950 0.6930
3.670960 0.6920 0.6930 0.6960 0.7020 0.7180
3.702000 0.7240 0.7480 0.7710 0.7850 0.7940
3.732960 0.7970 0.7930 0.7830 0.7690 0.7480
3.764000 0.7210 0.6900 0.6820 0.6820 0.6920
3.794960 0.7100 0.7290 0.7440 0.7580 0.7720
3.826000 0.7850 0.7970 0.8070 0.8160 0.8250
3.856960 0.8320 0.8380 0.8440 0.8500 0.8560
3.888000 0.8630 0.8700 0.8780 0.8840 0.8910
3.918960 0.8970 0.9020 0.9110 0.9170 0.9220
3.950000 0.9230 0.9260 0.9280 0.9300 0.9310
3.980960 0.9310 0.9310 0.9310 0.9310 0.9310
4.011000 0.9300 0.9300 0.9300 0.9280 0.9260
4.041960 0.9260 0.9250 0.9250 0.9250 0.9260
4.073000 0.9260 0.9260 0.9280 0.9280 0.9300
4.103960 0.9300 0.9300 0.9310 0.9300 0.9310
4.135000 0.9310 0.9310 0.9310 0.9310 0.9310
4.165960 0.9310 0.9300 0.9300 0.9300 0.9280
4.197000 0.9280 0.9260 0.9250 0.9250 0.9250
4.227960 0.9250 0.9260 0.9260 0.9260 0.9280
4.259000 0.9300 0.9310 0.9340 0.9370 0.9400
4.289960 0.9440 0.9450 0.9470 0.9480 0.9500
4.321000 0.9500 0.9500 0.9500 0.9480 0.9480
4.351960 0.9500 0.9500 0.9510 0.9510 0.9510
4.383000 0.9510 0.9480 0.9450 0.9400 0.9360
4.413960 0.9330 0.9310 0.9280 0.9250 0.9220
4.445000 0.9200 0.9200 0.9220 0.9230 0.9260
4.475960 0.9300 0.9330 0.9340 0.9360 0.9370
4.507000 0.9370 0.9370 0.9390 0.9390 0.9390
4.537960 0.9400 0.9400 0.9400 0.9420 0.9420
4.569000 0.9420 0.9420 0.9420 0.9400 0.9400
4.599960 0.9400 0.9400 0.9400 0.9390 0.9390
4.630000 0.9370 0.9360 0.9360 0.9340 0.9330
4.660960 0.9330 0.9310 0.9300 0.9300 0.9260
4.692000 0.9260 0.9250 0.9250 0.9250 0.9280
4.722960 0.9280 0.9300 0.9330 0.9330 0.9330
4.754000 0.9340 0.9340 0.9360 0.9360 0.9370
4.784960 0.9390 0.9390 0.9400 0.9400 0.9390
4.816000 0.9390 0.9400 0.9400 0.9400 0.9400
4.846960 0.9420 0.9420 0.9420 0.9400 0.9400
4.878000 0.9400 0.9400 0.9390 0.9390 0.9370
4.908960 0.9360 0.9340 0.9340 0.9340 0.9360
4.940000 0.9360 0.9360 0.9340 0.9340 0.9360
4.970960 0.9360 0.9360 0.9360 0.9360 0.9360
5.002000 0.9370 0.9360 0.9360 0.9340 0.9340
5.032960 0.9340 0.9340 0.9330 0.9330 0.9330
5.064000 0.9340 0.9340 0.9330 0.9330 0.9310
5.094960 0.9310 0.9310 0.9300 0.9250 0.9230
5.126000 0.9220 0.9200 0.9190 0.9170 0.9160
5.156960 0.9160 0.9140 0.9140 0.9140 0.9120
5.187000 0.9120 0.9120 0.9120 0.9140 0.9170
5.217960 0.9170 0.9190 0.9190 0.9190 0.9200
5.249000 0.9200 0.9200 0.9220 0.9220 0.9220
5.279960 0.9220 0.9200 0.9200 0.9200 0.9190
5.311000 0.9190 0.9190 0.9190 0.9170 0.9170
5.341960 0.9170 0.9160 0.9160 0.9140 0.9140
5.373000 0.9140 0.9140 0.9140 0.9140 0.9120
5.403960 0.9120 0.9110 0.9090 0.9090 0.9080
5.435000 0.9060 0.9050 0.9050 0.9050 0.9050
5.465960 0.9050 0.9050 0.9030 0.9030 0.9020
5.497000 0.9020 0.9000 0.9000 0.9000 0.9000
5.527960 0.9000 0.8980 0.8980 0.8980 0.8970
5.559000 0.8970 0.8950 0.8950 0.8950 0.8950
5.589960 0.8950 0.8970 0.8970 0.8980 0.9000
5.621000 0.9000 0.9020 0.9020 0.9000 0.9000
5.651960 0.8970 0.8920 0.8860 0.8720 0.8670
5.683000 0.8600 0.8520 0.8410 0.8360 0.8330
5.713960 0.8300 0.8280 0.8240 0.8220 0.8210
5.744000 0.8190 0.8160 0.8160 0.8180 0.8190
5.774960 0.8210 0.8240 0.8270 0.8300 0.8330
5.806000 0.8360 0.8380 0.8390 0.8410 0.8410
5.836960 0.8440 0.8460 0.8490 0.8500 0.8520
5.868000 0.8530 0.8530 0.8550 0.8550 0.8530
5.898960 0.8490 0.8440 0.8410 0.8390 0.8350
5.930000 0.8320 0.8270 0.8220 0.8180 0.8110
5.960960 0.8040 0.7960 0.7830 0.7690 0.7510
5.992000 0.7290 0.7010 0.6670 0.6260 0.5980
6.022960 0.5830 0.5520 0.5060 0.4660 0.4160
6.054000 0.3570 0.3090 0.2720 0.2560 0.2370
6.084960 0.2280 0.2080 0.1800 0.1610 0.1520
6.116000 0.1440 0.1390 0.1300 0.1240 0.1270
6.146960 0.1360 0.1470 0.1570 0.1640 0.1710
6.178000 0.1800 0.1920 0.2170 0.2480 0.2830
6.208960 0.3110 0.3390 0.3670 0.4020 0.4460
6.240000 0.4740 0.5020 0.5310 0.5590 0.5870
6.270960 0.6120 0.6280 0.6460 0.6570 0.6740
6.302000 0.6930 0.7020 0.7120 0.7270 0.7340
6.332960 0.7400 0.7430 0.7480 0.7510 0.7550
6.363000 0.7600 0.7630 0.7650 0.7680 0.7710
6.393960 0.7710 0.7720 0.7710 0.7690 0.7690
6.425000 0.7690 0.7690 0.7710 0.7710 0.7720
6.455960 0.7720 0.7720 0.7740 0.7760 0.7760
6.487000 0.7740 0.7720 0.7710 0.7680 0.7580
6.517960 0.7570 0.7550 0.7550 0.7540 0.7520
6.549000 0.7480 0.7380 0.7230 0.7070 0.6960
6.579960 0.6880 0.6790 0.6710 0.6570 0.6400
6.611000 0.6150 0.5800 0.5560 0.5340 0.5200
6.641960 0.4970 0.4750 0.4550 0.4350 0.4150
6.673000 0.3960 0.3810 0.3650 0.3490 0.3370
6.703960 0.3290 0.3210 0.3200 0.3150 0.3070
6.735000 0.3010 0.2950 0.2760 0.2580 0.2370
6.765960 0.2130 0.2050 0.2020 0.2020 0.2000
6.797000 0.1910 0.1780 0.1780 0.1810 0.2050
6.827960 0.2360 0.2810 0.3140 0.3320 0.3420
6.859000 0.3430 0.3490 0.3570 0.3650 0.3770
6.889960 0.3900 0.4050 0.4230 0.4350 0.4510
6.920000 0.4690 0.4880 0.5100 0.5330 0.5550
6.950960 0.5760 0.5970 0.6090 0.6260 0.6390
6.982000 0.6500 0.6590 0.6670 0.6730 0.6780
7.012960 0.6790 0.6790 0.6790 0.6740 0.6600
7.044000 0.6370 0.6180 0.5920 0.5720 0.5390
7.074960 0.4970 0.4660 0.4260 0.3960 0.3420
7.106000 0.2970 0.2590 0.2270 0.1990 0.1740
7.136960 0.1520 0.1300 0.1070 0.0960 0.0830
7.168000 0.0730 0.0630 0.0620 0.0600 0.0590
7.198960 0.0540 0.0480 0.0460 0.0430 0.0430
7.230000 0.0410 0.0410 0.0400 0.0380 0.0380
7.260960 0.0400 0.0430 0.0510 0.0590 0.0630
7.292000 0.0710 0.0790 0.0900 0.1050 0.1250
7.322960 0.1330 0.1410 0.1490 0.1500 0.1500
7.354000 0.1490 0.1430 0.1350 0.1270 0.1220
7.384960 0.1220 0.1210 0.1210 0.1190 0.1190
7.416000 0.1220 0.1240 0.1290 0.1300 0.1330
7.446960 0.1390 0.1430 0.1520 0.1630 0.1690
7.477000 0.1770 0.1810 0.1890 0.1970 0.2050
7.507960 0.2200 0.2310 0.2410 0.2560 0.2760
7.539000 0.2950 0.3060 0.3320 0.3540 0.3760
7.569960 0.3990 0.4210 0.4460 0.4740 0.5060
7.601000 0.5420 0.5700 0.5800 0.5980 0.6180
7.631960 0.6360 0.6510 0.6670 0.6810 0.6950
7.663000 0.7060 0.7160 0.7240 0.7320 0.7380
7.693960 0.7430 0.7490 0.7550 0.7580 0.7630
7.725000 0.7660 0.7660 0.7660 0.7680 0.7680
7.755960 0.7710 0.7740 0.7760 0.7770 0.7770
7.787000 0.7770 0.7760 0.7760 0.7740 0.7740
7.817960 0.7740 0.7720 0.7710 0.7690 0.7620
7.849000 0.7600 0.7570 0.7520 0.7460 0.7400
7.879960 0.7320 0.7230 0.7150 0.7060 0.6980
7.911000 0.6880 0.6790 0.6710 0.6650 0.6570
7.941960 0.6530 0.6460 0.6390 0.6340 0.6320
7.973000 0.6310 0.6290 0.6290 0.6260 0.6250
8.003960 0.6230 0.6220 0.6200 0.6200 0.6150
8.034000 0.6120 0.6090 0.6080 0.6080 0.6090
8.064960 0.6120 0.6150 0.6180 0.6220 0.6230
8.096000 0.6230 0.6250 0.6280 0.6290 0.6360
8.126960 0.6420 0.6450 0.6460 0.6500 0.6530
8.158000 0.6570 0.6620 0.6680 0.6710 0.6780
8.188960 0.6810 0.6820 0.6850 0.6880 0.6950
8.220000 0.6990 0.6990 0.7010 0.7040 0.7040
8.250960 0.7020 0.7010 0.6990 0.6930 0.6900
8.282000 0.6820 0.6730 0.6640 0.6510 0.6390
8.312960 0.6230 0.6060 0.5870 0.5690 0.5500
8.344000 0.5280 0.4960 0.4650 0.4440 0.4160
8.374960 0.3960 0.3710 0.3570 0.3290 0.3090
8.406000 0.2780 0.2720 0.2560 0.2500 0.2410
8.436960 0.2310 0.2200 0.2110 0.2030 0.2020
8.468000 0.2000 0.1970 0.1890 0.1810 0.1750
8.498960 0.1690 0.1610 0.1530 0.1470 0.1460
8.530000 0.1470 0.1500 0.1530 0.1580 0.1600
8.560960 0.1610 0.1630 0.1690 0.1720 0.1740
8.592000 0.1750 0.1780 0.1810 0.1830 0.1850
8.622960 0.1910 0.2020 0.2130 0.2200 0.2310
8.653000 0.2390 0.2500 0.2590 0.2650 0.2720
8.683960 0.2730 0.2760 0.2790 0.2830 0.2830
8.715000 0.2840 0.2840 0.2840 0.2840 0.2840
8.745960 0.2840 0.2860 0.2860 0.2870 0.2900
8.777000 0.2970 0.3030 0.3040 0.3070 0.3110
8.807960 0.3140 0.3140 0.3090 0.3090 0.3010
8.839000 0.2970 0.2870 0.2830 0.2890 0.2980
8.869960 0.3110 0.3200 0.3350 0.3420 0.3480
8.901000 0.3560 0.3670 0.3790 0.3930 0.4070
8.931960 0.4180 0.4300 0.4380 0.4520 0.4610
8.963000 0.4720 0.4860 0.4970 0.5100 0.5200
8.993960 0.5360 0.5550 0.5730 0.5860 0.5970
9.025000 0.6040 0.6120 0.6230 0.6360 0.6510
9.055960 0.6680 0.6880 0.7060 0.7120 0.7180
9.087000 0.7270 0.7320 0.7340 0.7380 0.7410
9.117960 0.7480 0.7520 0.7580 0.7630 0.7660
9.149000 0.7690 0.7710 0.7720 0.7740 0.7770
9.179960 0.7770 0.7760 0.7720 0.7630 0.7620
9.210000 0.7630 0.7690 0.7720 0.7760 0.7790
9.240960 0.7820 0.7830 0.7830 0.7820 0.7770
9.272000 0.7740 0.7710 0.7650 0.7620 0.7600
9.302960 0.7600 0.7580 0.7580 0.7580 0.7570
9.334000 0.7540 0.7480 0.7430 0.7370 0.7230
9.364960 0.7150 0.7070 0.7020 0.7010 0.7020
9.396000 0.7020 0.7010 0.6960 0.6930 0.6900
9.426960 0.6840 0.6810 0.6780 0.6740 0.6730
9.458000 0.6700 0.6640 0.6590 0.6540 0.6500
9.488960 0.6460 0.6420 0.6360 0.6310 0.6250
9.520000 0.6170 0.6080 0.6040 0.6030 0.6030
9.550960 0.6040 0.6080 0.6110 0.6120 0.6150
9.582000 0.6180 0.6200 0.6200 0.6200 0.6200
9.612960 0.6180 0.6180 0.6180 0.6200 0.6200
9.644000 0.6200 0.6170 0.6150 0.6140 0.6120
9.674960 0.6120 0.6120 0.6120 0.6140 0.6170
9.706000 0.6260 0.6310 0.6360 0.6460 0.6570
9.736960 0.6670 0.6730 0.6810 0.6880 0.6930
9.767000 0.6980 0.7010 0.7020 0.7040 0.7060
9.797960 0.7090 0.7120 0.7150 0.7180 0.7230
9.829000 0.7270 0.7320 0.7340 0.7350 0.7350
9.859960 0.7350 0.7350 0.7340 0.7340 0.7350
9.891000 0.7380 0.7410 0.7460 0.7490 0.7510
9.921960 0.7520 0.7540 0.7550 0.7570 0.7600
9.953000 0.7600 0.7600 0.7600 0.7570 0.7520
9.983960 0.7490 0.7460 0.7440 0.7370 0.7300
10.015000 0.7260 0.7230 0.7200 0.7150 0.7090
10.045960 0.6980 0.6870 0.6780 0.6700 0.6620
10.077000 0.6560 0.6540 0.6510 0.6510 0.6500
10.107960 0.6500 0.6480 0.6480 0.6480 0.6480
10.139000 0.6480 0.6460 0.6460 0.6460 0.6450
10.169960 0.6420 0.6390 0.6290 0.6230 0.6110
10.201000 0.5980 0.5800 0.5640 0.5580 0.5470
10.231960 0.5300 0.5220 0.5190 0.5220 0.5280
10.263000 0.5340 0.5390 0.5420 0.5450 0.5520
10.293960 0.5550 0.5620 0.5700 0.5720 0.5730
10.324000 0.5720 0.5670 0.5580 0.5480 0.5340
10.354960 0.5200 0.5100 0.5060 0.5060 0.5100
10.386000 0.5160 0.5190 0.5270 0.5380 0.5480
10.416960 0.5580 0.5610 0.5670 0.5730 0.5800
10.448000 0.5840 0.5890 0.5940 0.6000 0.6060
10.478960 0.6120 0.6180 0.6230 0.6260 0.6260
10.510000 0.6310 0.6340 0.6420 0.6450 0.6460
10.540960 0.6510 0.6530 0.6560 0.6600 0.6650
10.572000 0.6680 0.6730 0.6740 0.6780 0.6850
10.602960 0.6950 0.6990 0.7010 0.7020 0.7040
10.634000 0.7090 0.7150 0.7200 0.7240 0.7300
10.664960 0.7320 0.7340 0.7350 0.7370 0.7380
10.696000 0.7430 0.7460 0.7460 0.7490 0.7510
10.726960 0.7510 0.7510 0.7510 0.7460 0.7380
10.758000 0.7270 0.7130 0.7040 0.6900 0.6840
10.788960 0.6840 0.6930 0.7020 0.7090 0.7150
10.820000 0.7270 0.7320 0.7410 0.7480 0.7540
10.850960 0.7620 0.7650 0.7690 0.7710 0.7720
10.882000 0.7720 0.7740 0.7760 0.7760 0.7790
10.912960 0.7820 0.7830 0.7850 0.7860 0.7880
10.943000 0.7880 0.7900 0.7900 0.7900 0.7910
10.973960 0.7910 0.7930 0.7940 0.7940 0.7940
11.005000 0.7940 0.7940 0.7930 0.7850 0.7820
11.035960 0.7760 0.7740 0.7760 0.7790 0.7830
11.067000 0.7900 0.7930 0.7940 0.7960 0.7970
11.097960 0.7970 0.7990 0.7990 0.8000 0.8000
11.129000 0.8000 0.8000 0.8000 0.8000 0.8000
11.159960 0.8000 0.7990 0.7970 0.7960 0.7940
11.191000 0.7940 0.7940 0.7960 0.7940 0.7930
11.221960 0.7900 0.7850 0.7830 0.7820 0.7790
11.253000 0.7800 0.7820 0.7800 0.7800 0.7800
11.283960 0.7770 0.7740 0.7720 0.7740 0.7740
11.315000 0.7800 0.7820 0.7820 0.7790 0.7790
11.345960 0.7760 0.7740 0.7720 0.7720 0.7710
11.377000 0.7710 0.7690 0.7680 0.7650 0.7650
11.407960 0.7630 0.7620 0.7600 0.7580 0.7580
11.439000 0.7570 0.7570 0.7550 0.7540 0.7540
11.469960 0.7520 0.7480 0.7400 0.7320 0.7270
11.500000 0.7240 0.7230 0.7240 0.7240 0.7230
11.530960 0.7180 0.7090 0.6980 0.6870 0.6850
11.562000 0.6870 0.6870 0.6900 0.6900 0.6900
11.592960 0.6870 0.6810 0.6760 0.6710 0.6670
11.624000 0.6620 0.6570 0.6530 0.6480 0.6420
11.654960 0.6340 0.6280 0.6220 0.6170 0.6080
11.686000 0.6010 0.5900 0.5810 0.5730 0.5670
11.716960 0.5530 0.5420 0.5270 0.5060 0.4930
11.748000 0.4800 0.4610 0.4510 0.4370 0.4230
11.778960 0.4070 0.3960 0.3870 0.3680 0.3460
11.810000 0.3310 0.3140 0.2970 0.2810 0.2650
11.840960 0.2530 0.2390 0.2270 0.2200 0.2050
11.872000 0.1950 0.1800 0.1710 0.1610 0.1490
11.902960 0.1360 0.1300 0.1240 0.1180 0.1100
11.934000 0.1050 0.0990 0.0960 0.0940 0.0930
11.964960 0.0910 0.0910 0.0900 0.0900 0.0900
11.996000 0.0880 0.0820 0.0800 0.0800 0.0790
12.026960 0.0790 0.0790 0.0790 0.0790 0.0770
12.057000 0.0760 0.0760 0.0740 0.0730 0.0690
12.087960 0.0680 0.0660 0.0630 0.0590 0.0590
12.119000 0.0540 0.0520 0.0490 0.0480 0.0480
12.149960 0.0480 0.0480 0.0490 0.0490 0.0510
12.181000 0.0520 0.0520 0.0540 0.0540 0.0540
12.211960 0.0540 0.0520 0.0520 0.0520 0.0510
12.243000 0.0510 0.0490 0.0480 0.0410 0.0380
12.273960 0.0380 0.0350 0.0340 0.0340 0.0320
12.305000 0.0320 0.0310 0.0290 0.0290 0.0290
12.335960 0.0290 0.0290 0.0290 0.0270 0.0270
12.367000 0.0270 0.0260 0.0240 0.0230 0.0210
12.397960 0.0200 0.0180 0.0180 0.0200 0.0200
12.429000 0.0210 0.0210 0.0230 0.0240 0.0240
12.459960 0.0230 0.0230 0.0230 0.0210 0.0210
12.491000 0.0210 0.0230 0.0230 0.0230 0.0230
12.521960 0.0230 0.0230 0.0230 0.0230 0.0230
12.553000 0.0210 0.0210 0.0210 0.0210 0.0210
12.583960 0.0210 0.0210 0.0230 0.0230 0.0230
12.615000 0.0230 0.0230 0.0230 0.0230 0.0230
12.645960 0.0230 0.0210 0.0210 0.0210 0.0210
12.676000 0.0210 0.0210 0.0210 0.0230 0.0230
12.706960 0.0230 0.0210 0.0210 0.0210 0.0200
12.738000 0.0200 0.0200 0.0200 0.0200 0.0200
12.768960 0.0200 0.0210 0.0210 0.0210 0.0230
12.800000 0.0210 0.0210 0.0210 0.0210 0.0210
12.830960 0.0230 0.0210 0.0210 0.0210 0.0210
12.862000 0.0230 0.0230 0.0230 0.0210 0.0210
12.892960 0.0210 0.0230 0.0240 0.0240 0.0240
12.924000 0.0240 0.0240 0.0230 0.0230 0.0230
12.954960 0.0210 0.0210 0.0210 0.0210 0.0210
12.986000 0.0230 0.0230 0.0240 0.0240 0.0240
13.016960 0.0260 0.0260 0.0260 0.0270 0.0270
13.048000 0.0270 0.0270 0.0270 0.0270 0.0270
13.078960 0.0270 0.0270 0.0270 0.0270 0.0290
13.110000 0.0290 0.0310 0.0310 0.0320 0.0350
13.140960 0.0370 0.0380 0.0380 0.0400 0.0430
13.172000 0.0480 0.0490 0.0510 0.0520 0.0540
13.202960 0.0550 0.0550 0.0570 0.0590 0.0630
13.233000 0.0680 0.0690 0.0730 0.0770 0.0800
13.263960 0.0870 0.0910 0.0970 0.1020 0.1130
13.295000 0.1190 0.1250 0.1320 0.1360 0.1460
13.325960 0.1500 0.1530 0.1610 0.1690 0.1800
13.357000 0.1830 0.1890 0.1970 0.2030 0.2090
13.387960 0.2140 0.2190 0.2270 0.2360 0.2450
13.419000 0.2510 0.2530 0.2610 0.2670 0.2720
13.449960 0.2750 0.2810 0.2890 0.2920 0.2980
13.481000 0.3010 0.3090 0.3140 0.3200 0.3230
13.511960 0.3280 0.3320 0.3390 0.3460 0.3510
13.543000 0.3540 0.3590 0.3600 0.3630 0.3700
13.573960 0.3730 0.3790 0.3820 0.3850 0.3880
13.605000 0.3910 0.3950 0.3990 0.4020 0.4070
13.635960 0.4120 0.4150 0.4210 0.4260 0.4300
13.667000 0.4350 0.4400 0.4440 0.4490 0.4520
13.697960 0.4600 0.4610 0.4630 0.4660 0.4690
13.729000 0.4690 0.4710 0.4740 0.4790 0.4820
13.759960 0.4850 0.4880 0.4890 0.4910 0.4910
13.790000 0.4940 0.4940 0.4960 0.4970 0.4990
13.820960 0.5000 0.5020 0.5050 0.5100 0.5130
13.852000 0.5190 0.5240 0.5270 0.5310 0.5330
13.882960 0.5340 0.5380 0.5410 0.5420 0.5440
13.914000 0.5450 0.5500 0.5480 0.5520 0.5530
13.944960 0.5590 0.5590 0.5620 0.5640 0.5660
13.976000 0.5690 0.5700 0.5720 0.5730 0.5750
14.006960 0.5760 0.5780 0.5800 0.5810 0.5810
14.038000 0.5810 0.5810 0.5830 0.5830 0.5860
14.068960 0.5870 0.5870 0.5870 0.5890 0.5890
14.100000 0.5900 0.5920 0.5920 0.5950 0.5950
14.130960 0.5970 0.5970 0.5970 0.5980 0.5980
14.162000 0.5980 0.6000 0.6010 0.6030 0.6040
14.192960 0.6090 0.6090 0.6110 0.6120 0.6120
14.224000 0.6140 0.6140 0.6170 0.6200 0.6200
14.254960 0.6220 0.6220 0.6230 0.6250 0.6260
14.286000 0.6280 0.6280 0.6280 0.6290 0.6290
14.316960 0.6290 0.6290 0.6310 0.6320 0.6320
14.347000 0.6320 0.6340 0.6360 0.6370 0.6370
14.377960 0.6390 0.6390 0.6390 0.6390 0.6400
14.409000 0.6400 0.6400 0.6390 0.6390 0.6390
14.439960 0.6400 0.6400 0.6400 0.6400 0.6420
14.471000 0.6400 0.6420 0.6420 0.6420 0.6420
14.501960 0.6420 0.6430 0.6430 0.6430 0.6430
14.533000 0.6450 0.6460 0.6460 0.6460 0.6480
14.563960 0.6500 0.6500 0.6510 0.6530 0.6530
14.595000 0.6540 0.6560 0.6570 0.6600 0.6600
14.625960 0.6620 0.6640 0.6650 0.6650 0.6670
14.657000 0.6670 0.6680 0.6700 0.6730 0.6740
14.687960 0.6740 0.6740 0.6740 0.6740 0.6760
14.719000 0.6760 0.6780 0.6790 0.6790 0.6790
14.749960 0.6790 0.6790 0.6790 0.6810 0.6810
14.781000 0.6810 0.6820 0.6840 0.6850 0.6880
14.811960 0.6900 0.6900 0.6900 0.6880 0.6880
14.843000 0.6880 0.6900 0.6900 0.6900 0.6900
14.873960 0.6880 0.6880 0.6880 0.6880 0.6880
14.905000 0.6900 0.6900 0.6900 0.6900 0.6920
14.935960 0.6920 0.6920 0.6920 0.6930 0.6930
14.966000 0.6930 0.6950 0.6930 0.6930 0.6920
14.996960 0.6920 0.6920 0.6920 0.6920 0.6920
15.028000 0.6920 0.6920 0.6920 0.6920 0.6920
15.058960 0.6920 0.6920 0.6920 0.6930 0.6930
15.090000 0.6950 0.6950 0.6960 0.6980 0.6980
15.120960 0.6990 0.6990 0.7020 0.7040 0.7060
15.152000 0.7060 0.7070 0.7070 0.7090 0.7090
15.182960 0.7100 0.7100 0.7100 0.7090 0.7090
15.214000 0.7070 0.7060 0.7060 0.7060 0.7040
