##TITLE=Ethylene, 1,1-dichloro-
##JCAMP-DX=4.24
##DATA TYPE=INFRARED SPECTRUM
##CLASS=COBLENTZ
##ORIGIN=DOW CHEMICAL COMPANY
##OWNER=Copyright (C) 1987 by the Coblentz Society
Collection (C) 2018 copyright by the U.S. Secretary of Commerce
on behalf of the United States of America. All rights reserved.
##DATE=1964
##NAMES=1,1-dichloroethylene
1,1-DICHLORO ETHYLENE
##CAS REGISTRY NO=75-35-4
##MOLFORM=C2 H2 Cl2
##SOURCE REFERENCE=COBLENTZ NO. 8858
##$NIST SOURCE=COBLENTZ
##$NIST IMAGE=cob8858
##SPECTROMETER/DATA SYSTEM=DOW KBr FOREPRISM-GRATING
##INSTRUMENT PARAMETERS=GRATING CHANGED AT 5.0, 7.5, 15.0 MICRON
##STATE=GAS (100 mmHg, N2 ADDED, TOTAL PRESSURE 600 mmHg)
##PATH LENGTH=5 CM
##SAMPLING PROCEDURE=TRANSMISSION
##RESOLUTION=2
##DATA PROCESSING=DIGITIZED BY COBLENTZ SOCIETY (BATCH II) FROM HARD COPY
##XUNITS=1/CM
##YUNITS=TRANSMITTANCE
##XFACTOR=1.0
##YFACTOR=1
##FIRSTX=462
##LASTX=3798
##FIRSTY=0.7265
##MAXX=3798
##MINX=462
##MAXY=0.9023
##MINY=0.0052
##NPOINTS=3337
##XYDATA=(X++(Y..Y))
462.000000 0.7265 0.7284 0.7306 0.7326 0.7345
467.000000 0.7366 0.7388 0.7411 0.7433 0.7460
472.000000 0.7491 0.7522 0.7553 0.7593 0.7638
477.000000 0.7683 0.7729 0.7817 0.7905 0.7986
482.000000 0.8053 0.8120 0.8186 0.8248 0.8304
487.000000 0.8360 0.8387 0.8403 0.8410 0.8414
492.000000 0.8419 0.8422 0.8421 0.8420 0.8418
497.000000 0.8417 0.8415 0.8416 0.8417 0.8419
502.000000 0.8420 0.8421 0.8423 0.8424 0.8424
507.000000 0.8425 0.8425 0.8426 0.8427 0.8427
512.000000 0.8428 0.8435 0.8429 0.8429 0.8430
517.000000 0.8430 0.8431 0.8431 0.8432 0.8435
522.000000 0.8438 0.8442 0.8445 0.8450 0.8455
527.000000 0.8459 0.8464 0.8464 0.8458 0.8450
532.000000 0.8438 0.8425 0.8417 0.8415 0.8414
537.000000 0.8419 0.8424 0.8429 0.8434 0.8439
542.000000 0.8443 0.8447 0.8451 0.8455 0.8459
547.000000 0.8464 0.8468 0.8472 0.8476 0.8478
552.000000 0.8480 0.8482 0.8484 0.8486 0.8488
557.000000 0.8489 0.8491 0.8491 0.8489 0.8486
562.000000 0.8483 0.8479 0.8467 0.8455 0.8438
567.000000 0.8410 0.8369 0.8323 0.8274 0.8210
572.000000 0.8131 0.8048 0.7949 0.7853 0.7778
577.000000 0.7702 0.7627 0.7375 0.7119 0.6863
582.000000 0.6606 0.6350 0.6094 0.5838 0.5581
587.000000 0.5325 0.5069 0.4813 0.4556 0.4300
592.000000 0.4044 0.3788 0.3531 0.3275 0.3182
597.000000 0.3202 0.3180 0.3218 0.3505 0.3792
602.000000 0.4079 0.4161 0.4180 0.4005 0.3693
607.000000 0.3381 0.3068 0.2756 0.2670 0.2887
612.000000 0.3224 0.3562 0.3899 0.4237 0.4574
617.000000 0.4912 0.5249 0.5586 0.5924 0.6261
622.000000 0.6599 0.6826 0.6950 0.7285 0.7579
627.000000 0.7791 0.7968 0.8099 0.8195 0.8291
632.000000 0.8379 0.8461 0.8525 0.8559 0.8592
637.000000 0.8625 0.8646 0.8666 0.8686 0.8693
642.000000 0.8699 0.8705 0.8711 0.8713 0.8715
647.000000 0.8717 0.8719 0.8718 0.8717 0.8717
652.000000 0.8716 0.8715 0.8715 0.8714 0.8714
657.000000 0.8713 0.8713 0.8712 0.8712 0.8712
662.000000 0.8712 0.8712 0.8713 0.8729 0.8746
667.000000 0.8771 0.8798 0.8810 0.8813 0.8813
672.000000 0.8813 0.8801 0.8784 0.8766 0.8746
677.000000 0.8724 0.8713 0.8727 0.8745 0.8771
682.000000 0.8796 0.8821 0.8825 0.8824 0.8822
687.000000 0.8821 0.8819 0.8818 0.8815 0.8813
692.000000 0.8810 0.8810 0.8810 0.8811 0.8813
697.000000 0.8820 0.8827 0.8834 0.8842 0.8851
702.000000 0.8855 0.8844 0.8831 0.8823 0.8823
707.000000 0.8824 0.8825 0.8826 0.8826 0.8824
712.000000 0.8822 0.8820 0.8818 0.8816 0.8815
717.000000 0.8813 0.8809 0.8805 0.8801 0.8797
722.000000 0.8793 0.8789 0.8785 0.8781 0.8779
727.000000 0.8776 0.8790 0.8770 0.8767 0.8765
732.000000 0.8762 0.8759 0.8756 0.8753 0.8750
737.000000 0.8747 0.8744 0.8741 0.8738 0.8735
742.000000 0.8730 0.8721 0.8713 0.8704 0.8692
747.000000 0.8673 0.8653 0.8634 0.8590 0.8545
752.000000 0.8495 0.8444 0.8391 0.8337 0.8282
757.000000 0.8205 0.8128 0.7974 0.7720 0.7467
762.000000 0.7213 0.6959 0.6705 0.6452 0.5867
767.000000 0.5377 0.4863 0.4349 0.3835 0.3322
772.000000 0.2808 0.2294 0.1792 0.1593 0.1399
777.000000 0.1151 0.0482 0.0341 0.0222 0.0150
782.000000 0.0107 0.0096 0.0093 0.0116 0.0095
787.000000 0.0096 0.0097 0.0106 0.0118 0.0134
792.000000 0.0151 0.0169 0.0187 0.0194 0.0194
797.000000 0.0206 0.0098 0.0067 0.0061 0.0064
802.000000 0.0052 0.0081 0.0097 0.0144 0.0246
807.000000 0.0349 0.0442 0.0824 0.1727 0.2631
812.000000 0.3534 0.4651 0.5204 0.5800 0.6397
817.000000 0.6993 0.7373 0.7526 0.7706 0.7834
822.000000 0.7897 0.7936 0.7963 0.8023 0.8013
827.000000 0.7867 0.7651 0.7626 0.7637 0.7983
832.000000 0.8001 0.7790 0.7387 0.7275 0.7205
837.000000 0.7135 0.6972 0.6543 0.6114 0.5685
842.000000 0.5256 0.4827 0.4397 0.3968 0.3539
847.000000 0.3110 0.2681 0.2306 0.2147 0.2014
852.000000 0.1894 0.1817 0.1739 0.1706 0.1681
857.000000 0.1677 0.1671 0.1649 0.1212 0.0620
862.000000 0.0604 0.0856 0.1229 0.1601 0.1974
867.000000 0.2347 0.2366 0.2382 0.0161 0.0574
872.000000 0.0792 0.1011 0.1115 0.1168 0.1223
877.000000 0.1239 0.1253 0.1270 0.1288 0.1340
882.000000 0.1388 0.1450 0.1515 0.1585 0.1679
887.000000 0.1762 0.1855 0.2094 0.2504 0.2915
892.000000 0.3325 0.3736 0.4146 0.4557 0.4967
897.000000 0.5378 0.5788 0.6198 0.6609 0.7019
902.000000 0.7256 0.7360 0.7428 0.7477 0.7526
907.000000 0.7577 0.7628 0.8050 0.8214 0.8299
912.000000 0.8319 0.8251 0.8177 0.8103 0.8029
917.000000 0.8004 0.7991 0.8006 0.8022 0.8054
922.000000 0.8096 0.8151 0.8210 0.8272 0.8326
927.000000 0.8375 0.8428 0.8452 0.8469 0.8385
932.000000 0.8290 0.8247 0.8271 0.8387 0.8502
937.000000 0.8554 0.8597 0.8628 0.8655 0.8680
942.000000 0.8694 0.8706 0.8715 0.8725 0.8734
947.000000 0.8740 0.8746 0.8752 0.8757 0.8761
952.000000 0.8766 0.8771 0.8775 0.8780 0.8785
957.000000 0.8791 0.8796 0.8801 0.8806 0.8812
962.000000 0.8815 0.8817 0.8820 0.8823 0.8825
967.000000 0.8828 0.8831 0.8833 0.8833 0.8833
972.000000 0.8834 0.8834 0.8835 0.8835 0.8836
977.000000 0.8836 0.8836 0.8837 0.8839 0.8842
982.000000 0.8845 0.8848 0.8851 0.8857 0.8866
987.000000 0.8875 0.8884 0.8892 0.8900 0.8901
992.000000 0.8901 0.8902 0.8903 0.8903 0.8895
997.000000 0.8888 0.8880 0.8865 0.8850 0.8835
1002.000000 0.8822 0.8808 0.8795 0.8784 0.8776
1007.000000 0.8768 0.8760 0.8754 0.8753 0.8752
1012.000000 0.8751 0.8762 0.8754 0.8758 0.8762
1017.000000 0.8766 0.8770 0.8779 0.8787 0.8795
1022.000000 0.8803 0.8812 0.8822 0.8831 0.8841
1027.000000 0.8851 0.8862 0.8875 0.8888 0.8901
1032.000000 0.8906 0.8909 0.8913 0.8912 0.8910
1037.000000 0.8908 0.8902 0.8890 0.8878 0.8866
1042.000000 0.8853 0.8837 0.8821 0.8799 0.8767
1047.000000 0.8735 0.8684 0.8628 0.8567 0.8506
1052.000000 0.8437 0.8361 0.8286 0.8164 0.8065
1057.000000 0.7977 0.7880 0.7728 0.7570 0.6972
1062.000000 0.6374 0.5776 0.5178 0.4580 0.3982
1067.000000 0.3384 0.1567 0.1289 0.0977 0.0851
1072.000000 0.0706 0.0566 0.0467 0.0391 0.0341
1077.000000 0.0295 0.0255 0.0228 0.0200 0.0178
1082.000000 0.0160 0.0141 0.0133 0.0126 0.0118
1087.000000 0.0116 0.0098 0.0114 0.0115 0.0121
1092.000000 0.0127 0.0138 0.0152 0.0179 0.0204
1097.000000 0.0279 0.0458 0.0411 0.0367 0.0285
1102.000000 0.0215 0.0215 0.0207 0.0233 0.0256
1107.000000 0.0327 0.0629 0.1442 0.2255 0.3068
1112.000000 0.3750 0.4345 0.4941 0.5537 0.6132
1117.000000 0.6728 0.7324 0.7467 0.7303 0.6961
1122.000000 0.6619 0.6276 0.5934 0.5592 0.5250
1127.000000 0.4907 0.4565 0.4223 0.3881 0.3538
1132.000000 0.3514 0.3516 0.3734 0.3964 0.4193
1137.000000 0.4474 0.4475 0.2122 0.2129 0.3450
1142.000000 0.5336 0.5265 0.5348 0.4503 0.4122
1147.000000 0.3741 0.3501 0.3501 0.3494 0.4351
1152.000000 0.4965 0.5580 0.6819 0.7037 0.7238
1157.000000 0.8088 0.8194 0.8302 0.8428 0.8553
1162.000000 0.8645 0.8720 0.8757 0.8783 0.8803
1167.000000 0.8804 0.8806 0.8807 0.8802 0.8796
1172.000000 0.8790 0.8784 0.8779 0.8777 0.8774
1177.000000 0.8774 0.8780 0.8795 0.8827 0.8859
1182.000000 0.8889 0.8918 0.8948 0.8957 0.8960
1187.000000 0.8963 0.8966 0.8969 0.8970 0.8970
1192.000000 0.8969 0.8969 0.8968 0.8968 0.8967
1197.000000 0.8967 0.8967 0.8967 0.8967 0.8967
1202.000000 0.8968 0.8979 0.8973 0.8976 0.8980
1207.000000 0.8983 0.8986 0.8989 0.8992 0.8996
1212.000000 0.9000 0.9004 0.9009 0.9013 0.9018
1217.000000 0.9022 0.9023 0.9023 0.9023 0.9023
1222.000000 0.9021 0.9018 0.9014 0.9011 0.9007
1227.000000 0.9003 0.9000 0.8995 0.8985 0.8974
1232.000000 0.8964 0.8953 0.8942 0.8923 0.8904
1237.000000 0.8885 0.8865 0.8849 0.8841 0.8834
1242.000000 0.8826 0.8819 0.8812 0.8804 0.8801
1247.000000 0.8797 0.8794 0.8791 0.8787 0.8784
1252.000000 0.8781 0.8778 0.8780 0.8782 0.8785
1257.000000 0.8787 0.8789 0.8791 0.8793 0.8801
1262.000000 0.8811 0.8820 0.8829 0.8838 0.8843
1267.000000 0.8846 0.8849 0.8852 0.8855 0.8855
1272.000000 0.8853 0.8851 0.8850 0.8845 0.8839
1277.000000 0.8832 0.8826 0.8819 0.8813 0.8806
1282.000000 0.8796 0.8782 0.8768 0.8754 0.8740
1287.000000 0.8726 0.8712 0.8698 0.8682 0.8664
1292.000000 0.8645 0.8627 0.8609 0.8590 0.8572
1297.000000 0.8544 0.8514 0.8484 0.8455 0.8425
1302.000000 0.8393 0.8358 0.8324 0.8289 0.8255
1307.000000 0.8220 0.8171 0.8116 0.8061 0.8029
1312.000000 0.8001 0.8019 0.8053 0.8125 0.8220
1317.000000 0.8360 0.8384 0.8384 0.8378 0.8304
1322.000000 0.8176 0.8071 0.7979 0.7973 0.7977
1327.000000 0.7992 0.8015 0.8049 0.8083 0.8115
1332.000000 0.8147 0.8179 0.8211 0.8243 0.8275
1337.000000 0.8299 0.8323 0.8346 0.8367 0.8374
1342.000000 0.8380 0.8401 0.8374 0.8363 0.8351
1347.000000 0.8335 0.8300 0.8249 0.8130 0.8030
1352.000000 0.7843 0.7763 0.7706 0.7649 0.7591
1357.000000 0.7534 0.7476 0.7419 0.7362 0.7304
1362.000000 0.7247 0.7190 0.7132 0.7075 0.7018
1367.000000 0.6960 0.6903 0.6845 0.6807 0.6778
1372.000000 0.6743 0.6701 0.6658 0.6616 0.6583
1377.000000 0.6553 0.6524 0.6494 0.6465 0.6441
1382.000000 0.6429 0.6416 0.6404 0.6384 0.6403
1387.000000 0.6410 0.6420 0.6438 0.6457 0.6485
1392.000000 0.6521 0.6559 0.6596 0.6620 0.6620
1397.000000 0.6620 0.6620 0.6669 0.6819 0.6998
1402.000000 0.7123 0.7171 0.7200 0.7229 0.7259
1407.000000 0.7326 0.7417 0.7576 0.7776 0.8036
1412.000000 0.8227 0.8363 0.8468 0.8504 0.8526
1417.000000 0.8538 0.8548 0.8553 0.8559 0.8565
1422.000000 0.8565 0.8565 0.8565 0.8565 0.8563
1427.000000 0.8561 0.8559 0.8558 0.8558 0.8558
1432.000000 0.8558 0.8560 0.8563 0.8568 0.8580
1437.000000 0.8593 0.8608 0.8628 0.8625 0.8620
1442.000000 0.8615 0.8610 0.8606 0.8603 0.8601
1447.000000 0.8598 0.8588 0.8578 0.8568 0.8558
1452.000000 0.8548 0.8540 0.8542 0.8543 0.8551
1457.000000 0.8568 0.8595 0.8620 0.8633 0.8635
1462.000000 0.8637 0.8639 0.8641 0.8640 0.8640
1467.000000 0.8639 0.8638 0.8638 0.8637 0.8637
1472.000000 0.8636 0.8636 0.8636 0.8635 0.8635
1477.000000 0.8634 0.8633 0.8632 0.8630 0.8629
1482.000000 0.8628 0.8626 0.8625 0.8624 0.8622
1487.000000 0.8620 0.8617 0.8615 0.8612 0.8610
1492.000000 0.8608 0.8605 0.8603 0.8601 0.8604
1497.000000 0.8607 0.8610 0.8613 0.8616 0.8616
1502.000000 0.8608 0.8596 0.8582 0.8572 0.8621
1507.000000 0.8573 0.8585 0.8599 0.8612 0.8624
1512.000000 0.8633 0.8624 0.8613 0.8591 0.8569
1517.000000 0.8549 0.8530 0.8510 0.8488 0.8465
1522.000000 0.8438 0.8397 0.8352 0.8307 0.8255
1527.000000 0.8202 0.8148 0.8092 0.8037 0.7981
1532.000000 0.7919 0.7854 0.7788 0.7723 0.7650
1537.000000 0.7563 0.7475 0.7359 0.7244 0.7033
1542.000000 0.6821 0.6515 0.6574 0.6642 0.6675
1547.000000 0.6657 0.6539 0.6016 0.5831 0.5569
1552.000000 0.5413 0.5175 0.4714 0.4430 0.4146
1557.000000 0.3861 0.3577 0.3293 0.3026 0.3005
1562.000000 0.2999 0.2999 0.3026 0.3128 0.3221
1567.000000 0.3313 0.3406 0.3498 0.3590 0.3613
1572.000000 0.3607 0.3328 0.3081 0.2834 0.2588
1577.000000 0.2386 0.2378 0.2781 0.3153 0.3525
1582.000000 0.3897 0.4268 0.4640 0.4993 0.5088
1587.000000 0.5136 0.5143 0.5149 0.5110 0.5038
1592.000000 0.4979 0.4907 0.4735 0.4554 0.4408
1597.000000 0.4201 0.3704 0.3169 0.2708 0.2507
1602.000000 0.1875 0.1732 0.1189 0.1003 0.0816
1607.000000 0.0675 0.0536 0.0374 0.0260 0.0203
1612.000000 0.0189 0.0202 0.0210 0.0228 0.0249
1617.000000 0.0273 0.0299 0.0440 0.0628 0.0816
1622.000000 0.0854 0.0654 0.0856 0.0106 0.0102
1627.000000 0.0104 0.0110 0.0146 0.0238 0.0311
1632.000000 0.0381 0.0576 0.0721 0.0866 0.1012
1637.000000 0.1275 0.1619 0.1843 0.2210 0.2620
1642.000000 0.3029 0.3438 0.3847 0.4257 0.4666
1647.000000 0.5075 0.5485 0.6416 0.6733 0.6937
1652.000000 0.7121 0.7279 0.7431 0.7561 0.7681
1657.000000 0.7863 0.8327 0.8400 0.8436 0.8454
1662.000000 0.8472 0.8487 0.8496 0.8506 0.8511
1667.000000 0.8516 0.8519 0.8519 0.8518 0.8514
1672.000000 0.8510 0.8506 0.8503 0.8502 0.8500
1677.000000 0.8499 0.8497 0.8490 0.8480 0.8469
1682.000000 0.8451 0.8433 0.8413 0.8474 0.8427
1687.000000 0.8447 0.8470 0.8465 0.8459 0.8453
1692.000000 0.8448 0.8444 0.8439 0.8429 0.8422
1697.000000 0.8417 0.8411 0.8412 0.8416 0.8434
1702.000000 0.8460 0.8470 0.8471 0.8471 0.8472
1707.000000 0.8472 0.8472 0.8471 0.8469 0.8461
1712.000000 0.8448 0.8436 0.8423 0.8400 0.8379
1717.000000 0.8360 0.8342 0.8329 0.8317 0.8304
1722.000000 0.8284 0.8263 0.8243 0.8220 0.8183
1727.000000 0.8145 0.8108 0.8055 0.7995 0.7903
1732.000000 0.7811 0.7593 0.7537 0.7535 0.7542
1737.000000 0.7543 0.7554 0.7602 0.7745 0.7888
1742.000000 0.8031 0.8146 0.8121 0.8032 0.7828
1747.000000 0.7623 0.7435 0.7449 0.7458 0.7500
1752.000000 0.7558 0.7637 0.7741 0.7923 0.7953
1757.000000 0.7979 0.8004 0.8030 0.8060 0.8101
1762.000000 0.8183 0.8290 0.8337 0.8347 0.8359
1767.000000 0.8370 0.8382 0.8394 0.8406 0.8423
1772.000000 0.8439 0.8461 0.8489 0.8515 0.8538
1777.000000 0.8542 0.8541 0.8540 0.8538 0.8538
1782.000000 0.8538 0.8539 0.8541 0.8542 0.8544
1787.000000 0.8545 0.8547 0.8550 0.8553 0.8558
1792.000000 0.8564 0.8570 0.8574 0.8574 0.8572
1797.000000 0.8568 0.8564 0.8560 0.8556 0.8552
1802.000000 0.8548 0.8547 0.8547 0.8548 0.8548
1807.000000 0.8557 0.8568 0.8580 0.8593 0.8604
1812.000000 0.8609 0.8609 0.8607 0.8606 0.8604
1817.000000 0.8603 0.8600 0.8597 0.8594 0.8591
1822.000000 0.8588 0.8585 0.8585 0.8587 0.8590
1827.000000 0.8593 0.8599 0.8606 0.8610 0.8614
1832.000000 0.8618 0.8618 0.8616 0.8614 0.8612
1837.000000 0.8609 0.8605 0.8601 0.8597 0.8594
1842.000000 0.8590 0.8586 0.8582 0.8578 0.8575
1847.000000 0.8571 0.8567 0.8562 0.8558 0.8554
1852.000000 0.8549 0.8545 0.8540 0.8535 0.8530
1857.000000 0.8525 0.8519 0.8514 0.8509 0.8504
1862.000000 0.8499 0.8493 0.8489 0.8485 0.8481
1867.000000 0.8476 0.8472 0.8471 0.8471 0.8471
1872.000000 0.8471 0.8471 0.8471 0.8471 0.8471
1877.000000 0.8474 0.8477 0.8481 0.8484 0.8486
1882.000000 0.8483 0.8479 0.8474 0.8469 0.8465
1887.000000 0.8460 0.8461 0.8462 0.8463 0.8464
1892.000000 0.8467 0.8471 0.8475 0.8481 0.8490
1897.000000 0.8498 0.8509 0.8521 0.8531 0.8541
1902.000000 0.8550 0.8559 0.8567 0.8570 0.8573
1907.000000 0.8576 0.8580 0.8579 0.8575 0.8571
1912.000000 0.8567 0.8562 0.8556 0.8551 0.8545
1917.000000 0.8541 0.8537 0.8538 0.8541 0.8544
1922.000000 0.8547 0.8550 0.8553 0.8556 0.8559
1927.000000 0.8562 0.8565 0.8568 0.8571 0.8574
1932.000000 0.8577 0.8580 0.8583 0.8586 0.8589
1937.000000 0.8592 0.8595 0.8598 0.8601 0.8603
1942.000000 0.8606 0.8609 0.8612 0.8615 0.8616
1947.000000 0.8617 0.8619 0.8622 0.8625 0.8629
1952.000000 0.8632 0.8636 0.8639 0.8640 0.8640
1957.000000 0.8641 0.8642 0.8642 0.8641 0.8640
1962.000000 0.8638 0.8637 0.8635 0.8631 0.8631
1967.000000 0.8629 0.8627 0.8624 0.8624 0.8624
1972.000000 0.8624 0.8624 0.8624 0.8625 0.8626
1977.000000 0.8627 0.8628 0.8629 0.8630 0.8631
1982.000000 0.8633 0.8634 0.8636 0.8638 0.8640
1987.000000 0.8642 0.8644 0.8646 0.8649 0.8651
1992.000000 0.8654 0.8656 0.8659 0.8660 0.8660
1997.000000 0.8660 0.8659 0.8659 0.8659 0.8658
2002.000000 0.8658 0.8657 0.8657 0.8657 0.8657
2007.000000 0.8657 0.8657 0.8656 0.8656 0.8656
2012.000000 0.8656 0.8655 0.8655 0.8655 0.8655
2017.000000 0.8654 0.8654 0.8654 0.8654 0.8654
2022.000000 0.8654 0.8653 0.8653 0.8653 0.8653
2027.000000 0.8652 0.8652 0.8652 0.8652 0.8651
2032.000000 0.8651 0.8651 0.8651 0.8651 0.8651
2037.000000 0.8650 0.8650 0.8649 0.8649 0.8648
2042.000000 0.8647 0.8646 0.8646 0.8645 0.8645
2047.000000 0.8644 0.8644 0.8643 0.8643 0.8642
2052.000000 0.8642 0.8641 0.8641 0.8640 0.8640
2057.000000 0.8639 0.8638 0.8637 0.8637 0.8636
2062.000000 0.8635 0.8634 0.8634 0.8633 0.8632
2067.000000 0.8631 0.8631 0.8630 0.8629 0.8628
2072.000000 0.8628 0.8627 0.8626 0.8625 0.8625
2077.000000 0.8625 0.8625 0.8627 0.8630 0.8635
2082.000000 0.8640 0.8645 0.8650 0.8655 0.8660
2087.000000 0.8664 0.8668 0.8669 0.8671 0.8672
2092.000000 0.8673 0.8674 0.8676 0.8677 0.8679
2097.000000 0.8679 0.8679 0.8678 0.8678 0.8677
2102.000000 0.8677 0.8676 0.8675 0.8674 0.8674
2107.000000 0.8673 0.8673 0.8672 0.8672 0.8671
2112.000000 0.8671 0.8670 0.8670 0.8670 0.8670
2117.000000 0.8669 0.8669 0.8668 0.8668 0.8667
2122.000000 0.8667 0.8666 0.8666 0.8665 0.8665
2127.000000 0.8665 0.8665 0.8664 0.8664 0.8664
2132.000000 0.8664 0.8663 0.8663 0.8663 0.8663
2137.000000 0.8662 0.8662 0.8662 0.8662 0.8661
2142.000000 0.8661 0.8660 0.8660 0.8659 0.8658
2147.000000 0.8657 0.8656 0.8655 0.8655 0.8654
2152.000000 0.8653 0.8652 0.8651 0.8650 0.8650
2157.000000 0.8649 0.8648 0.8647 0.8646 0.8645
2162.000000 0.8645 0.8644 0.8643 0.8642 0.8642
2167.000000 0.8641 0.8640 0.8639 0.8639 0.8638
2172.000000 0.8638 0.8637 0.8636 0.8635 0.8635
2177.000000 0.8634 0.8634 0.8633 0.8632 0.8630
2182.000000 0.8629 0.8627 0.8626 0.8624 0.8623
2187.000000 0.8621 0.8620 0.8618 0.8617 0.8615
2192.000000 0.8614 0.8612 0.8611 0.8608 0.8606
2197.000000 0.8603 0.8601 0.8598 0.8596 0.8593
2202.000000 0.8591 0.8588 0.8586 0.8583 0.8581
2207.000000 0.8578 0.8576 0.8575 0.8574 0.8573
2212.000000 0.8573 0.8572 0.8571 0.8572 0.8574
2217.000000 0.8575 0.8577 0.8578 0.8579 0.8580
2222.000000 0.8582 0.8583 0.8585 0.8587 0.8589
2227.000000 0.8591 0.8593 0.8596 0.8600 0.8604
2232.000000 0.8608 0.8612 0.8617 0.8621 0.8626
2237.000000 0.8631 0.8636 0.8642 0.8649 0.8655
2242.000000 0.8661 0.8670 0.8680 0.8690 0.8700
2247.000000 0.8702 0.8704 0.8706 0.8708 0.8710
2252.000000 0.8712 0.8714 0.8716 0.8716 0.8716
2257.000000 0.8716 0.8716 0.8716 0.8716 0.8716
2262.000000 0.8716 0.8716 0.8716 0.8716 0.8716
2267.000000 0.8715 0.8714 0.8713 0.8712 0.8711
2272.000000 0.8711 0.8710 0.8709 0.8708 0.8707
2277.000000 0.8706 0.8706 0.8705 0.8704 0.8704
2282.000000 0.8704 0.8703 0.8703 0.8702 0.8702
2287.000000 0.8702 0.8702 0.8702 0.8703 0.8704
2292.000000 0.8705 0.8705 0.8705 0.8705 0.8705
2297.000000 0.8705 0.8705 0.8705 0.8706 0.8706
2302.000000 0.8706 0.8706 0.8706 0.8706 0.8706
2307.000000 0.8706 0.8706 0.8705 0.8705 0.8704
2312.000000 0.8703 0.8702 0.8702 0.8701 0.8700
2317.000000 0.8699 0.8699 0.8697 0.8696 0.8694
2322.000000 0.8692 0.8690 0.8689 0.8687 0.8685
2327.000000 0.8683 0.8682 0.8680 0.8678 0.8677
2332.000000 0.8676 0.8676 0.8676 0.8676 0.8676
2337.000000 0.8679 0.8683 0.8691 0.8699 0.8716
2342.000000 0.8734 0.8746 0.8758 0.8766 0.8775
2347.000000 0.8782 0.8789 0.8790 0.8791 0.8792
2352.000000 0.8793 0.8793 0.8794 0.8794 0.8795
2357.000000 0.8795 0.8796 0.8794 0.8792 0.8790
2362.000000 0.8788 0.8785 0.8782 0.8778 0.8774
2367.000000 0.8770 0.8766 0.8761 0.8757 0.8753
2372.000000 0.8749 0.8744 0.8740 0.8735 0.8730
2377.000000 0.8725 0.8720 0.8715 0.8711 0.8706
2382.000000 0.8701 0.8696 0.8691 0.8687 0.8683
2387.000000 0.8678 0.8674 0.8669 0.8665 0.8660
2392.000000 0.8656 0.8652 0.8648 0.8643 0.8639
2397.000000 0.8634 0.8630 0.8625 0.8621 0.8617
2402.000000 0.8613 0.8608 0.8604 0.8599 0.8595
2407.000000 0.8590 0.8586 0.8580 0.8575 0.8569
2412.000000 0.8563 0.8556 0.8550 0.8544 0.8539
2417.000000 0.8539 0.8539 0.8539 0.8540 0.8540
2422.000000 0.8528 0.8542 0.8544 0.8546 0.8549
2427.000000 0.8551 0.8554 0.8558 0.8562 0.8566
2432.000000 0.8571 0.8576 0.8581 0.8588 0.8596
2437.000000 0.8603 0.8611 0.8620 0.8629 0.8641
2442.000000 0.8653 0.8664 0.8675 0.8685 0.8695
2447.000000 0.8704 0.8714 0.8722 0.8730 0.8732
2452.000000 0.8734 0.8735 0.8737 0.8739 0.8741
2457.000000 0.8743 0.8745 0.8746 0.8748 0.8750
2462.000000 0.8752 0.8753 0.8755 0.8757 0.8759
2467.000000 0.8760 0.8762 0.8764 0.8766 0.8767
2472.000000 0.8769 0.8769 0.8769 0.8769 0.8769
2477.000000 0.8769 0.8769 0.8769 0.8769 0.8769
2482.000000 0.8769 0.8769 0.8770 0.8770 0.8770
2487.000000 0.8770 0.8770 0.8770 0.8771 0.8771
