##TITLE=Methane, nitro-
##JCAMP-DX=4.24
##DATA TYPE=INFRARED SPECTRUM
##CLASS=COBLENTZ
##ORIGIN=DOW CHEMICAL COMPANY
##OWNER=Copyright (C) 1987 by the Coblentz Society
Collection (C) 2018 copyright by the U.S. Secretary of Commerce
on behalf of the United States of America. All rights reserved.
##DATE=1964
##NAMES=nitromethane
##CAS REGISTRY NO=75-52-5
##MOLFORM=C H3 N O2
##SOURCE REFERENCE=COBLENTZ NO. 8813
##$NIST SOURCE=COBLENTZ
##$NIST IMAGE=cob8813
##SPECTROMETER/DATA SYSTEM=DOW KBr FOREPRISM-GRATING
##INSTRUMENT PARAMETERS=GRATING CHANGED AT 5.0, 7.5, 15.0 MICRON
##STATE=GAS (20 mmHg, N2 ADDED, TOTAL PRESSURE 600 mmHg)
##PATH LENGTH=5 CM
##SAMPLING PROCEDURE=TRANSMISSION
##RESOLUTION=2
##DATA PROCESSING=DIGITIZED BY COBLENTZ SOCIETY (BATCH II) FROM HARD COPY
##XUNITS=1/CM
##YUNITS=TRANSMITTANCE
##XFACTOR=1.0
##YFACTOR=1
##FIRSTX=462
##LASTX=3792
##FIRSTY=0.844
##MAXX=3792
##MINX=462
##MAXY=0.8816
##MINY=0.0197
##NPOINTS=3331
##XYDATA=(X++(Y..Y))
462.000000 0.8440 0.8436 0.8433 0.8429 0.8426
467.000000 0.8423 0.8419 0.8416 0.8413 0.8410
472.000000 0.8406 0.8403 0.8402 0.8401 0.8399
477.000000 0.8398 0.8397 0.8396 0.8392 0.8388
482.000000 0.8384 0.8380 0.8378 0.8376 0.8374
487.000000 0.8372 0.8371 0.8369 0.8373 0.8377
492.000000 0.8380 0.8384 0.8388 0.8395 0.8402
497.000000 0.8409 0.8416 0.8422 0.8429 0.8435
502.000000 0.8441 0.8447 0.8453 0.8459 0.8463
507.000000 0.8464 0.8466 0.8467 0.8468 0.8470
512.000000 0.8470 0.8470 0.8470 0.8470 0.8470
517.000000 0.8470 0.8470 0.8470 0.8470 0.8471
522.000000 0.8472 0.8472 0.8473 0.8474 0.8475
527.000000 0.8476 0.8477 0.8478 0.8479 0.8480
532.000000 0.8481 0.8482 0.8483 0.8487 0.8490
537.000000 0.8493 0.8496 0.8506 0.8503 0.8506
542.000000 0.8509 0.8514 0.8519 0.8523 0.8528
547.000000 0.8533 0.8538 0.8542 0.8547 0.8552
552.000000 0.8557 0.8559 0.8561 0.8564 0.8566
557.000000 0.8568 0.8571 0.8573 0.8576 0.8578
562.000000 0.8580 0.8583 0.8585 0.8587 0.8589
567.000000 0.8591 0.8593 0.8596 0.8598 0.8599
572.000000 0.8598 0.8597 0.8596 0.8596 0.8595
577.000000 0.8594 0.8593 0.8590 0.8585 0.8579
582.000000 0.8573 0.8568 0.8562 0.8557 0.8551
587.000000 0.8546 0.8542 0.8538 0.8533 0.8529
592.000000 0.8524 0.8520 0.8515 0.8511 0.8502
597.000000 0.8492 0.8483 0.8473 0.8439 0.8380
602.000000 0.8320 0.8246 0.8131 0.7978 0.7823
607.000000 0.7683 0.7699 0.7847 0.7980 0.8114
612.000000 0.8247 0.8345 0.8356 0.8355 0.8352
617.000000 0.8350 0.8348 0.8361 0.8337 0.8329
622.000000 0.8321 0.8312 0.8289 0.8263 0.8218
627.000000 0.8171 0.8121 0.8042 0.7958 0.7867
632.000000 0.7782 0.7701 0.7537 0.7396 0.7290
637.000000 0.7188 0.7068 0.6913 0.6622 0.6484
642.000000 0.6391 0.6307 0.6239 0.6203 0.6186
647.000000 0.6194 0.6187 0.6200 0.6279 0.6431
652.000000 0.6584 0.6736 0.6887 0.6918 0.6984
657.000000 0.6958 0.6169 0.5289 0.4409 0.3817
662.000000 0.3809 0.7319 0.7315 0.7317 0.7096
667.000000 0.6900 0.6705 0.6509 0.6329 0.6253
672.000000 0.6228 0.6227 0.6237 0.6241 0.6378
677.000000 0.6535 0.6691 0.6847 0.7003 0.7125
682.000000 0.7303 0.7424 0.7560 0.7744 0.7897
687.000000 0.8024 0.8128 0.8208 0.8272 0.8315
692.000000 0.8347 0.8379 0.8406 0.8420 0.8434
697.000000 0.8447 0.8461 0.8475 0.8481 0.8487
702.000000 0.8493 0.8499 0.8505 0.8508 0.8511
707.000000 0.8514 0.8517 0.8520 0.8522 0.8525
712.000000 0.8528 0.8530 0.8532 0.8534 0.8536
717.000000 0.8538 0.8540 0.8542 0.8544 0.8546
722.000000 0.8548 0.8550 0.8550 0.8550 0.8551
727.000000 0.8551 0.8551 0.8552 0.8552 0.8552
732.000000 0.8552 0.8553 0.8553 0.8553 0.8553
737.000000 0.8554 0.8554 0.8554 0.8554 0.8553
742.000000 0.8553 0.8553 0.8553 0.8552 0.8552
747.000000 0.8552 0.8552 0.8552 0.8551 0.8551
752.000000 0.8551 0.8551 0.8551 0.8552 0.8552
757.000000 0.8553 0.8553 0.8554 0.8554 0.8554
762.000000 0.8555 0.8555 0.8556 0.8556 0.8557
767.000000 0.8557 0.8558 0.8558 0.8559 0.8590
772.000000 0.8560 0.8560 0.8561 0.8562 0.8562
777.000000 0.8563 0.8564 0.8564 0.8565 0.8566
782.000000 0.8566 0.8567 0.8568 0.8568 0.8569
787.000000 0.8570 0.8570 0.8571 0.8571 0.8571
792.000000 0.8571 0.8571 0.8571 0.8571 0.8571
797.000000 0.8571 0.8571 0.8571 0.8571 0.8571
802.000000 0.8571 0.8572 0.8572 0.8572 0.8572
807.000000 0.8572 0.8572 0.8572 0.8571 0.8571
812.000000 0.8570 0.8570 0.8570 0.8569 0.8569
817.000000 0.8568 0.8568 0.8567 0.8567 0.8567
822.000000 0.8566 0.8566 0.8565 0.8565 0.8565
827.000000 0.8563 0.8561 0.8559 0.8557 0.8555
832.000000 0.8553 0.8551 0.8549 0.8547 0.8545
837.000000 0.8542 0.8540 0.8538 0.8538 0.8538
842.000000 0.8539 0.8539 0.8540 0.8540 0.8540
847.000000 0.8541 0.8541 0.8542 0.8544 0.8549
852.000000 0.8553 0.8557 0.8562 0.8566 0.8571
857.000000 0.8576 0.8582 0.8587 0.8592 0.8598
862.000000 0.8603 0.8608 0.8613 0.8618 0.8623
867.000000 0.8628 0.8631 0.8631 0.8630 0.8630
872.000000 0.8629 0.8629 0.8628 0.8628 0.8623
877.000000 0.8617 0.8612 0.8606 0.8601 0.8591
882.000000 0.8575 0.8558 0.8541 0.8525 0.8508
887.000000 0.8491 0.8469 0.8445 0.8422 0.8398
892.000000 0.8375 0.8352 0.8328 0.8300 0.8272
897.000000 0.8244 0.8216 0.8188 0.8160 0.8138
902.000000 0.8121 0.8104 0.8086 0.8077 0.8079
907.000000 0.8091 0.8106 0.8128 0.8149 0.8166
912.000000 0.8183 0.8191 0.8180 0.8181 0.8172
917.000000 0.7890 0.7383 0.6877 0.6370 0.6337
922.000000 0.8343 0.8346 0.8246 0.8146 0.8047
927.000000 0.7975 0.7900 0.7865 0.7860 0.7851
932.000000 0.7861 0.7880 0.7908 0.7948 0.7996
937.000000 0.8066 0.8136 0.8207 0.8275 0.8341
942.000000 0.8408 0.8477 0.8529 0.8553 0.8576
947.000000 0.8599 0.8619 0.8636 0.8648 0.8653
952.000000 0.8657 0.8662 0.8667 0.8670 0.8672
957.000000 0.8675 0.8677 0.8679 0.8681 0.8684
962.000000 0.8686 0.8688 0.8690 0.8691 0.8693
967.000000 0.8695 0.8697 0.8699 0.8701 0.8702
972.000000 0.8703 0.8705 0.8706 0.8707 0.8709
977.000000 0.8710 0.8711 0.8712 0.8714 0.8715
982.000000 0.8716 0.8718 0.8719 0.8721 0.8728
987.000000 0.8724 0.8726 0.8728 0.8729 0.8731
992.000000 0.8731 0.8731 0.8730 0.8729 0.8728
997.000000 0.8727 0.8727 0.8726 0.8725 0.8724
1002.000000 0.8723 0.8721 0.8719 0.8718 0.8716
1007.000000 0.8715 0.8713 0.8712 0.8711 0.8710
1012.000000 0.8709 0.8708 0.8707 0.8706 0.8706
1017.000000 0.8704 0.8703 0.8701 0.8700 0.8699
1022.000000 0.8697 0.8696 0.8694 0.8693 0.8691
1027.000000 0.8690 0.8687 0.8683 0.8680 0.8677
1032.000000 0.8674 0.8671 0.8668 0.8660 0.8651
1037.000000 0.8642 0.8634 0.8625 0.8616 0.8607
1042.000000 0.8598 0.8588 0.8575 0.8561 0.8547
1047.000000 0.8533 0.8519 0.8505 0.8490 0.8476
1052.000000 0.8462 0.8448 0.8434 0.8419 0.8403
1057.000000 0.8387 0.8372 0.8356 0.8340 0.8324
1062.000000 0.8308 0.8288 0.8268 0.8248 0.8228
1067.000000 0.8209 0.8185 0.8159 0.8132 0.8106
1072.000000 0.8074 0.8042 0.8010 0.7979 0.7947
1077.000000 0.7916 0.7883 0.7848 0.7813 0.7778
1082.000000 0.7729 0.7680 0.7638 0.7627 0.7631
1087.000000 0.7637 0.7640 0.7644 0.7647 0.7650
1092.000000 0.7662 0.7689 0.7739 0.7812 0.7828
1097.000000 0.7824 0.7816 0.7805 0.7789 0.7772
1102.000000 0.7763 0.7764 0.7778 0.7792 0.7807
1107.000000 0.7824 0.7846 0.7864 0.7881 0.7898
1112.000000 0.7914 0.7941 0.7978 0.8019 0.8070
1117.000000 0.8118 0.8167 0.8216 0.8243 0.8271
1122.000000 0.8306 0.8316 0.8326 0.8336 0.8345
1127.000000 0.8354 0.8362 0.8368 0.8370 0.8372
1132.000000 0.8373 0.8375 0.8375 0.8375 0.8374
1137.000000 0.8373 0.8371 0.8366 0.8362 0.8357
1142.000000 0.8352 0.8346 0.8334 0.8340 0.8347
1147.000000 0.8357 0.8367 0.8376 0.8384 0.8393
1152.000000 0.8401 0.8410 0.8416 0.8422 0.8428
1157.000000 0.8434 0.8439 0.8445 0.8450 0.8454
1162.000000 0.8459 0.8464 0.8469 0.8474 0.8479
1167.000000 0.8484 0.8488 0.8493 0.8498 0.8501
1172.000000 0.8502 0.8502 0.8503 0.8503 0.8504
1177.000000 0.8505 0.8502 0.8495 0.8489 0.8482
1182.000000 0.8475 0.8468 0.8469 0.8472 0.8477
1187.000000 0.8483 0.8488 0.8494 0.8500 0.8505
1192.000000 0.8510 0.8515 0.8520 0.8524 0.8555
1197.000000 0.8587 0.8606 0.8626 0.8633 0.8641
1202.000000 0.8648 0.8647 0.8645 0.8643 0.8641
1207.000000 0.8639 0.8637 0.8637 0.8637 0.8637
1212.000000 0.8650 0.8668 0.8687 0.8706 0.8716
1217.000000 0.8723 0.8724 0.8725 0.8726 0.8727
1222.000000 0.8728 0.8729 0.8730 0.8732 0.8740
1227.000000 0.8748 0.8756 0.8764 0.8772 0.8779
1232.000000 0.8786 0.8793 0.8800 0.8816 0.8811
1237.000000 0.8807 0.8802 0.8798 0.8793 0.8789
1242.000000 0.8782 0.8769 0.8757 0.8745 0.8733
1247.000000 0.8721 0.8709 0.8697 0.8685 0.8673
1252.000000 0.8663 0.8657 0.8651 0.8645 0.8638
1257.000000 0.8632 0.8630 0.8629 0.8627 0.8626
1262.000000 0.8625 0.8623 0.8622 0.8620 0.8619
1267.000000 0.8619 0.8618 0.8617 0.8616 0.8615
1272.000000 0.8614 0.8614 0.8613 0.8612 0.8610
1277.000000 0.8608 0.8606 0.8604 0.8603 0.8601
1282.000000 0.8591 0.8581 0.8571 0.8560 0.8550
1287.000000 0.8539 0.8529 0.8518 0.8506 0.8495
1292.000000 0.8484 0.8472 0.8461 0.8450 0.8441
1297.000000 0.8432 0.8422 0.8413 0.8404 0.8394
1302.000000 0.8385 0.8376 0.8366 0.8356 0.8346
1307.000000 0.8336 0.8326 0.8316 0.8300 0.8275
1312.000000 0.8251 0.8220 0.8234 0.8250 0.8267
1317.000000 0.8285 0.8298 0.8308 0.8310 0.8305
1322.000000 0.8293 0.8278 0.8255 0.8231 0.8207
1327.000000 0.8182 0.8167 0.8155 0.8142 0.8133
1332.000000 0.8133 0.8132 0.8131 0.8129 0.8125
1337.000000 0.8120 0.8116 0.8111 0.8094 0.8076
1342.000000 0.8059 0.8033 0.7983 0.7933 0.7896
1347.000000 0.7858 0.7810 0.7758 0.7697 0.7627
1352.000000 0.7532 0.7436 0.7347 0.7257 0.7167
1357.000000 0.7077 0.6959 0.6826 0.6690 0.6540
1362.000000 0.6375 0.6125 0.5960 0.5798 0.5134
1367.000000 0.4912 0.4689 0.4467 0.4244 0.4022
1372.000000 0.3896 0.3822 0.3767 0.3736 0.3726
1377.000000 0.3777 0.3828 0.3830 0.3795 0.2808
1382.000000 0.1983 0.1983 0.1991 0.2547 0.2885
1387.000000 0.3223 0.3407 0.3239 0.3435 0.2901
1392.000000 0.2732 0.2678 0.2655 0.2632 0.2608
1397.000000 0.2584 0.2500 0.2416 0.2331 0.2247
1402.000000 0.2131 0.2355 0.4381 0.4447 0.4477
1407.000000 0.4471 0.4465 0.4447 0.4411 0.4353
1412.000000 0.4338 0.4339 0.4342 0.4345 0.4358
1417.000000 0.4394 0.4496 0.4869 0.5102 0.5659
1422.000000 0.5766 0.5832 0.5871 0.5805 0.5744
1427.000000 0.5744 0.5945 0.6265 0.6305 0.6305
1432.000000 0.6298 0.6280 0.6245 0.6201 0.6155
1437.000000 0.6109 0.6077 0.6062 0.6053 0.6052
1442.000000 0.6051 0.6050 0.6048 0.6046 0.6044
1447.000000 0.6040 0.6031 0.5900 0.5863 0.5842
1452.000000 0.5845 0.5879 0.5977 0.6075 0.6177
1457.000000 0.6294 0.6360 0.6382 0.6416 0.6443
1462.000000 0.6465 0.6465 0.6465 0.6452 0.6461
1467.000000 0.6420 0.6395 0.6368 0.6320 0.6247
1472.000000 0.6199 0.6216 0.6225 0.6223 0.6219
1477.000000 0.6210 0.6178 0.6120 0.6000 0.5750
1482.000000 0.5476 0.5356 0.5359 0.5384 0.5467
1487.000000 0.5645 0.5750 0.5811 0.5860 0.5904
1492.000000 0.5878 0.5797 0.5680 0.5657 0.5664
1497.000000 0.5720 0.5848 0.5944 0.5971 0.5981
1502.000000 0.5985 0.5941 0.5845 0.5821 0.5826
1507.000000 0.5862 0.5942 0.5979 0.5997 0.5946
1512.000000 0.5868 0.5769 0.5681 0.5592 0.5493
1517.000000 0.5405 0.5340 0.5660 0.5782 0.5701
1522.000000 0.5577 0.5469 0.5402 0.5419 0.5450
1527.000000 0.5494 0.5557 0.5619 0.5630 0.5624
1532.000000 0.5606 0.5578 0.5544 0.5494 0.5455
1537.000000 0.5431 0.5423 0.5416 0.5372 0.5176
1542.000000 0.5101 0.5042 0.4956 0.4799 0.4642
1547.000000 0.4484 0.4327 0.4273 0.4584 0.3847
1552.000000 0.3586 0.3431 0.3271 0.3098 0.2873
1557.000000 0.2698 0.2530 0.2294 0.1991 0.1677
1562.000000 0.1385 0.1200 0.1014 0.0841 0.0679
1567.000000 0.0533 0.0444 0.0371 0.0342 0.0313
1572.000000 0.0294 0.0284 0.0273 0.0270 0.0267
1577.000000 0.0267 0.0266 0.0275 0.0282 0.0288
1582.000000 0.0295 0.0306 0.0414 0.0549 0.0685
1587.000000 0.0820 0.0909 0.0913 0.0693 0.0370
1592.000000 0.0217 0.0205 0.0197 0.0215 0.0229
1597.000000 0.0246 0.0266 0.0302 0.0338 0.0368
1602.000000 0.0397 0.0440 0.0484 0.0529 0.0574
1607.000000 0.0639 0.0722 0.0837 0.1161 0.1631
1612.000000 0.1988 0.2345 0.2701 0.3058 0.3415
1617.000000 0.3772 0.4129 0.4486 0.4980 0.5884
1622.000000 0.6185 0.6362 0.6524 0.6679 0.6817
1627.000000 0.6953 0.7068 0.7185 0.7314 0.7440
1632.000000 0.7563 0.7692 0.7826 0.7904 0.7975
1637.000000 0.8034 0.8075 0.8116 0.8156 0.8185
1642.000000 0.8209 0.8231 0.8246 0.8261 0.8276
1647.000000 0.8290 0.8293 0.8295 0.8298 0.8293
1652.000000 0.8287 0.8282 0.8283 0.8283 0.8292
1657.000000 0.8311 0.8349 0.8371 0.8389 0.8407
1662.000000 0.8412 0.8417 0.8422 0.8420 0.8418
1667.000000 0.8416 0.8414 0.8412 0.8411 0.8411
1672.000000 0.8411 0.8412 0.8415 0.8419 0.8423
1677.000000 0.8426 0.8426 0.8427 0.8427 0.8426
1682.000000 0.8416 0.8406 0.8396 0.8402 0.8409
1687.000000 0.8418 0.8427 0.8437 0.8446 0.8454
1692.000000 0.8456 0.8457 0.8457 0.8454 0.8450
1697.000000 0.8447 0.8439 0.8428 0.8418 0.8407
1702.000000 0.8393 0.8380 0.8366 0.8384 0.8405
1707.000000 0.8429 0.8442 0.8446 0.8450 0.8447
1712.000000 0.8444 0.8440 0.8437 0.8428 0.8416
1717.000000 0.8403 0.8394 0.8388 0.8382 0.8396
1722.000000 0.8412 0.8427 0.8442 0.8457 0.8461
1727.000000 0.8464 0.8466 0.8461 0.8457 0.8452
1732.000000 0.8447 0.8442 0.8437 0.8432 0.8427
1737.000000 0.8424 0.8424 0.8424 0.8424 0.8424
1742.000000 0.8424 0.8424 0.8425 0.8426 0.8427
1747.000000 0.8428 0.8429 0.8430 0.8432 0.8432
1752.000000 0.8431 0.8431 0.8430 0.8429 0.8428
1757.000000 0.8428 0.8427 0.8426 0.8425 0.8424
1762.000000 0.8422 0.8420 0.8419 0.8417 0.8416
1767.000000 0.8414 0.8412 0.8411 0.8409 0.8407
1772.000000 0.8407 0.8410 0.8413 0.8417 0.8420
1777.000000 0.8423 0.8426 0.8428 0.8430 0.8433
1782.000000 0.8429 0.8423 0.8418 0.8412 0.8406
1787.000000 0.8400 0.8395 0.8395 0.8396 0.8396
1792.000000 0.8397 0.8397 0.8398 0.8398 0.8398
1797.000000 0.8399 0.8399 0.8399 0.8398 0.8398
1802.000000 0.8398 0.8398 0.8397 0.8397 0.8397
1807.000000 0.8397 0.8396 0.8396 0.8396 0.8396
1812.000000 0.8394 0.8392 0.8391 0.8389 0.8387
1817.000000 0.8385 0.8383 0.8383 0.8382 0.8381
1822.000000 0.8380 0.8379 0.8378 0.8378 0.8377
1827.000000 0.8376 0.8375 0.8374 0.8374 0.8373
1832.000000 0.8372 0.8371 0.8370 0.8369 0.8369
1837.000000 0.8368 0.8367 0.8366 0.8366 0.8367
1842.000000 0.8369 0.8370 0.8372 0.8373 0.8375
1847.000000 0.8376 0.8378 0.8380 0.8381 0.8383
1852.000000 0.8384 0.8385 0.8386 0.8386 0.8386
1857.000000 0.8387 0.8387 0.8388 0.8388 0.8388
1862.000000 0.8389 0.8389 0.8388 0.8387 0.8386
1867.000000 0.8387 0.8388 0.8390 0.8392 0.8393
1872.000000 0.8395 0.8397 0.8399 0.8400 0.8402
1877.000000 0.8404 0.8406 0.8407 0.8409 0.8411
1882.000000 0.8412 0.8414 0.8416 0.8417 0.8417
1887.000000 0.8417 0.8417 0.8417 0.8417 0.8417
1892.000000 0.8417 0.8415 0.8413 0.8410 0.8410
1897.000000 0.8410 0.8411 0.8411 0.8411 0.8412
1902.000000 0.8412 0.8412 0.8413 0.8413 0.8414
1907.000000 0.8416 0.8421 0.8425 0.8427 0.8429
1912.000000 0.8430 0.8432 0.8433 0.8435 0.8437
1917.000000 0.8436 0.8435 0.8434 0.8433 0.8432
1922.000000 0.8430 0.8429 0.8428 0.8427 0.8426
1927.000000 0.8424 0.8423 0.8422 0.8421 0.8420
1932.000000 0.8418 0.8418 0.8418 0.8417 0.8417
1937.000000 0.8416 0.8416 0.8416 0.8415 0.8415
1942.000000 0.8415 0.8415 0.8415 0.8415 0.8415
1947.000000 0.8415 0.8415 0.8415 0.8415 0.8415
1952.000000 0.8415 0.8415 0.8415 0.8415 0.8415
1957.000000 0.8415 0.8415 0.8415 0.8415 0.8415
1962.000000 0.8415 0.8415 0.8415 0.8415 0.8415
1967.000000 0.8415 0.8416 0.8416 0.8415 0.8415
1972.000000 0.8415 0.8414 0.8414 0.8413 0.8413
1977.000000 0.8412 0.8412 0.8410 0.8407 0.8404
1982.000000 0.8401 0.8398 0.8395 0.8392 0.8389
1987.000000 0.8386 0.8383 0.8380 0.8377 0.8377
1992.000000 0.8376 0.8375 0.8375 0.8374 0.8374
1997.000000 0.8373 0.8372 0.8372 0.8371 0.8371
2002.000000 0.8371 0.8372 0.8374 0.8375 0.8377
2007.000000 0.8378 0.8380 0.8383 0.8387 0.8392
2012.000000 0.8397 0.8401 0.8406 0.8416 0.8426
2017.000000 0.8434 0.8443 0.8449 0.8455 0.8457
2022.000000 0.8459 0.8460 0.8462 0.8464 0.8466
2027.000000 0.8466 0.8467 0.8466 0.8466 0.8466
2032.000000 0.8466 0.8465 0.8465 0.8464 0.8464
2037.000000 0.8464 0.8464 0.8464 0.8464 0.8464
2042.000000 0.8464 0.8464 0.8464 0.8464 0.8464
2047.000000 0.8464 0.8464 0.8463 0.8463 0.8462
2052.000000 0.8462 0.8461 0.8461 0.8460 0.8460
2057.000000 0.8460 0.8460 0.8460 0.8460 0.8460
2062.000000 0.8460 0.8460 0.8460 0.8462 0.8464
2067.000000 0.8466 0.8468 0.8470 0.8473 0.8475
2072.000000 0.8477 0.8478 0.8479 0.8480 0.8482
2077.000000 0.8483 0.8485 0.8486 0.8488 0.8489
2082.000000 0.8491 0.8492 0.8494 0.8495 0.8497
2087.000000 0.8498 0.8499 0.8499 0.8500 0.8500
2092.000000 0.8507 0.8500 0.8501 0.8501 0.8501
2097.000000 0.8501 0.8502 0.8502 0.8502 0.8502
2102.000000 0.8503 0.8503 0.8503 0.8503 0.8503
2107.000000 0.8503 0.8503 0.8503 0.8503 0.8503
2112.000000 0.8503 0.8503 0.8503 0.8503 0.8503
2117.000000 0.8503 0.8503 0.8503 0.8503 0.8503
2122.000000 0.8503 0.8503 0.8503 0.8503 0.8504
2127.000000 0.8504 0.8505 0.8506 0.8507 0.8507
2132.000000 0.8508 0.8509 0.8510 0.8510 0.8511
2137.000000 0.8512 0.8513 0.8513 0.8514 0.8514
2142.000000 0.8515 0.8516 0.8517 0.8517 0.8518
2147.000000 0.8518 0.8519 0.8519 0.8520 0.8520
2152.000000 0.8521 0.8521 0.8521 0.8521 0.8522
2157.000000 0.8522 0.8522 0.8522 0.8523 0.8523
2162.000000 0.8523 0.8523 0.8523 0.8523 0.8523
2167.000000 0.8523 0.8523 0.8522 0.8522 0.8522
2172.000000 0.8522 0.8522 0.8522 0.8521 0.8521
2177.000000 0.8521 0.8521 0.8521 0.8521 0.8521
2182.000000 0.8521 0.8520 0.8520 0.8520 0.8520
2187.000000 0.8520 0.8520 0.8519 0.8519 0.8518
2192.000000 0.8518 0.8518 0.8518 0.8517 0.8517
2197.000000 0.8516 0.8516 0.8516 0.8516 0.8515
2202.000000 0.8515 0.8514 0.8514 0.8514 0.8514
2207.000000 0.8513 0.8513 0.8512 0.8512 0.8511
2212.000000 0.8511 0.8511 0.8511 0.8510 0.8510
2217.000000 0.8509 0.8509 0.8509 0.8509 0.8509
2222.000000 0.8509 0.8509 0.8509 0.8509 0.8509
2227.000000 0.8509 0.8509 0.8509 0.8509 0.8509
2232.000000 0.8509 0.8509 0.8509 0.8509 0.8509
2237.000000 0.8509 0.8509 0.8509 0.8509 0.8509
2242.000000 0.8509 0.8509 0.8509 0.8509 0.8509
2247.000000 0.8509 0.8509 0.8509 0.8509 0.8509
2252.000000 0.8510 0.8510 0.8510 0.8510 0.8511
2257.000000 0.8511 0.8511 0.8511 0.8512 0.8512
2262.000000 0.8512 0.8512 0.8513 0.8513 0.8513
2267.000000 0.8513 0.8514 0.8514 0.8514 0.8514
2272.000000 0.8515 0.8515 0.8515 0.8515 0.8516
2277.000000 0.8516 0.8517 0.8517 0.8517 0.8517
2282.000000 0.8517 0.8516 0.8515 0.8514 0.8514
2287.000000 0.8513 0.8513 0.8512 0.8511 0.8510
2292.000000 0.8510 0.8509 0.8509 0.8508 0.8507
2297.000000 0.8506 0.8506 0.8507 0.8508 0.8509
2302.000000 0.8511 0.8512 0.8513 0.8514 0.8515
2307.000000 0.8516 0.8518 0.8519 0.8520 0.8522
2312.000000 0.8524 0.8527 0.8530 0.8533 0.8537
2317.000000 0.8540 0.8544 0.8547 0.8550 0.8553
2322.000000 0.8556 0.8559 0.8562 0.8565 0.8568
2327.000000 0.8571 0.8574 0.8569 0.8565 0.8558
2332.000000 0.8551 0.8544 0.8537 0.8535 0.8534
2337.000000 0.8543 0.8552 0.8560 0.8569 0.8577
2342.000000 0.8586 0.8594 0.8602 0.8610 0.8618
2347.000000 0.8626 0.8635 0.8641 0.8648 0.8649
2352.000000 0.8650 0.8650 0.8650 0.8649 0.8649
2357.000000 0.8645 0.8642 0.8638 0.8634 0.8629
2362.000000 0.8625 0.8620 0.8615 0.8610 0.8606
2367.000000 0.8600 0.8594 0.8587 0.8580 0.8577
2372.000000 0.8574 0.8572 0.8570 0.8568 0.8566
2377.000000 0.8564 0.8562 0.8560 0.8559 0.8557
2382.000000 0.8556 0.8554 0.8553 0.8551 0.8550
2387.000000 0.8550 0.8550 0.8550 0.8551 0.8551
2392.000000 0.8552 0.8552 0.8553 0.8553 0.8553
2397.000000 0.8553 0.8554 0.8554 0.8554 0.8554
2402.000000 0.8554 0.8554 0.8554 0.8554 0.8554
2407.000000 0.8554 0.8554 0.8554 0.8554 0.8554
2412.000000 0.8554 0.8554 0.8554 0.8554 0.8554
2417.000000 0.8554 0.8554 0.8553 0.8553 0.8551
2422.000000 0.8549 0.8547 0.8546 0.8544 0.8542
2427.000000 0.8540 0.8538 0.8536 0.8534 0.8532
2432.000000 0.8531 0.8527 0.8524 0.8521 0.8518
2437.000000 0.8515 0.8512 0.8509 0.8506 0.8503
2442.000000 0.8500 0.8496 0.8492 0.8487 0.8482
2447.000000 0.8477 0.8473 0.8468 0.8463 0.8458
2452.000000 0.8454 0.8449 0.8444 0.8437 0.8430
2457.000000 0.8423 0.8416 0.8409 0.8402 0.8394
2462.000000 0.8387 0.8380 0.8373 0.8367 0.8361
2467.000000 0.8355 0.8350 0.8345 0.8340 0.8334
2472.000000 0.8329 0.8323 0.8318 0.8315 0.8312
2477.000000 0.8314 0.8316 0.8317 0.8330 0.8321
2482.000000 0.8323 0.8325 0.8328 0.8330 0.8332
2487.000000 0.8334 0.8337 0.8340 0.8343 0.8345
2492.000000 0.8348 0.8348 0.8349 0.8348 0.8348
