##TITLE=Methane, bromotrichloro-
##JCAMP-DX=4.24
##DATA TYPE=INFRARED SPECTRUM
##CLASS=COBLENTZ
##ORIGIN=DOW CHEMICAL COMPANY
##OWNER=Copyright (C) 1987 by the Coblentz Society
Collection (C) 2018 copyright by the U.S. Secretary of Commerce
on behalf of the United States of America. All rights reserved.
##DATE=1964
##NAMES=bromo(trichloro)methane
##CAS REGISTRY NO=75-62-7
##MOLFORM=C Br Cl3
##SOURCE REFERENCE=COBLENTZ NO. 8820
##$NIST SOURCE=COBLENTZ
##$NIST IMAGE=cob8820
##SPECTROMETER/DATA SYSTEM=DOW KBr FOREPRISM-GRATING
##INSTRUMENT PARAMETERS=GRATING CHANGED AT 5.0, 7.5, 15.0 MICRON
##STATE=GAS (30 mmHg, N2 ADDED, TOTAL PRESSURE 600 mmHg)
##PATH LENGTH=5 CM
##SAMPLING PROCEDURE=TRANSMISSION
##RESOLUTION=2
##DATA PROCESSING=DIGITIZED BY COBLENTZ SOCIETY (BATCH II) FROM HARD COPY
##XUNITS=1/CM
##YUNITS=TRANSMITTANCE
##XFACTOR=1.0
##YFACTOR=1
##FIRSTX=454
##LASTX=3792
##FIRSTY=0.8408
##MAXX=3792
##MINX=454
##MAXY=0.8877
##MINY=0.0001
##NPOINTS=3339
##XYDATA=(X++(Y..Y))
454.000000 0.8408 0.8405 0.8402 0.8399 0.8396
459.000000 0.8393 0.8390 0.8387 0.8385 0.8383
464.000000 0.8381 0.8378 0.8376 0.8375 0.8375
469.000000 0.8374 0.8371 0.8363 0.8355 0.8347
474.000000 0.8340 0.8332 0.8324 0.8321 0.8319
479.000000 0.8317 0.8315 0.8313 0.8311 0.8312
484.000000 0.8313 0.8315 0.8316 0.8317 0.8318
489.000000 0.8319 0.8320 0.8321 0.8322 0.8323
494.000000 0.8324 0.8325 0.8325 0.8326 0.8327
499.000000 0.8328 0.8330 0.8333 0.8335 0.8338
504.000000 0.8340 0.8343 0.8346 0.8350 0.8354
509.000000 0.8358 0.8362 0.8366 0.8370 0.8372
514.000000 0.8372 0.8371 0.8371 0.8371 0.8371
519.000000 0.8370 0.8370 0.8370 0.8369 0.8369
524.000000 0.8369 0.8369 0.8369 0.8369 0.8369
529.000000 0.8370 0.8370 0.8370 0.8370 0.8371
534.000000 0.8373 0.8375 0.8377 0.8379 0.8381
539.000000 0.8383 0.8385 0.8387 0.8389 0.8390
544.000000 0.8392 0.8394 0.8399 0.8403 0.8407
549.000000 0.8411 0.8415 0.8419 0.8424 0.8428
554.000000 0.8432 0.8436 0.8440 0.8444 0.8448
559.000000 0.8451 0.8452 0.8454 0.8455 0.8456
564.000000 0.8458 0.8459 0.8460 0.8462 0.8463
569.000000 0.8464 0.8466 0.8467 0.8467 0.8468
574.000000 0.8468 0.8468 0.8469 0.8469 0.8470
579.000000 0.8470 0.8471 0.8471 0.8472 0.8474
584.000000 0.8476 0.8478 0.8480 0.8482 0.8484
589.000000 0.8486 0.8488 0.8490 0.8492 0.8500
594.000000 0.8496 0.8498 0.8500 0.8502 0.8504
599.000000 0.8506 0.8508 0.8510 0.8512 0.8514
604.000000 0.8516 0.8519 0.8522 0.8525 0.8529
609.000000 0.8532 0.8535 0.8538 0.8542 0.8545
614.000000 0.8548 0.8551 0.8555 0.8558 0.8561
619.000000 0.8564 0.8566 0.8567 0.8569 0.8570
624.000000 0.8572 0.8573 0.8575 0.8576 0.8578
629.000000 0.8579 0.8580 0.8575 0.8570 0.8566
634.000000 0.8561 0.8556 0.8551 0.8539 0.8523
639.000000 0.8507 0.8490 0.8473 0.8454 0.8433
644.000000 0.8411 0.8389 0.8368 0.8347 0.8326
649.000000 0.8305 0.8284 0.8258 0.8228 0.8197
654.000000 0.8167 0.8137 0.8105 0.8055 0.8005
659.000000 0.7955 0.7889 0.7821 0.7711 0.7658
664.000000 0.7654 0.7648 0.7681 0.7776 0.7826
669.000000 0.7848 0.7718 0.7737 0.7700 0.7907
674.000000 0.7972 0.8047 0.8111 0.8164 0.8197
679.000000 0.8213 0.8224 0.8232 0.8235 0.8236
684.000000 0.8228 0.8221 0.8206 0.8190 0.8174
689.000000 0.8151 0.8110 0.8065 0.7819 0.7306
694.000000 0.7331 0.7514 0.7696 0.7873 0.7832
699.000000 0.7758 0.7658 0.7554 0.7481 0.7401
704.000000 0.7336 0.7271 0.7173 0.6964 0.6793
709.000000 0.6652 0.6535 0.6345 0.5641 0.5455
714.000000 0.5264 0.4711 0.4157 0.3604 0.3050
719.000000 0.2497 0.1944 0.1268 0.1029 0.0717
724.000000 0.0573 0.0424 0.0324 0.0261 0.0197
729.000000 0.0141 0.0085 0.0040 0.0035 0.0014
734.000000 0.0093 0.0118 0.0131 0.0097 0.0069
739.000000 0.0042 0.1003 0.3017 0.4292 0.5566
744.000000 0.6841 0.7339 0.7466 0.7572 0.7639
749.000000 0.7683 0.7711 0.7706 0.7717 0.7681
754.000000 0.7592 0.7485 0.7406 0.7325 0.7226
759.000000 0.7075 0.6953 0.6780 0.6658 0.6552
764.000000 0.6458 0.6372 0.6144 0.5782 0.5419
769.000000 0.5056 0.4694 0.3871 0.3338 0.2804
774.000000 0.2271 0.1738 0.1204 0.0415 0.0231
779.000000 0.0096 0.0040 0.0010 0.0001 0.0001
784.000000 0.0001 0.0002 0.0001 0.0001 0.0001
789.000000 0.0007 0.0039 0.0083 0.0204 0.0622
794.000000 0.1113 0.1603 0.2093 0.2584 0.3074
799.000000 0.4296 0.5893 0.7311 0.7504 0.7664
804.000000 0.7784 0.8223 0.8271 0.8312 0.8344
809.000000 0.8356 0.8369 0.8388 0.8402 0.8411
814.000000 0.8419 0.8428 0.8435 0.8438 0.8441
819.000000 0.8441 0.8438 0.8436 0.8433 0.8431
824.000000 0.8424 0.8417 0.8410 0.8403 0.8393
829.000000 0.8382 0.8377 0.8378 0.8379 0.8380
834.000000 0.8385 0.8389 0.8394 0.8399 0.8403
839.000000 0.8408 0.8413 0.8417 0.8420 0.8423
844.000000 0.8425 0.8428 0.8433 0.8439 0.8445
849.000000 0.8451 0.8457 0.8463 0.8468 0.8473
854.000000 0.8477 0.8481 0.8486 0.8490 0.8494
859.000000 0.8498 0.8500 0.8503 0.8505 0.8508
864.000000 0.8510 0.8513 0.8515 0.8517 0.8520
869.000000 0.8522 0.8524 0.8526 0.8527 0.8529
874.000000 0.8530 0.8532 0.8533 0.8535 0.8536
879.000000 0.8538 0.8539 0.8540 0.8539 0.8537
884.000000 0.8534 0.8531 0.8528 0.8525 0.8522
889.000000 0.8518 0.8515 0.8511 0.8507 0.8503
894.000000 0.8499 0.8496 0.8492 0.8488 0.8484
899.000000 0.8478 0.8470 0.8462 0.8454 0.8447
904.000000 0.8439 0.8431 0.8423 0.8416 0.8408
909.000000 0.8400 0.8393 0.8388 0.8382 0.8377
914.000000 0.8371 0.8371 0.8371 0.8376 0.8382
919.000000 0.8398 0.8418 0.8437 0.8455 0.8473
924.000000 0.8488 0.8502 0.8517 0.8531 0.8546
929.000000 0.8562 0.8574 0.8581 0.8588 0.8595
934.000000 0.8603 0.8603 0.8599 0.8596 0.8592
939.000000 0.8588 0.8583 0.8579 0.8574 0.8569
944.000000 0.8565 0.8561 0.8558 0.8554 0.8550
949.000000 0.8547 0.8543 0.8540 0.8537 0.8533
954.000000 0.8530 0.8526 0.8516 0.8507 0.8498
959.000000 0.8491 0.8484 0.8477 0.8476 0.8485
964.000000 0.8490 0.8492 0.8495 0.8492 0.8470
969.000000 0.8445 0.8436 0.8426 0.8416 0.8407
974.000000 0.8407 0.8407 0.8408 0.8409 0.8411
979.000000 0.8418 0.8432 0.8446 0.8460 0.8473
984.000000 0.8486 0.8499 0.8512 0.8526 0.8541
989.000000 0.8555 0.8563 0.8567 0.8572 0.8571
994.000000 0.8569 0.8566 0.8565 0.8566 0.8568
999.000000 0.8569 0.8574 0.8583 0.8589 0.8594
1004.000000 0.8593 0.8585 0.8577 0.8571 0.8566
1009.000000 0.8560 0.8554 0.8554 0.8554 0.8555
1014.000000 0.8555 0.8554 0.8553 0.8552 0.8551
1019.000000 0.8550 0.8549 0.8547 0.8545 0.8543
1024.000000 0.8541 0.8538 0.8536 0.8534 0.8532
1029.000000 0.8530 0.8529 0.8527 0.8526 0.8525
1034.000000 0.8523 0.8522 0.8521 0.8519 0.8518
1039.000000 0.8516 0.8515 0.8514 0.8512 0.8510
1044.000000 0.8509 0.8507 0.8505 0.8504 0.8502
1049.000000 0.8500 0.8499 0.8498 0.8497 0.8497
1054.000000 0.8496 0.8495 0.8495 0.8494 0.8493
1059.000000 0.8493 0.8492 0.8491 0.8490 0.8489
1064.000000 0.8488 0.8487 0.8486 0.8485 0.8484
1069.000000 0.8483 0.8482 0.8481 0.8483 0.8485
1074.000000 0.8487 0.8489 0.8491 0.8493 0.8495
1079.000000 0.8499 0.8506 0.8512 0.8519 0.8525
1084.000000 0.8532 0.8538 0.8545 0.8552 0.8557
1089.000000 0.8563 0.8569 0.8574 0.8580 0.8586
1094.000000 0.8591 0.8595 0.8599 0.8602 0.8606
1099.000000 0.8610 0.8613 0.8617 0.8621 0.8624
1104.000000 0.8628 0.8631 0.8635 0.8639 0.8642
1109.000000 0.8646 0.8649 0.8653 0.8657 0.8660
1114.000000 0.8664 0.8667 0.8670 0.8674 0.8677
1119.000000 0.8680 0.8683 0.8685 0.8688 0.8690
1124.000000 0.8693 0.8695 0.8690 0.8684 0.8677
1129.000000 0.8670 0.8662 0.8653 0.8645 0.8637
1134.000000 0.8628 0.8620 0.8612 0.8604 0.8596
1139.000000 0.8588 0.8580 0.8572 0.8563 0.8556
1144.000000 0.8549 0.8542 0.8535 0.8529 0.8522
1149.000000 0.8522 0.8522 0.8522 0.8522 0.8522
1154.000000 0.8527 0.8533 0.8539 0.8547 0.8555
1159.000000 0.8562 0.8570 0.8578 0.8589 0.8600
1164.000000 0.8610 0.8616 0.8621 0.8626 0.8627
1169.000000 0.8624 0.8620 0.8611 0.8602 0.8593
1174.000000 0.8585 0.8577 0.8568 0.8560 0.8552
1179.000000 0.8545 0.8555 0.8562 0.8567 0.8567
1184.000000 0.8567 0.8567 0.8567 0.8567 0.8566
1189.000000 0.8565 0.8564 0.8560 0.8556 0.8551
1194.000000 0.8541 0.8531 0.8521 0.8511 0.8501
1199.000000 0.8490 0.8479 0.8468 0.8457 0.8447
1204.000000 0.8437 0.8428 0.8430 0.8432 0.8439
1209.000000 0.8446 0.8457 0.8469 0.8481 0.8492
1214.000000 0.8503 0.8515 0.8524 0.8533 0.8542
1219.000000 0.8551 0.8560 0.8569 0.8577 0.8585
1224.000000 0.8593 0.8602 0.8610 0.8611 0.8612
1229.000000 0.8613 0.8614 0.8614 0.8614 0.8614
1234.000000 0.8614 0.8611 0.8605 0.8600 0.8594
1239.000000 0.8588 0.8581 0.8574 0.8567 0.8560
1244.000000 0.8552 0.8545 0.8537 0.8530 0.8525
1249.000000 0.8523 0.8522 0.8521 0.8519 0.8518
1254.000000 0.8519 0.8520 0.8521 0.8522 0.8523
1259.000000 0.8523 0.8524 0.8525 0.8525 0.8526
1264.000000 0.8526 0.8524 0.8522 0.8520 0.8518
1269.000000 0.8516 0.8513 0.8511 0.8511 0.8510
1274.000000 0.8510 0.8510 0.8509 0.8509 0.8509
1279.000000 0.8508 0.8508 0.8507 0.8507 0.8507
1284.000000 0.8506 0.8506 0.8505 0.8505 0.8505
1289.000000 0.8504 0.8504 0.8503 0.8503 0.8503
1294.000000 0.8502 0.8502 0.8501 0.8501 0.8501
1299.000000 0.8500 0.8500 0.8499 0.8499 0.8499
1304.000000 0.8498 0.8498 0.8497 0.8497 0.8497
1309.000000 0.8496 0.8496 0.8495 0.8495 0.8495
1314.000000 0.8494 0.8494 0.8493 0.8493 0.8493
1319.000000 0.8492 0.8492 0.8491 0.8491 0.8491
1324.000000 0.8490 0.8490 0.8489 0.8489 0.8489
1329.000000 0.8488 0.8488 0.8487 0.8487 0.8487
1334.000000 0.8486 0.8486 0.8485 0.8485 0.8485
1339.000000 0.8484 0.8484 0.8483 0.8483 0.8483
1344.000000 0.8482 0.8482 0.8482 0.8484 0.8488
1349.000000 0.8492 0.8495 0.8497 0.8500 0.8506
1354.000000 0.8512 0.8522 0.8533 0.8545 0.8549
1359.000000 0.8549 0.8546 0.8542 0.8537 0.8532
1364.000000 0.8528 0.8523 0.8513 0.8501 0.8488
1369.000000 0.8470 0.8447 0.8424 0.8404 0.8388
1374.000000 0.8371 0.8355 0.8338 0.8321 0.8306
1379.000000 0.8291 0.8276 0.8269 0.8268 0.8267
1384.000000 0.8266 0.8270 0.8283 0.8295 0.8306
1389.000000 0.8317 0.8327 0.8337 0.8347 0.8355
1394.000000 0.8363 0.8369 0.8375 0.8381 0.8384
1399.000000 0.8385 0.8386 0.8386 0.8387 0.8388
1404.000000 0.8389 0.8393 0.8397 0.8401 0.8405
1409.000000 0.8410 0.8415 0.8421 0.8424 0.8423
1414.000000 0.8422 0.8422 0.8421 0.8420 0.8418
1419.000000 0.8417 0.8415 0.8413 0.8412 0.8410
1424.000000 0.8408 0.8407 0.8405 0.8403 0.8401
1429.000000 0.8399 0.8397 0.8395 0.8393 0.8391
1434.000000 0.8389 0.8387 0.8381 0.8373 0.8366
1439.000000 0.8359 0.8353 0.8349 0.8345 0.8341
1444.000000 0.8337 0.8332 0.8328 0.8325 0.8322
1449.000000 0.8319 0.8319 0.8323 0.8327 0.8334
1454.000000 0.8344 0.8355 0.8365 0.8376 0.8373
1459.000000 0.8369 0.8360 0.8352 0.8346 0.8351
1464.000000 0.8357 0.8366 0.8374 0.8382 0.8389
1469.000000 0.8396 0.8403 0.8410 0.8417 0.8412
1474.000000 0.8407 0.8402 0.8397 0.8393 0.8388
1479.000000 0.8380 0.8371 0.8361 0.8352 0.8342
1484.000000 0.8333 0.8323 0.8314 0.8305 0.8293
1489.000000 0.8280 0.8268 0.8255 0.8250 0.8245
1494.000000 0.8241 0.8244 0.8254 0.8261 0.8266
1499.000000 0.8247 0.8227 0.8212 0.8200 0.8194
1504.000000 0.8192 0.8190 0.8181 0.8169 0.8154
1509.000000 0.8133 0.8112 0.8093 0.8081 0.8070
1514.000000 0.8058 0.8056 0.8065 0.8092 0.8124
1519.000000 0.8156 0.8187 0.8217 0.8240 0.8256
1524.000000 0.8298 0.8363 0.8387 0.8399 0.8408
1529.000000 0.8417 0.8420 0.8422 0.8424 0.8425
1534.000000 0.8423 0.8420 0.8418 0.8414 0.8409
1539.000000 0.8405 0.8400 0.8395 0.8390 0.8385
1544.000000 0.8380 0.8374 0.8369 0.8364 0.8358
1549.000000 0.8353 0.8347 0.8341 0.8336 0.8333
1554.000000 0.8332 0.8331 0.8331 0.8330 0.8330
1559.000000 0.8318 0.8303 0.8288 0.8273 0.8258
1564.000000 0.8253 0.8255 0.8262 0.8269 0.8277
1569.000000 0.8285 0.8292 0.8299 0.8306 0.8313
1574.000000 0.8319 0.8325 0.8331 0.8337 0.8343
1579.000000 0.8350 0.8357 0.8365 0.8373 0.8381
1584.000000 0.8389 0.8395 0.8401 0.8408 0.8414
1589.000000 0.8419 0.8423 0.8427 0.8431 0.8435
1594.000000 0.8438 0.8439 0.8440 0.8441 0.8443
1599.000000 0.8444 0.8445 0.8446 0.8447 0.8448
1604.000000 0.8450 0.8450 0.8450 0.8450 0.8451
1609.000000 0.8451 0.8451 0.8451 0.8451 0.8453
1614.000000 0.8457 0.8461 0.8465 0.8469 0.8472
1619.000000 0.8476 0.8480 0.8483 0.8487 0.8490
1624.000000 0.8494 0.8494 0.8494 0.8493 0.8492
1629.000000 0.8491 0.8493 0.8494 0.8495 0.8497
1634.000000 0.8498 0.8500 0.8505 0.8510 0.8515
1639.000000 0.8516 0.8517 0.8518 0.8519 0.8519
1644.000000 0.8518 0.8518 0.8517 0.8517 0.8517
1649.000000 0.8521 0.8524 0.8528 0.8523 0.8519
1654.000000 0.8514 0.8512 0.8512 0.8512 0.8511
1659.000000 0.8511 0.8511 0.8510 0.8510 0.8510
1664.000000 0.8510 0.8511 0.8511 0.8512 0.8513
1669.000000 0.8514 0.8514 0.8515 0.8516 0.8517
1674.000000 0.8517 0.8518 0.8519 0.8520 0.8520
1679.000000 0.8521 0.8522 0.8523 0.8528 0.8533
1684.000000 0.8538 0.8536 0.8533 0.8530 0.8526
1689.000000 0.8522 0.8517 0.8513 0.8512 0.8521
1694.000000 0.8537 0.8546 0.8555 0.8560 0.8562
1699.000000 0.8563 0.8565 0.8566 0.8566 0.8565
1704.000000 0.8563 0.8562 0.8560 0.8559 0.8557
1709.000000 0.8556 0.8554 0.8553 0.8551 0.8550
1714.000000 0.8549 0.8549 0.8552 0.8555 0.8555
1719.000000 0.8550 0.8545 0.8541 0.8537 0.8537
1724.000000 0.8536 0.8535 0.8535 0.8534 0.8535
1729.000000 0.8542 0.8549 0.8557 0.8552 0.8547
1734.000000 0.8542 0.8537 0.8526 0.8515 0.8515
1739.000000 0.8515 0.8515 0.8515 0.8516 0.8516
1744.000000 0.8517 0.8518 0.8518 0.8519 0.8519
1749.000000 0.8520 0.8520 0.8521 0.8523 0.8524
1754.000000 0.8525 0.8526 0.8527 0.8528 0.8529
1759.000000 0.8529 0.8530 0.8530 0.8531 0.8532
1764.000000 0.8532 0.8533 0.8533 0.8534 0.8535
1769.000000 0.8535 0.8536 0.8536 0.8537 0.8537
1774.000000 0.8536 0.8535 0.8534 0.8534 0.8533
1779.000000 0.8532 0.8531 0.8530 0.8530 0.8529
1784.000000 0.8528 0.8527 0.8526 0.8525 0.8524
1789.000000 0.8523 0.8522 0.8521 0.8520 0.8519
1794.000000 0.8518 0.8517 0.8516 0.8515 0.8514
1799.000000 0.8513 0.8512 0.8511 0.8510 0.8509
1804.000000 0.8508 0.8507 0.8506 0.8505 0.8504
1809.000000 0.8503 0.8502 0.8501 0.8501 0.8501
1814.000000 0.8501 0.8501 0.8501 0.8501 0.8500
1819.000000 0.8500 0.8500 0.8500 0.8500 0.8500
1824.000000 0.8500 0.8500 0.8500 0.8500 0.8500
1829.000000 0.8500 0.8500 0.8500 0.8500 0.8499
1834.000000 0.8499 0.8499 0.8499 0.8499 0.8499
1839.000000 0.8499 0.8499 0.8499 0.8499 0.8500
1844.000000 0.8500 0.8500 0.8500 0.8500 0.8500
1849.000000 0.8500 0.8500 0.8500 0.8500 0.8500
1854.000000 0.8500 0.8500 0.8500 0.8501 0.8501
1859.000000 0.8501 0.8501 0.8501 0.8501 0.8500
1864.000000 0.8498 0.8497 0.8496 0.8495 0.8494
1869.000000 0.8492 0.8491 0.8490 0.8489 0.8488
1874.000000 0.8486 0.8485 0.8484 0.8483 0.8482
1879.000000 0.8480 0.8479 0.8478 0.8477 0.8476
1884.000000 0.8474 0.8473 0.8472 0.8472 0.8472
1889.000000 0.8472 0.8472 0.8472 0.8472 0.8472
1894.000000 0.8472 0.8472 0.8472 0.8472 0.8472
1899.000000 0.8472 0.8473 0.8473 0.8473 0.8473
1904.000000 0.8473 0.8473 0.8473 0.8473 0.8473
1909.000000 0.8473 0.8473 0.8473 0.8473 0.8473
1914.000000 0.8474 0.8473 0.8473 0.8473 0.8473
1919.000000 0.8473 0.8473 0.8473 0.8473 0.8473
1924.000000 0.8473 0.8473 0.8473 0.8473 0.8473
1929.000000 0.8472 0.8472 0.8472 0.8472 0.8472
1934.000000 0.8472 0.8472 0.8472 0.8472 0.8472
1939.000000 0.8472 0.8472 0.8472 0.8473 0.8473
1944.000000 0.8474 0.8475 0.8475 0.8476 0.8477
1949.000000 0.8477 0.8478 0.8479 0.8479 0.8480
1954.000000 0.8481 0.8481 0.8482 0.8483 0.8483
1959.000000 0.8484 0.8485 0.8486 0.8487 0.8488
1964.000000 0.8489 0.8490 0.8491 0.8492 0.8493
1969.000000 0.8494 0.8496 0.8497 0.8498 0.8499
1974.000000 0.8500 0.8501 0.8502 0.8503 0.8504
1979.000000 0.8506 0.8507 0.8508 0.8509 0.8510
1984.000000 0.8511 0.8512 0.8513 0.8514 0.8515
1989.000000 0.8515 0.8515 0.8515 0.8515 0.8516
1994.000000 0.8516 0.8516 0.8516 0.8517 0.8517
1999.000000 0.8517 0.8517 0.8517 0.8518 0.8518
2004.000000 0.8518 0.8518 0.8518 0.8518 0.8519
2009.000000 0.8519 0.8519 0.8519 0.8519 0.8519
2014.000000 0.8519 0.8519 0.8520 0.8520 0.8520
2019.000000 0.8520 0.8520 0.8519 0.8519 0.8519
2024.000000 0.8519 0.8519 0.8519 0.8519 0.8519
2029.000000 0.8519 0.8519 0.8519 0.8519 0.8519
2034.000000 0.8519 0.8519 0.8519 0.8519 0.8519
2039.000000 0.8519 0.8519 0.8518 0.8518 0.8518
2044.000000 0.8518 0.8518 0.8518 0.8518 0.8518
2049.000000 0.8518 0.8518 0.8518 0.8518 0.8518
2054.000000 0.8518 0.8518 0.8518 0.8518 0.8518
2059.000000 0.8518 0.8518 0.8518 0.8518 0.8518
2064.000000 0.8518 0.8518 0.8519 0.8519 0.8519
2069.000000 0.8519 0.8520 0.8520 0.8520 0.8520
2074.000000 0.8521 0.8521 0.8521 0.8521 0.8522
2079.000000 0.8522 0.8522 0.8522 0.8523 0.8523
2084.000000 0.8523 0.8523 0.8524 0.8524 0.8524
2089.000000 0.8524 0.8525 0.8525 0.8525 0.8525
2094.000000 0.8526 0.8526 0.8526 0.8526 0.8527
2099.000000 0.8527 0.8527 0.8527 0.8527 0.8527
2104.000000 0.8528 0.8528 0.8528 0.8528 0.8529
2109.000000 0.8529 0.8529 0.8529 0.8530 0.8530
2114.000000 0.8530 0.8530 0.8531 0.8531 0.8531
2119.000000 0.8531 0.8532 0.8532 0.8533 0.8533
2124.000000 0.8534 0.8534 0.8534 0.8534 0.8535
2129.000000 0.8535 0.8536 0.8536 0.8537 0.8537
2134.000000 0.8537 0.8537 0.8538 0.8538 0.8539
2139.000000 0.8539 0.8540 0.8540 0.8540 0.8540
2144.000000 0.8541 0.8541 0.8542 0.8542 0.8543
2149.000000 0.8543 0.8544 0.8544 0.8544 0.8544
2154.000000 0.8545 0.8545 0.8546 0.8546 0.8547
2159.000000 0.8547 0.8547 0.8547 0.8548 0.8548
2164.000000 0.8549 0.8549 0.8550 0.8550 0.8550
2169.000000 0.8550 0.8551 0.8551 0.8552 0.8552
2174.000000 0.8553 0.8554 0.8555 0.8556 0.8558
2179.000000 0.8559 0.8561 0.8562 0.8564 0.8565
2184.000000 0.8567 0.8568 0.8570 0.8571 0.8573
2189.000000 0.8574 0.8576 0.8578 0.8581 0.8582
2194.000000 0.8583 0.8583 0.8584 0.8584 0.8585
2199.000000 0.8586 0.8587 0.8587 0.8588 0.8588
2204.000000 0.8589 0.8589 0.8590 0.8591 0.8592
2209.000000 0.8592 0.8593 0.8593 0.8594 0.8594
2214.000000 0.8595 0.8596 0.8597 0.8598 0.8599
2219.000000 0.8599 0.8600 0.8601 0.8602 0.8602
2224.000000 0.8603 0.8604 0.8605 0.8605 0.8606
2229.000000 0.8606 0.8606 0.8606 0.8606 0.8606
2234.000000 0.8606 0.8606 0.8606 0.8606 0.8606
2239.000000 0.8606 0.8606 0.8606 0.8606 0.8606
2244.000000 0.8606 0.8605 0.8605 0.8604 0.8604
2249.000000 0.8603 0.8603 0.8603 0.8603 0.8602
2254.000000 0.8602 0.8601 0.8601 0.8601 0.8601
2259.000000 0.8600 0.8600 0.8599 0.8599 0.8598
2264.000000 0.8598 0.8598 0.8598 0.8597 0.8597
2269.000000 0.8596 0.8596 0.8595 0.8595 0.8595
2274.000000 0.8595 0.8594 0.8594 0.8594 0.8594
2279.000000 0.8593 0.8593 0.8592 0.8592 0.8592
2284.000000 0.8592 0.8591 0.8591 0.8590 0.8590
2289.000000 0.8590 0.8590 0.8589 0.8589 0.8590
2294.000000 0.8591 0.8593 0.8596 0.8598 0.8601
2299.000000 0.8604 0.8608 0.8613 0.8618 0.8623
2304.000000 0.8629 0.8634 0.8640 0.8646 0.8652
2309.000000 0.8658 0.8664 0.8670 0.8676 0.8682
2314.000000 0.8688 0.8694 0.8700 0.8705 0.8710
2319.000000 0.8715 0.8721 0.8726 0.8731 0.8736
2324.000000 0.8741 0.8746 0.8751 0.8754 0.8757
2329.000000 0.8759 0.8762 0.8760 0.8759 0.8758
2334.000000 0.8757 0.8756 0.8755 0.8754 0.8753
2339.000000 0.8752 0.8751 0.8750 0.8749 0.8750
2344.000000 0.8752 0.8770 0.8788 0.8809 0.8830
2349.000000 0.8846 0.8863 0.8870 0.8877 0.8877
2354.000000 0.8877 0.8875 0.8873 0.8870 0.8867
2359.000000 0.8864 0.8861 0.8856 0.8851 0.8844
2364.000000 0.8837 0.8828 0.8820 0.8806 0.8793
2369.000000 0.8779 0.8765 0.8748 0.8732 0.8715
2374.000000 0.8698 0.8682 0.8667 0.8653 0.8639
2379.000000 0.8627 0.8615 0.8614 0.8614 0.8613
2384.000000 0.8613 0.8612 0.8612 0.8611 0.8611
2389.000000 0.8610 0.8610 0.8610 0.8610 0.8609
2394.000000 0.8609 0.8609 0.8609 0.8608 0.8607
2399.000000 0.8606 0.8605 0.8604 0.8603 0.8602
2404.000000 0.8601 0.8600 0.8599 0.8598 0.8597
2409.000000 0.8596 0.8596 0.8595 0.8595 0.8594
2414.000000 0.8594 0.8593 0.8592 0.8591 0.8591
2419.000000 0.8590 0.8590 0.8589 0.8588 0.8587
2424.000000 0.8587 0.8586 0.8586 0.8586 0.8586
2429.000000 0.8585 0.8585 0.8585 0.8585 0.8585
2434.000000 0.8585 0.8584 0.8584 0.8584 0.8584
2439.000000 0.8584 0.8584 0.8583 0.8583 0.8583
2444.000000 0.8583 0.8583 0.8583 0.8583 0.8583
2449.000000 0.8583 0.8584 0.8584 0.8584 0.8584
2454.000000 0.8585 0.8585 0.8585 0.8585 0.8586
2459.000000 0.8586 0.8586 0.8586 0.8587 0.8587
2464.000000 0.8587 0.8587 0.8588 0.8588 0.8588
2469.000000 0.8588 0.8589 0.8589 0.8589 0.8589
2474.000000 0.8590 0.8590 0.8590 0.8590 0.8591
2479.000000 0.8591 0.8591 0.8591 0.8592 0.8592
