##TITLE=TERT-BUTANOL
##JCAMP-DX=4.24
##DATA TYPE=INFRARED SPECTRUM
##CLASS=COBLENTZ
##ORIGIN=DOW CHEMICAL COMPANY
##OWNER=COBLENTZ SOCIETY
Collection (C) 2018 copyright by the U.S. Secretary of Commerce
on behalf of the United States of America. All rights reserved.
##DATE=1964
##NAMES=2-methyl-2-propanol
ETHANOL, 1,1-DIMETHYL-
##CAS REGISTRY NO=75-65-0
##MOLFORM=C4 H10 O
##SOURCE REFERENCE=COBLENTZ NO. 8788
##$NIST SOURCE=COBLENTZ
##$NIST IMAGE=cob-r8788
##SPECTROMETER/DATA SYSTEM=DOW KBr FOREPRISM-GRATING
##INSTRUMENT PARAMETERS=GRATING CHANGED AT 5.0, 7.5, 15.0 MICRON
##STATE=GAS (30 mmHg, N2 ADDED, TOTAL PRESSURE 600 mmHg)
##PATH LENGTH=5 CM
$$ ROTATIONAL FEATURES DUE TO H2O VAPOR AROUND 1600 CM^-^1 ARE NOT DELETED
##SAMPLING PROCEDURE=TRANSMISSION
##RESOLUTION=2
##DATA PROCESSING=DIGITIZED BY NIST FROM HARD COPY (FROM TWO SEGMENTS)
##XUNITS=1/CM
##YUNITS=TRANSMITTANCE
##XFACTOR=1.000000
##YFACTOR=1
##DELTAX=0.937501
##FIRSTX=383.75
##LASTX=3792.5
##FIRSTY=0.886
##MAXX=3792.5
##MINX=383.75
##MAXY=1.018
##MINY=0.093
##NPOINTS=3637
##XYDATA=(X++(Y..Y))
383.750000 0.8860 0.8860 0.8860 0.8860 0.8860
388.437506 0.8860 0.8860 0.8860 0.8860 0.8860
393.125013 0.8860 0.8860 0.8860 0.8860 0.8860
397.812519 0.8860 0.8860 0.8860 0.8860 0.8860
402.500025 0.8860 0.8850 0.8850 0.8850 0.8850
407.187532 0.8850 0.8850 0.8850 0.8850 0.8850
411.875038 0.8850 0.8850 0.8850 0.8830 0.8830
416.562544 0.8830 0.8830 0.8830 0.8830 0.8820
421.250050 0.8800 0.8770 0.8760 0.8760 0.8760
425.937557 0.8750 0.8750 0.8730 0.8730 0.8730
430.625063 0.8730 0.8720 0.8720 0.8720 0.8700
435.312569 0.8700 0.8690 0.8690 0.8670 0.8660
440.000076 0.8640 0.8640 0.8630 0.8610 0.8590
444.687582 0.8560 0.8540 0.8510 0.8500 0.8470
449.375088 0.8440 0.8400 0.8370 0.8350 0.8340
454.062595 0.8320 0.8310 0.8290 0.8280 0.8270
458.750101 0.8250 0.8240 0.8220 0.8190 0.8180
463.437607 0.8160 0.8160 0.8160 0.8180 0.8180
468.125114 0.8190 0.8240 0.8270 0.8320 0.8340
472.812620 0.8380 0.8430 0.8440 0.8480 0.8510
477.500126 0.8540 0.8570 0.8600 0.8630 0.8700
482.187633 0.8700 0.8720 0.8760 0.8830 0.8850
486.875139 0.8860 0.8900 0.8920 0.8950 0.9010
491.562645 0.9020 0.9050 0.9110 0.9150 0.9170
496.250151 0.9210 0.9210 0.9220 0.9250 0.9270
500.937658 0.9310 0.9330 0.9340 0.9360 0.9370
505.625164 0.9370 0.9380 0.9400 0.9400 0.9400
510.312670 0.9400 0.9400 0.9410 0.9410 0.9410
515.000177 0.9410 0.9410 0.9410 0.9410 0.9410
519.687683 0.9410 0.9400 0.9400 0.9410 0.9430
524.375189 0.9440 0.9440 0.9440 0.9440 0.9440
529.062696 0.9460 0.9440 0.9440 0.9440 0.9430
533.750202 0.9430 0.9410 0.9410 0.9410 0.9410
538.437708 0.9410 0.9410 0.9410 0.9410 0.9410
543.125215 0.9410 0.9410 0.9410 0.9410 0.9410
547.812721 0.9410 0.9410 0.9410 0.9410 0.9430
552.500227 0.9430 0.9430 0.9430 0.9430 0.9440
557.187734 0.9440 0.9440 0.9440 0.9440 0.9460
561.875240 0.9460 0.9460 0.9460 0.9470 0.9460
566.562746 0.9460 0.9460 0.9440 0.9440 0.9440
571.250252 0.9440 0.9440 0.9460 0.9460 0.9460
575.937759 0.9460 0.9470 0.9470 0.9470 0.9490
580.625265 0.9490 0.9490 0.9500 0.9500 0.9500
585.312771 0.9500 0.9500 0.9500 0.9500 0.9500
590.000278 0.9500 0.9500 0.9520 0.9520 0.9530
594.687784 0.9540 0.9560 0.9560 0.9560 0.9560
599.375290 0.9570 0.9570 0.9570 0.9570 0.9570
604.062797 0.9570 0.9570 0.9560 0.9570 0.9570
608.750303 0.9570 0.9590 0.9590 0.9590 0.9570
613.437809 0.9570 0.9590 0.9600 0.9600 0.9620
618.125316 0.9630 0.9630 0.9630 0.9650 0.9650
622.812822 0.9660 0.9660 0.9680 0.9680 0.9690
627.500328 0.9700 0.9700 0.9720 0.9730 0.9730
632.187835 0.9750 0.9760 0.9760 0.9780 0.9790
636.875341 0.9790 0.9790 0.9790 0.9810 0.9810
641.562847 0.9820 0.9820 0.9840 0.9840 0.9850
646.250353 0.9850 0.9850 0.9850 0.9850 0.9850
650.937860 0.9850 0.9850 0.9840 0.9840 0.9820
655.625366 0.9810 0.9810 0.9810 0.9810 0.9810
660.312872 0.9820 0.9820 0.9840 0.9850 0.9860
665.000379 0.9880 0.9890 0.9910 0.9910 0.9920
669.687885 0.9940 0.9940 0.9950 0.9970 0.9980
674.375391 0.9980 1.0000 1.0010 1.0010 1.0010
679.062898 1.0020 1.0020 1.0040 1.0040 1.0050
683.750404 1.0050 1.0070 1.0080 1.0100 1.0110
688.437910 1.0110 1.0110 1.0110 1.0110 1.0110
693.125417 1.0110 1.0130 1.0130 1.0140 1.0140
697.812923 1.0150 1.0150 1.0150 1.0150 1.0150
702.500429 1.0150 1.0150 1.0150 1.0150 1.0170
707.187936 1.0170 1.0170 1.0170 1.0170 1.0170
711.875442 1.0170 1.0170 1.0170 1.0180 1.0170
716.562948 1.0170 1.0170 1.0170 1.0170 1.0170
721.250454 1.0150 1.0150 1.0150 1.0170 1.0150
725.937961 1.0150 1.0140 1.0130 1.0110 1.0100
730.625467 1.0070 1.0070 1.0040 0.9970 0.9940
735.312973 0.9890 0.9840 0.9810 0.9790 0.9780
740.000480 0.9730 0.9690 0.9680 0.9590 0.9570
744.687986 0.9570 0.9570 0.9570 0.9570 0.9570
749.375492 0.9590 0.9590 0.8471 0.7871 0.7291
754.062999 0.7290 0.8317 0.9675 0.9680 0.9630
758.750505 0.9600 0.9600 0.9590 0.9570 0.9570
763.438011 0.9570 0.9650 0.9730 0.9780 0.9810
768.125518 0.9840 0.9890 0.9940 1.0000 1.0010
772.813024 1.0010 1.0050 1.0130 1.0130 1.0140
777.500530 1.0140 1.0150 1.0150 1.0170 1.0170
782.188037 1.0170 1.0170 1.0180 1.0180 1.0180
786.875543 1.0180 1.0170 1.0170 1.0170 1.0170
791.563049 1.0170 1.0170 1.0150 1.0150 1.0150
796.250555 1.0150 1.0150 1.0150 1.0140 1.0140
800.938062 1.0140 1.0140 1.0130 1.0110 1.0110
805.625568 1.0110 1.0110 1.0100 1.0100 1.0100
810.313074 1.0100 1.0100 1.0080 1.0080 1.0080
815.000581 1.0080 1.0070 1.0070 1.0070 1.0070
819.688087 1.0050 1.0050 1.0050 1.0040 1.0040
824.375593 1.0040 1.0040 1.0020 1.0020 1.0020
829.063100 1.0010 1.0020 1.0020 1.0020 1.0020
833.750606 1.0020 1.0020 1.0020 1.0040 1.0040
838.438112 1.0040 1.0040 1.0040 1.0040 1.0040
843.125619 1.0040 1.0040 1.0040 1.0040 1.0040
847.813125 1.0020 1.0020 1.0020 1.0020 1.0010
852.500631 1.0010 1.0000 1.0000 1.0000 1.0000
857.188138 1.0000 1.0000 1.0000 1.0000 1.0000
861.875644 1.0000 1.0000 0.9980 0.9980 0.9980
866.563150 0.9970 0.9970 0.9970 0.9950 0.9950
871.250656 0.9940 0.9940 0.9920 0.9920 0.9910
875.938163 0.9890 0.9890 0.9880 0.9860 0.9850
880.625669 0.9820 0.9820 0.9810 0.9810 0.9790
885.313175 0.9790 0.9780 0.9730 0.9680 0.9630
890.000682 0.9600 0.9590 0.9540 0.9430 0.9310
894.688188 0.9210 0.9150 0.9010 0.8900 0.8761
899.375694 0.8590 0.8430 0.8310 0.7860 0.7570
904.063201 0.7291 0.7061 0.6831 0.6641 0.6461
908.750707 0.6300 0.6190 0.6130 0.6090 0.6070
913.438213 0.6040 0.6030 0.5980 0.5900 0.5402
918.125720 0.4660 0.4210 0.3760 0.3730 0.2732
922.813226 0.4057 0.5267 0.5489 0.5689 0.6248
927.500732 0.6320 0.6170 0.6090 0.6000 0.5930
932.188239 0.5850 0.5680 0.5650 0.5660 0.5839
936.875745 0.5980 0.6090 0.6110 0.6590 0.6840
941.563251 0.7119 0.7629 0.8238 0.8638 0.8750
946.250757 0.8930 0.9110 0.9200 0.9360 0.9460
950.938264 0.9520 0.9560 0.9590 0.9660 0.9690
955.625770 0.9720 0.9730 0.9750 0.9750 0.9750
960.313276 0.9730 0.9730 0.9730 0.9730 0.9720
965.000783 0.9700 0.9700 0.9690 0.9690 0.9690
969.688289 0.9680 0.9680 0.9680 0.9680 0.9660
974.375795 0.9660 0.9660 0.9660 0.9660 0.9680
979.063302 0.9660 0.9660 0.9660 0.9660 0.9650
983.750808 0.9630 0.9620 0.9600 0.9590 0.9570
988.438314 0.9570 0.9530 0.9490 0.9470 0.9430
993.125821 0.9370 0.9340 0.9310 0.9250 0.9220
997.813327 0.9170 0.9140 0.9090 0.9050 0.8990
1002.500833 0.8960 0.8930 0.8920 0.8900 0.8860
1007.188340 0.8850 0.8830 0.8830 0.8820 0.8790
1011.875846 0.8750 0.8720 0.8600 0.8500 0.8400
1016.563352 0.8400 0.8470 0.8560 0.8630 0.8670
1021.250858 0.8690 0.8700 0.8720 0.8720 0.8730
1025.938365 0.8730 0.8730 0.8750 0.8760 0.8790
1030.625871 0.8800 0.8830 0.8850 0.8860 0.8900
1035.313377 0.8920 0.8930 0.8930 0.8930 0.8950
1040.000884 0.8960 0.8990 0.9040 0.9060 0.9090
1044.688390 0.9120 0.9140 0.9140 0.9140 0.9150
1049.375896 0.9200 0.9220 0.9270 0.9300 0.9330
1054.063403 0.9360 0.9370 0.9380 0.9380 0.9380
1058.750909 0.9400 0.9400 0.9400 0.9400 0.9400
1063.438415 0.9400 0.9380 0.9380 0.9370 0.9370
1068.125922 0.9370 0.9370 0.9360 0.9360 0.9360
1072.813428 0.9360 0.9360 0.9360 0.9360 0.9340
1077.500934 0.9340 0.9340 0.9360 0.9360 0.9370
1082.188441 0.9370 0.9370 0.9370 0.9370 0.9370
1086.875947 0.9360 0.9360 0.9340 0.9340 0.9330
1091.563453 0.9300 0.9280 0.9270 0.9250 0.9250
1096.250959 0.9240 0.9240 0.9220 0.9220 0.9210
1100.938466 0.9200 0.9180 0.9150 0.9120 0.9120
1105.625972 0.9110 0.9090 0.9040 0.8990 0.8950
1110.313478 0.8920 0.8890 0.8790 0.8750 0.8601
1115.000985 0.8540 0.8410 0.8340 0.8160 0.7990
1119.688491 0.7860 0.7700 0.7471 0.7261 0.7071
1124.375997 0.6910 0.6770 0.6610 0.6460 0.6300
1129.063504 0.6110 0.5970 0.5711 0.5491 0.5390
1133.751010 0.5310 0.5290 0.5240 0.5200 0.5150
1138.438516 0.5080 0.5080 0.5050 0.4631 0.4431
1143.126023 0.3900 0.3480 0.3900 0.4270 0.5009
1147.813529 0.5170 0.5210 0.5240 0.5240 0.5210
1152.501035 0.5180 0.5170 0.5200 0.5270 0.5370
1157.188542 0.5470 0.5550 0.5620 0.5779 0.5900
1161.876048 0.6060 0.6270 0.6510 0.6740 0.6940
1166.563554 0.7160 0.7419 0.7470 0.7520 0.7570
1171.251060 0.7600 0.7640 0.7730 0.7740 0.7790
1175.938567 0.7790 0.7790 0.7790 0.7770 0.7740
1180.626073 0.7700 0.7680 0.7630 0.7600 0.7520
1185.313579 0.7450 0.7420 0.7350 0.7260 0.7180
1190.001086 0.7100 0.7040 0.6970 0.6880 0.6740
1194.688592 0.6590 0.6490 0.6420 0.6300 0.6171
1199.376098 0.6060 0.5940 0.5740 0.5390 0.5270
1204.063605 0.5130 0.5020 0.4890 0.4780 0.4680
1208.751111 0.4590 0.4530 0.4460 0.4370 0.4210
1213.438617 0.4060 0.3930 0.3760 0.3501 0.3371
1218.126124 0.3150 0.2830 0.2830 0.3320 0.4619
1222.813630 0.4530 0.4440 0.4380 0.4360 0.4340
1227.501136 0.4360 0.4370 0.4430 0.4520 0.4660
1232.188643 0.4840 0.5109 0.5329 0.5470 0.5609
1236.876149 0.5820 0.5980 0.6160 0.6330 0.6510
1241.563655 0.6680 0.6810 0.6930 0.7020 0.7040
1246.251161 0.7090 0.7130 0.7220 0.7320 0.7450
1250.938668 0.7580 0.7710 0.7810 0.7900 0.7960
1255.626174 0.7970 0.8020 0.8050 0.8120 0.8130
1260.313680 0.8160 0.8210 0.8250 0.8310 0.8350
1265.001187 0.8350 0.8380 0.8410 0.8440 0.8450
1269.688693 0.8480 0.8500 0.8530 0.8530 0.8560
1274.376199 0.8590 0.8590 0.8600 0.8610 0.8630
1279.063706 0.8640 0.8640 0.8640 0.8660 0.8670
1283.751212 0.8670 0.8690 0.8690 0.8690 0.8690
1288.438718 0.8690 0.8690 0.8690 0.8690 0.8690
1293.126225 0.8690 0.8690 0.8670 0.8670 0.8660
1297.813731 0.8640 0.8610 0.8610 0.8570 0.8560
1302.501237 0.8530 0.8480 0.8440 0.8400 0.8370
1307.188743 0.8310 0.8270 0.8190 0.8120 0.8050
1311.876250 0.7950 0.7810 0.7710 0.7640 0.7580
1316.563756 0.7450 0.7360 0.7280 0.7260 0.7230
1321.251262 0.7220 0.7190 0.7180 0.7160 0.7160
1325.938769 0.7160 0.7130 0.7070 0.6990 0.6651
1330.626275 0.6260 0.6261 0.7030 0.7320 0.7600
1335.313781 0.7640 0.7680 0.7730 0.7760 0.7790
1340.001288 0.7810 0.7830 0.7840 0.7860 0.7870
1344.688794 0.7890 0.7890 0.7890 0.7870 0.7840
1349.376300 0.7840 0.7790 0.7710 0.7650 0.7580
1354.063807 0.7360 0.7190 0.7020 0.6801 0.6651
1358.751313 0.6400 0.6260 0.6000 0.5290 0.5260
1363.438819 0.5260 0.5240 0.5230 0.5021 0.4811
1368.126326 0.4680 0.4540 0.4170 0.3690 0.3640
1372.813832 0.3590 0.3530 0.3450 0.3450 0.3689
1377.501338 0.4021 0.4650 0.4650 0.4630 0.4570
1382.188844 0.4540 0.4560 0.4650 0.4720 0.4790
1386.876351 0.4860 0.4940 0.5230 0.5520 0.5880
1391.563857 0.6160 0.6549 0.6829 0.7089 0.7070
1396.251363 0.7030 0.7000 0.7020 0.7380 0.7930
1400.938870 0.8759 0.8860 0.8950 0.8990 0.9020
1405.626376 0.9020 0.9040 0.9060 0.9140 0.9210
1410.313882 0.9250 0.9330 0.9360 0.9380 0.9460
1415.001389 0.9470 0.9490 0.9500 0.9500 0.9520
1419.688895 0.9530 0.9430 0.9540 0.9560 0.9560
1424.376401 0.9560 0.9560 0.9560 0.9560 0.9560
1429.063908 0.9560 0.9540 0.9540 0.9530 0.9500
1433.751414 0.9500 0.9490 0.9470 0.9400 0.9360
1438.438920 0.9340 0.9380 0.9380 0.9380 0.9380
1443.126427 0.9370 0.9360 0.9340 0.9340 0.9300
1447.813933 0.9250 0.9180 0.9140 0.9080 0.9040
1452.501439 0.8960 0.8890 0.8790 0.8760 0.8670
1457.188945 0.8560 0.8500 0.8400 0.8440 0.8470
1461.876452 0.8510 0.8510 0.8510 0.8480 0.8410
1466.563958 0.8220 0.8020 0.7990 0.7960 0.7950
1471.251464 0.7960 0.7990 0.7990 0.8030 0.8120
1475.938971 0.8190 0.8220 0.8280 0.8350 0.8400
1480.626477 0.8410 0.8430 0.8440 0.8470 0.8500
1485.313983 0.8510 0.8530 0.8530 0.8560 0.8590
1490.001490 0.8630 0.8690 0.8760 0.8830 0.8890
1494.688996 0.8930 0.8950 0.8990 0.9040 0.9080
1499.376502 0.9120 0.9170 0.9220 0.9280 0.9440
1504.064009 0.9430 0.9410 0.9400 0.9380 0.9430
1508.751515 0.9520 0.9620 0.9680 0.9720 0.9760
1513.439021 0.9790 0.9790 0.9780 0.9790 0.9790
1518.126528 0.9790 0.9810 0.9820 0.9790 0.9820
1522.814034 0.9860 0.9890 0.9890 0.9910 0.9910
1527.501540 0.9920 0.9940 0.9950 0.9950 0.9950
1532.189046 0.9950 0.9910 0.9910 0.9950 0.9970
1536.876553 0.9940 0.9890 0.9760 0.9730 0.9730
1541.564059 0.9790 0.9860 0.9910 0.9910 0.9920
1546.251565 0.9920 0.9950 0.9970 0.9970 0.9970
1550.939072 0.9970 0.9970 0.9970 0.9940 0.9910
1555.626578 0.9890 0.9880 0.9860 0.9810 0.9750
1560.314084 0.9690 0.9750 0.9820 0.9980 1.0000
1565.001591 1.0010 1.0010 1.0010 0.9950 0.9940
1569.689097 0.9890 0.9910 0.9950 1.0000 0.9970
1574.376603 0.9910 0.9780 0.9730 0.9780 0.9850
1579.064110 0.9920 0.9950 0.9970 0.9970 0.9970
1583.751616 0.9950 0.9950 0.9950 0.9950 0.9970
1588.439122 1.0000 1.0010 0.9970 0.9980 1.0000
1593.126629 1.0010 1.0010 1.0010 1.0010 1.0010
1597.814135 1.0010 1.0010 1.0010 1.0010 1.0010
1602.501641 1.0010 1.0010 1.0010 1.0010 1.0010
1607.189147 1.0010 1.0000 1.0000 1.0000 1.0010
1611.876654 1.0010 1.0000 1.0010 1.0010 0.9860
1616.564160 0.9820 0.9860 0.9910 0.9940 0.9980
1621.251666 1.0010 1.0010 0.9920 0.9920 0.9970
1625.939173 0.9970 0.9970 0.9970 1.0000 1.0010
1630.626679 1.0010 1.0040 1.0040 0.9940 0.9910
1635.314185 0.9850 0.9760 0.9820 0.9880 0.9920
1640.001692 0.9920 0.9920 0.9910 0.9880 0.9850
1644.689198 0.9810 0.9760 0.9760 0.9840 0.9840
1649.376704 0.9860 0.9910 0.9910 0.9460 0.9460
1654.064211 0.9530 0.9730 0.9850 0.9890 0.9890
1658.751717 0.9850 0.9850 0.9850 0.9840 0.9810
1663.439223 0.9780 0.9760 0.9760 0.9790 0.9790
1668.126730 0.9730 0.9700 0.9720 0.9790 0.9810
1672.814236 0.9810 0.9780 0.9780 0.9760 0.9790
1677.501742 0.9840 0.9850 0.9850 0.9850 0.9850
1682.189248 0.9730 0.9590 0.9630 0.9660 0.9730
1686.876755 0.9790 0.9840 0.9820 0.9840 0.9840
1691.564261 0.9840 0.9850 0.9840 0.9840 0.9730
1696.251767 0.9600 0.9590 0.9600 0.9690 0.9730
1700.939274 0.9790 0.9850 0.9880 0.9880 0.9880
1705.626780 0.9890 0.9890 0.9910 0.9910 0.9910
1710.314286 0.9920 0.9920 0.9890 0.9850 0.9840
1715.001793 0.9820 0.9780 0.9730 0.9780 0.9810
1719.689299 0.9890 0.9890 0.9910 0.9890 0.9890
1724.376805 0.9890 0.9890 0.9890 0.9890 0.9880
1729.064312 0.9880 0.9880 0.9810 0.9760 0.9730
1733.751818 0.9760 0.9790 0.9860 0.9860 0.9860
1738.439324 0.9880 0.9880 0.9860 0.9880 0.9880
1743.126831 0.9860 0.9860 0.9850 0.9840 0.9820
1747.814337 0.9810 0.9790 0.9780 0.9760 0.9750
1752.501843 0.9750 0.9750 0.9730 0.9720 0.9690
1757.189349 0.9690 0.9700 0.9720 0.9720 0.9700
1761.876856 0.9700 0.9720 0.9720 0.9720 0.9700
1766.564362 0.9700 0.9700 0.9720 0.9730 0.9730
1771.251868 0.9760 0.9790 0.9860 0.9860 0.9860
1775.939375 0.9880 0.9880 0.9890 0.9890 0.9890
1780.626881 0.9910 0.9910 0.9910 0.9910 0.9910
1785.314387 0.9910 0.9910 0.9890 0.9890 0.9880
1790.001894 0.9860 0.9880 0.9910 0.9910 0.9910
1794.689400 0.9890 0.9890 0.9880 0.9860 0.9880
1799.376906 0.9880 0.9890 0.9890 0.9890 0.9890
1804.064413 0.9880 0.9880 0.9860 0.9850 0.9840
1808.751919 0.9840 0.9820 0.9840 0.9850 0.9850
1813.439425 0.9850 0.9850 0.9840 0.9840 0.9820
1818.126932 0.9810 0.9820 0.9820 0.9820 0.9810
1822.814438 0.9810 0.9790 0.9810 0.9810 0.9790
1827.501944 0.9760 0.9760 0.9790 0.9790 0.9820
1832.189450 0.9820 0.9790 0.9790 0.9810 0.9810
1836.876957 0.9820 0.9820 0.9840 0.9850 0.9850
1841.564463 0.9790 0.9750 0.9750 0.9790 0.9810
1846.251969 0.9810 0.9840 0.9810 0.9840 0.9840
1850.939476 0.9850 0.9860 0.9860 0.9860 0.9860
1855.626982 0.9860 0.9880 0.9880 0.9880 0.9880
1860.314488 0.9880 0.9890 0.9910 0.9910 0.9890
1865.001995 0.9890 0.9890 0.9880 0.9880 0.9880
1869.689501 0.9860 0.9890 0.9920 0.9940 0.9920
1874.377007 0.9920 0.9920 0.9910 0.9910 0.9910
1879.064514 0.9910 0.9910 0.9920 0.9920 0.9910
1883.752020 0.9910 0.9910 0.9910 0.9890 0.9890
1888.439526 0.9880 0.9880 0.9880 0.9890 0.9920
1893.127033 0.9920 0.9910 0.9910 0.9910 0.9910
1897.814539 0.9890 0.9890 0.9890 0.9910 0.9910
1902.502045 0.9890 0.9890 0.9890 0.9890 0.9890
1907.189551 0.9890 0.9890 0.9890 0.9890 0.9880
1911.877058 0.9880 0.9890 0.9890 0.9880 0.9880
1916.564564 0.9880 0.9880 0.9890 0.9880 0.9880
1921.252070 0.9880 0.9880 0.9880 0.9880 0.9880
1925.939577 0.9880 0.9880 0.9880 0.9880 0.9880
1930.627083 0.9880 0.9860 0.9860 0.9860 0.9860
1935.314589 0.9860 0.9860 0.9860 0.9860 0.9860
1940.002096 0.9860 0.9850 0.9850 0.9850 0.9850
1944.689602 0.9850 0.9850 0.9850 0.9850 0.9850
1949.377108 0.9850 0.9850 0.9850 0.9880 0.9860
1954.064615 0.9860 0.9860 0.9840 0.9840 0.9810
1958.752121 0.9820 0.9840 0.9850 0.9850 0.9850
1963.439627 0.9880 0.9880 0.9880 0.9880 0.9880
1968.127134 0.9880 0.9890 0.9880 0.9880 0.9880
1972.814640 0.9880 0.9880 0.9880 0.9880 0.9880
1977.502146 0.9880 0.9880 0.9880 0.9880 0.9880
1982.189652 0.9860 0.9860 0.9860 0.9860 0.9860
1986.877159 0.9860 0.9850 0.9850 0.9850 0.9850
1991.564665 0.9850 0.9850 0.9850 0.9850 0.9850
1996.252171 0.9860 0.9860 0.9860 0.9860 0.9860
2000.939678 0.9860 0.9860 0.9860 0.9860 0.9860
2005.627184 0.9860 0.9860 0.9860 0.9860 0.9860
2010.314690 0.9860 0.9860 0.9860 0.9860 0.9860
2015.002197 0.9860 0.9860 0.9860 0.9860 0.9860
2019.689703 0.9860 0.9860 0.9860 0.9860 0.9860
2024.377209 0.9860 0.9860 0.9860 0.9860 0.9860
2029.064716 0.9860 0.9860 0.9860 0.9860 0.9860
2033.752222 0.9860 0.9860 0.9860 0.9860 0.9860
2038.439728 0.9860 0.9860 0.9860 0.9860 0.9856
2043.127235 0.9851 0.9850 0.9850 0.9850 0.9850
2047.814741 0.9850 0.9850 0.9850 0.9850 0.9850
2052.502247 0.9850 0.9850 0.9850 0.9850 0.9850
2057.189753 0.9850 0.9850 0.9850 0.9850 0.9850
2061.877260 0.9850 0.9850 0.9850 0.9850 0.9850
2066.564766 0.9850 0.9850 0.9850 0.9850 0.9850
2071.252272 0.9850 0.9850 0.9850 0.9850 0.9850
2075.939779 0.9850 0.9850 0.9850 0.9850 0.9850
2080.627285 0.9850 0.9850 0.9850 0.9850 0.9850
2085.314791 0.9850 0.9850 0.9850 0.9850 0.9850
2090.002298 0.9850 0.9850 0.9850 0.9847 0.9842
2094.689804 0.9840 0.9840 0.9840 0.9840 0.9840
2099.377310 0.9840 0.9840 0.9840 0.9840 0.9840
2104.064817 0.9834 0.9824 0.9820 0.9820 0.9820
2108.752323 0.9820 0.9817 0.9812 0.9810 0.9810
2113.439829 0.9810 0.9810 0.9804 0.9794 0.9787
2118.127336 0.9782 0.9780 0.9780 0.9780 0.9780
2122.814842 0.9780 0.9780 0.9780 0.9780 0.9780
2127.502348 0.9780 0.9780 0.9780 0.9780 0.9780
2132.189854 0.9780 0.9780 0.9782 0.9787 0.9790
2136.877361 0.9790 0.9795 0.9805 0.9810 0.9810
2141.564867 0.9812 0.9817 0.9820 0.9820 0.9824
2146.252373 0.9834 0.9840 0.9840 0.9842 0.9847
2150.939880 0.9850 0.9850 0.9850 0.9850 0.9850
2155.627386 0.9850 0.9852 0.9857 0.9860 0.9860
2160.314892 0.9860 0.9860 0.9860 0.9860 0.9860
2165.002399 0.9860 0.9864 0.9873 0.9877 0.9866
2169.689905 0.9860 0.9860 0.9858 0.9853 0.9850
2174.377411 0.9850 0.9850 0.9850 0.9850 0.9850
2179.064918 0.9850 0.9850 0.9850 0.9850 0.9849
2183.752424 0.9844 0.9840 0.9840 0.9840 0.9840
2188.439930 0.9840 0.9840 0.9840 0.9840 0.9840
2193.127436 0.9840 0.9840 0.9840 0.9840 0.9840
2197.814943 0.9840 0.9840 0.9840 0.9840 0.9840
2202.502449 0.9840 0.9840 0.9840 0.9840 0.9840
2207.189955 0.9840 0.9840 0.9840 0.9840 0.9840
2211.877462 0.9840 0.9840 0.9840 0.9840 0.9840
2216.564968 0.9840 0.9840 0.9840 0.9840 0.9840
2221.252474 0.9840 0.9840 0.9840 0.9840 0.9840
2225.939981 0.9840 0.9840 0.9840 0.9840 0.9840
2230.627487 0.9840 0.9840 0.9840 0.9840 0.9840
2235.314993 0.9840 0.9840 0.9840 0.9840 0.9840
2240.002500 0.9840 0.9840 0.9840 0.9840 0.9840
2244.690006 0.9840 0.9840 0.9840 0.9840 0.9839
2249.377512 0.9830 0.9820 0.9820 0.9820 0.9820
2254.065019 0.9820 0.9820 0.9820 0.9820 0.9820
2258.752525 0.9820 0.9820 0.9805 0.9790 0.9785
2263.440031 0.9780 0.9780 0.9780 0.9780 0.9780
2268.127537 0.9770 0.9760 0.9760 0.9760 0.9755
2272.815044 0.9750 0.9750 0.9750 0.9741 0.9731
2277.502550 0.9730 0.9730 0.9725 0.9720 0.9720
