##TITLE=Methane, tetrafluo-
##JCAMP-DX=4.24
##DATA TYPE=INFRARED SPECTRUM
##CLASS=COBLENTZ
##ORIGIN=DOW CHEMICAL COMPANY
##OWNER=Copyright (C) 1987 by the Coblentz Society
Collection (C) 2018 copyright by the U.S. Secretary of Commerce
on behalf of the United States of America. All rights reserved.
##DATE=1964
##NAMES=tetrafluoromethane
FREON-14
##CAS REGISTRY NO=75-73-0
##MOLFORM=C F4
##SOURCE REFERENCE=COBLENTZ NO. 8850
##$NIST SOURCE=COBLENTZ
##$NIST IMAGE=cob8850
##SPECTROMETER/DATA SYSTEM=DOW KBr FOREPRISM-GRATING
##INSTRUMENT PARAMETERS=GRATING CHANGED AT 5.0, 7.5, 15.0 MICRON
##STATE=GAS (100 mmHg, N2 ADDED, TOTAL PRESSURE 600 mmHg)
##PATH LENGTH=5 CM
##SAMPLING PROCEDURE=TRANSMISSION
##RESOLUTION=2
##DATA PROCESSING=DIGITIZED BY COBLENTZ SOCIETY (BATCH II) FROM HARD COPY
##XUNITS=1/CM
##YUNITS=TRANSMITTANCE
##XFACTOR=1.0
##YFACTOR=1
##FIRSTX=461
##LASTX=3798
##FIRSTY=0.8552
##MAXX=3798
##MINX=461
##MAXY=0.898
##MINY=0.0014
##NPOINTS=3338
##XYDATA=(X++(Y..Y))
461.000000 0.8552 0.8555 0.8561 0.8566 0.8571
466.000000 0.8576 0.8582 0.8587 0.8591 0.8595
471.000000 0.8598 0.8602 0.8605 0.8608 0.8612
476.000000 0.8614 0.8616 0.8618 0.8619 0.8621
481.000000 0.8622 0.8621 0.8620 0.8618 0.8617
486.000000 0.8616 0.8613 0.8609 0.8605 0.8601
491.000000 0.8597 0.8593 0.8588 0.8584 0.8580
496.000000 0.8579 0.8577 0.8576 0.8574 0.8573
501.000000 0.8571 0.8569 0.8567 0.8564 0.8562
506.000000 0.8559 0.8557 0.8554 0.8552 0.8549
511.000000 0.8547 0.8545 0.8542 0.8540 0.8536
516.000000 0.8533 0.8530 0.8527 0.8524 0.8521
521.000000 0.8518 0.8515 0.8512 0.8509 0.8506
526.000000 0.8503 0.8502 0.8503 0.8503 0.8504
531.000000 0.8505 0.8505 0.8506 0.8506 0.8507
536.000000 0.8507 0.8508 0.8508 0.8509 0.8509
541.000000 0.8510 0.8510 0.8511 0.8513 0.8538
546.000000 0.8517 0.8519 0.8521 0.8523 0.8525
551.000000 0.8527 0.8529 0.8531 0.8533 0.8535
556.000000 0.8537 0.8539 0.8541 0.8543 0.8549
561.000000 0.8554 0.8559 0.8565 0.8570 0.8575
566.000000 0.8581 0.8586 0.8591 0.8596 0.8599
571.000000 0.8603 0.8606 0.8610 0.8613 0.8617
576.000000 0.8620 0.8624 0.8627 0.8631 0.8634
581.000000 0.8637 0.8635 0.8634 0.8633 0.8632
586.000000 0.8630 0.8626 0.8616 0.8605 0.8595
591.000000 0.8576 0.8552 0.8529 0.8500 0.8468
596.000000 0.8436 0.8392 0.8345 0.8282 0.8110
601.000000 0.7939 0.7767 0.7596 0.7424 0.7252
606.000000 0.7081 0.6909 0.6738 0.6566 0.6395
611.000000 0.6223 0.6031 0.5846 0.5794 0.5763
616.000000 0.5750 0.5776 0.5785 0.5822 0.5920
621.000000 0.6067 0.6242 0.6449 0.6656 0.6863
626.000000 0.7070 0.7277 0.7484 0.7781 0.7777
631.000000 0.5304 0.1808 0.2547 0.3912 0.5278
636.000000 0.6644 0.7927 0.7913 0.7963 0.7333
641.000000 0.6983 0.6634 0.6284 0.5935 0.5585
646.000000 0.5249 0.5096 0.5019 0.4992 0.4992
651.000000 0.4990 0.5010 0.5044 0.5101 0.5230
656.000000 0.5417 0.5605 0.5793 0.5981 0.6168
661.000000 0.6356 0.6533 0.6749 0.6925 0.7102
666.000000 0.7278 0.7454 0.7631 0.7807 0.7984
671.000000 0.8107 0.8206 0.8311 0.8357 0.8400
676.000000 0.8443 0.8480 0.8506 0.8531 0.8557
681.000000 0.8579 0.8597 0.8614 0.8632 0.8648
686.000000 0.8660 0.8672 0.8685 0.8697 0.8707
691.000000 0.8711 0.8715 0.8718 0.8721 0.8714
696.000000 0.8707 0.8699 0.8692 0.8684 0.8687
701.000000 0.8704 0.8721 0.8737 0.8753 0.8769
706.000000 0.8780 0.8785 0.8791 0.8797 0.8802
711.000000 0.8808 0.8814 0.8819 0.8821 0.8823
716.000000 0.8825 0.8826 0.8827 0.8825 0.8823
721.000000 0.8821 0.8819 0.8816 0.8814 0.8812
726.000000 0.8807 0.8802 0.8798 0.8793 0.8788
731.000000 0.8784 0.8779 0.8775 0.8769 0.8763
736.000000 0.8759 0.8758 0.8758 0.8757 0.8757
741.000000 0.8756 0.8755 0.8755 0.8754 0.8753
746.000000 0.8753 0.8752 0.8752 0.8751 0.8750
751.000000 0.8750 0.8749 0.8748 0.8747 0.8745
756.000000 0.8744 0.8743 0.8741 0.8740 0.8739
761.000000 0.8737 0.8736 0.8735 0.8734 0.8732
766.000000 0.8731 0.8730 0.8728 0.8773 0.8726
771.000000 0.8724 0.8723 0.8722 0.8720 0.8720
776.000000 0.8721 0.8721 0.8722 0.8722 0.8723
781.000000 0.8724 0.8725 0.8732 0.8739 0.8747
786.000000 0.8754 0.8761 0.8769 0.8777 0.8786
791.000000 0.8794 0.8802 0.8803 0.8804 0.8806
796.000000 0.8807 0.8808 0.8809 0.8810 0.8809
801.000000 0.8808 0.8807 0.8806 0.8805 0.8804
806.000000 0.8803 0.8803 0.8802 0.8801 0.8800
811.000000 0.8799 0.8798 0.8797 0.8796 0.8795
816.000000 0.8794 0.8793 0.8792 0.8792 0.8792
821.000000 0.8792 0.8792 0.8792 0.8793 0.8793
826.000000 0.8793 0.8793 0.8793 0.8792 0.8792
831.000000 0.8791 0.8790 0.8790 0.8789 0.8789
836.000000 0.8788 0.8787 0.8787 0.8786 0.8786
841.000000 0.8785 0.8784 0.8784 0.8783 0.8783
846.000000 0.8782 0.8781 0.8780 0.8779 0.8778
851.000000 0.8778 0.8777 0.8776 0.8775 0.8774
856.000000 0.8773 0.8773 0.8772 0.8771 0.8770
861.000000 0.8769 0.8768 0.8766 0.8764 0.8762
866.000000 0.8759 0.8757 0.8755 0.8752 0.8750
871.000000 0.8748 0.8745 0.8743 0.8737 0.8727
876.000000 0.8717 0.8706 0.8694 0.8688 0.8690
881.000000 0.8726 0.8765 0.8783 0.8790 0.8793
886.000000 0.8795 0.8797 0.8796 0.8795 0.8794
891.000000 0.8793 0.8792 0.8791 0.8790 0.8789
896.000000 0.8787 0.8786 0.8783 0.8780 0.8778
901.000000 0.8775 0.8772 0.8769 0.8766 0.8763
906.000000 0.8763 0.8762 0.8761 0.8760 0.8768
911.000000 0.8776 0.8784 0.8789 0.8795 0.8800
916.000000 0.8806 0.8812 0.8819 0.8825 0.8831
921.000000 0.8836 0.8841 0.8846 0.8851 0.8856
926.000000 0.8862 0.8870 0.8877 0.8884 0.8892
931.000000 0.8895 0.8898 0.8900 0.8903 0.8906
936.000000 0.8908 0.8911 0.8914 0.8917 0.8919
941.000000 0.8922 0.8924 0.8927 0.8930 0.8932
946.000000 0.8935 0.8936 0.8936 0.8935 0.8935
951.000000 0.8935 0.8934 0.8934 0.8934 0.8934
956.000000 0.8933 0.8933 0.8933 0.8934 0.8934
961.000000 0.8935 0.8935 0.8936 0.8937 0.8937
966.000000 0.8937 0.8937 0.8938 0.8938 0.8938
971.000000 0.8938 0.8938 0.8938 0.8938 0.8938
976.000000 0.8938 0.8938 0.8938 0.8938 0.8938
981.000000 0.8938 0.8939 0.8939 0.8939 0.8939
986.000000 0.8939 0.8940 0.8940 0.8940 0.8940
991.000000 0.8941 0.8941 0.8941 0.8942 0.8942
996.000000 0.8942 0.8943 0.8943 0.8943 0.8943
1001.000000 0.8943 0.8942 0.8941 0.8940 0.8939
1006.000000 0.8938 0.8937 0.8936 0.8935 0.8934
1011.000000 0.8933 0.8931 0.8930 0.8929 0.8928
1016.000000 0.8927 0.8926 0.8926 0.8926 0.8926
1021.000000 0.8926 0.8926 0.8926 0.8926 0.8926
1026.000000 0.8926 0.8926 0.8926 0.8926 0.8926
1031.000000 0.8927 0.8927 0.8927 0.8927 0.8927
1036.000000 0.8927 0.8927 0.8927 0.8927 0.8927
1041.000000 0.8922 0.8915 0.8905 0.8891 0.8877
1046.000000 0.8864 0.8845 0.8822 0.8798 0.8774
1051.000000 0.8750 0.8726 0.8695 0.8663 0.8631
1056.000000 0.8603 0.8576 0.8556 0.8544 0.8532
1061.000000 0.8520 0.8509 0.8498 0.8468 0.8437
1066.000000 0.8408 0.8501 0.8565 0.8605 0.8565
1071.000000 0.8510 0.8478 0.8480 0.8485 0.8499
1076.000000 0.8519 0.8547 0.8582 0.8617 0.8657
1081.000000 0.8698 0.8746 0.8790 0.8822 0.8846
1086.000000 0.8859 0.8872 0.8882 0.8887 0.8892
1091.000000 0.8894 0.8897 0.8899 0.8901 0.8903
1096.000000 0.8907 0.8910 0.8914 0.8918 0.8921
1101.000000 0.8925 0.8928 0.8931 0.8934 0.8937
1106.000000 0.8940 0.8942 0.8945 0.8948 0.8951
1111.000000 0.8954 0.8956 0.8958 0.8959 0.8961
1116.000000 0.8963 0.8964 0.8966 0.8967 0.8969
1121.000000 0.8971 0.8972 0.8974 0.8975 0.8976
1126.000000 0.8977 0.8978 0.8978 0.8979 0.8980
1131.000000 0.8971 0.8962 0.8952 0.8941 0.8925
1136.000000 0.8909 0.8892 0.8876 0.8860 0.8843
1141.000000 0.8825 0.8808 0.8801 0.8799 0.8796
1146.000000 0.8793 0.8791 0.8789 0.8786 0.8784
1151.000000 0.8782 0.8781 0.8777 0.8788 0.8800
1156.000000 0.8812 0.8837 0.8859 0.8879 0.8898
1161.000000 0.8903 0.8908 0.8909 0.8909 0.8909
1166.000000 0.8908 0.8907 0.8906 0.8905 0.8904
1171.000000 0.8903 0.8902 0.8895 0.8887 0.8878
1176.000000 0.8870 0.8861 0.8851 0.8840 0.8830
1181.000000 0.8825 0.8825 0.8836 0.8851 0.8879
1186.000000 0.8915 0.8943 0.8955 0.8958 0.8961
1191.000000 0.8961 0.8961 0.8960 0.8958 0.8955
1196.000000 0.8952 0.8950 0.8947 0.8943 0.8940
1201.000000 0.8937 0.8934 0.8931 0.8927 0.8922
1206.000000 0.8918 0.8913 0.8908 0.8904 0.8899
1211.000000 0.8894 0.8885 0.8875 0.8864 0.8853
1216.000000 0.8842 0.8831 0.8821 0.8801 0.8781
1221.000000 0.8762 0.8742 0.8719 0.8675 0.8631
1226.000000 0.8567 0.8486 0.8338 0.7902 0.7506
1231.000000 0.7394 0.7309 0.6208 0.4961 0.3714
1236.000000 0.2543 0.1904 0.1264 0.0625 0.0541
1241.000000 0.0555 0.0826 0.1088 0.1118 0.1381
1246.000000 0.1917 0.2454 0.2756 0.2791 0.1333
1251.000000 0.0617 0.0403 0.0265 0.0147 0.0088
1256.000000 0.0054 0.0040 0.0034 0.0030 0.0026
1261.000000 0.0023 0.0021 0.0020 0.0019 0.0018
1266.000000 0.0017 0.0016 0.0015 0.0014 0.0014
1271.000000 0.0014 0.0014 0.0014 0.0014 0.0016
1276.000000 0.0020 0.0025 0.0030 0.0034 0.0040
1281.000000 0.0046 0.0034 0.0057 0.0063 0.0068
1286.000000 0.0074 0.0079 0.0094 0.0728 0.0858
1291.000000 0.0979 0.1108 0.1688 0.2268 0.2848
1296.000000 0.3429 0.4009 0.4589 0.5169 0.5750
1301.000000 0.6330 0.7790 0.8031 0.8150 0.8227
1306.000000 0.8297 0.8354 0.8399 0.8425 0.8452
1311.000000 0.8477 0.8487 0.8498 0.8508 0.8515
1316.000000 0.8520 0.8525 0.8529 0.8532 0.8536
1321.000000 0.8540 0.8546 0.8552 0.8557 0.8567
1326.000000 0.8577 0.8590 0.8603 0.8616 0.8629
1331.000000 0.8642 0.8656 0.8670 0.8676 0.8679
1336.000000 0.8682 0.8682 0.8682 0.8614 0.8543
1341.000000 0.8471 0.8400 0.8329 0.8270 0.8279
1346.000000 0.8286 0.8539 0.8684 0.8710 0.8702
1351.000000 0.8685 0.8665 0.8645 0.8623 0.8609
1356.000000 0.8600 0.8591 0.8585 0.8581 0.8577
1361.000000 0.8572 0.8575 0.8578 0.8582 0.8588
1366.000000 0.8595 0.8601 0.8607 0.8613 0.8615
1371.000000 0.8615 0.8608 0.8598 0.8589 0.8571
1376.000000 0.8552 0.8527 0.8498 0.8469 0.8439
1381.000000 0.8408 0.8397 0.8390 0.8383 0.8385
1386.000000 0.8397 0.8442 0.8498 0.8544 0.8605
1391.000000 0.8639 0.8668 0.8685 0.8702 0.8709
1396.000000 0.8717 0.8723 0.8728 0.8733 0.8737
1401.000000 0.8738 0.8739 0.8740 0.8741 0.8741
1406.000000 0.8742 0.8743 0.8743 0.8744 0.8744
1411.000000 0.8745 0.8745 0.8744 0.8744 0.8744
1416.000000 0.8743 0.8743 0.8743 0.8722 0.8742
1421.000000 0.8740 0.8736 0.8733 0.8730 0.8727
1426.000000 0.8724 0.8720 0.8717 0.8714 0.8711
1431.000000 0.8708 0.8704 0.8701 0.8698 0.8694
1436.000000 0.8690 0.8687 0.8683 0.8679 0.8676
1441.000000 0.8672 0.8668 0.8664 0.8661 0.8657
1446.000000 0.8653 0.8650 0.8645 0.8641 0.8636
1451.000000 0.8631 0.8626 0.8621 0.8617 0.8612
1456.000000 0.8607 0.8602 0.8597 0.8592 0.8588
1461.000000 0.8583 0.8578 0.8573 0.8569 0.8565
1466.000000 0.8560 0.8556 0.8552 0.8548 0.8544
1471.000000 0.8540 0.8535 0.8531 0.8527 0.8523
1476.000000 0.8519 0.8515 0.8511 0.8507 0.8507
1481.000000 0.8507 0.8507 0.8507 0.8507 0.8507
1486.000000 0.8507 0.8507 0.8505 0.8501 0.8496
1491.000000 0.8487 0.8471 0.8414 0.8333 0.8253
1496.000000 0.8173 0.8092 0.8012 0.7978 0.7994
1501.000000 0.8082 0.8170 0.8193 0.8068 0.7925
1506.000000 0.7782 0.7639 0.7497 0.7354 0.7211
1511.000000 0.7069 0.6926 0.6783 0.6640 0.6498
1516.000000 0.6387 0.6295 0.6243 0.6222 0.6210
1521.000000 0.6212 0.6217 0.6225 0.6239 0.6298
1526.000000 0.6475 0.6609 0.6717 0.6863 0.6999
1531.000000 0.7102 0.7226 0.7449 0.7536 0.7590
1536.000000 0.7610 0.7613 0.6331 0.4453 0.2574
1541.000000 0.2272 0.5701 0.8215 0.8222 0.8062
1546.000000 0.7905 0.7747 0.7589 0.7431 0.7274
1551.000000 0.7116 0.6958 0.6803 0.6706 0.6654
1556.000000 0.6632 0.6629 0.6632 0.6670 0.6717
1561.000000 0.6790 0.6875 0.7006 0.7113 0.7205
1566.000000 0.7298 0.7445 0.7583 0.7709 0.7847
1571.000000 0.7983 0.8069 0.8159 0.8264 0.8452
1576.000000 0.8509 0.8563 0.8591 0.8619 0.8642
1581.000000 0.8656 0.8670 0.8684 0.8697 0.8704
1586.000000 0.8712 0.8719 0.8719 0.8719 0.8719
1591.000000 0.8719 0.8719 0.8717 0.8714 0.8711
1596.000000 0.8708 0.8705 0.8702 0.8699 0.8704
1601.000000 0.8694 0.8692 0.8690 0.8688 0.8685
1606.000000 0.8683 0.8681 0.8679 0.8678 0.8677
1611.000000 0.8677 0.8676 0.8676 0.8676 0.8675
1616.000000 0.8675 0.8675 0.8675 0.8675 0.8675
1621.000000 0.8675 0.8675 0.8675 0.8675 0.8675
1626.000000 0.8675 0.8675 0.8676 0.8677 0.8677
1631.000000 0.8678 0.8678 0.8679 0.8680 0.8680
1636.000000 0.8681 0.8682 0.8682 0.8683 0.8683
1641.000000 0.8684 0.8684 0.8684 0.8684 0.8684
1646.000000 0.8684 0.8684 0.8684 0.8685 0.8685
1651.000000 0.8684 0.8681 0.8679 0.8676 0.8673
1656.000000 0.8670 0.8665 0.8657 0.8650 0.8643
1661.000000 0.8635 0.8628 0.8621 0.8613 0.8606
1666.000000 0.8599 0.8590 0.8580 0.8571 0.8562
1671.000000 0.8552 0.8543 0.8534 0.8524 0.8515
1676.000000 0.8504 0.8493 0.8482 0.8471 0.8460
1681.000000 0.8449 0.8438 0.8427 0.8416 0.8405
1686.000000 0.8394 0.8382 0.8370 0.8357 0.8344
1691.000000 0.8330 0.8317 0.8304 0.8291 0.8277
1696.000000 0.8264 0.8251 0.8239 0.8229 0.8220
1701.000000 0.8211 0.8202 0.8192 0.8184 0.8186
1706.000000 0.8190 0.8199 0.8208 0.8215 0.8215
1711.000000 0.8222 0.8216 0.8177 0.8077 0.7977
1716.000000 0.7877 0.7836 0.7834 0.8186 0.8385
1721.000000 0.8359 0.8339 0.8306 0.8278 0.8262
1726.000000 0.8258 0.8266 0.8280 0.8299 0.8320
1731.000000 0.8341 0.8363 0.8385 0.8406 0.8427
1736.000000 0.8448 0.8469 0.8487 0.8504 0.8521
1741.000000 0.8538 0.8554 0.8570 0.8586 0.8601
1746.000000 0.8611 0.8622 0.8632 0.8643 0.8651
1751.000000 0.8657 0.8663 0.8668 0.8674 0.8679
1756.000000 0.8685 0.8689 0.8692 0.8695 0.8698
1761.000000 0.8701 0.8703 0.8706 0.8708 0.8709
1766.000000 0.8710 0.8711 0.8711 0.8712 0.8713
1771.000000 0.8714 0.8715 0.8715 0.8716 0.8717
1776.000000 0.8718 0.8719 0.8720 0.8720 0.8721
1781.000000 0.8720 0.8720 0.8720 0.8720 0.8720
1786.000000 0.8720 0.8719 0.8719 0.8698 0.8719
1791.000000 0.8719 0.8719 0.8718 0.8718 0.8718
1796.000000 0.8718 0.8717 0.8716 0.8715 0.8714
1801.000000 0.8713 0.8711 0.8710 0.8709 0.8708
1806.000000 0.8707 0.8706 0.8705 0.8703 0.8702
1811.000000 0.8701 0.8700 0.8699 0.8699 0.8698
1816.000000 0.8698 0.8697 0.8697 0.8696 0.8695
1821.000000 0.8694 0.8694 0.8693 0.8692 0.8691
1826.000000 0.8690 0.8690 0.8689 0.8688 0.8687
1831.000000 0.8686 0.8685 0.8683 0.8682 0.8680
1836.000000 0.8678 0.8676 0.8675 0.8673 0.8671
1841.000000 0.8670 0.8668 0.8666 0.8664 0.8662
1846.000000 0.8659 0.8656 0.8653 0.8650 0.8647
1851.000000 0.8644 0.8640 0.8637 0.8634 0.8631
1856.000000 0.8627 0.8621 0.8615 0.8609 0.8604
1861.000000 0.8598 0.8592 0.8586 0.8578 0.8570
1866.000000 0.8561 0.8552 0.8543 0.8534 0.8525
1871.000000 0.8516 0.8505 0.8492 0.8478 0.8464
1876.000000 0.8451 0.8437 0.8424 0.8406 0.8386
1881.000000 0.8366 0.8346 0.8323 0.8296 0.8269
1886.000000 0.8242 0.8214 0.8185 0.8157 0.8163
1891.000000 0.8193 0.8223 0.8248 0.8255 0.8238
1896.000000 0.8217 0.8176 0.8149 0.8121 0.8072
1901.000000 0.8016 0.7950 0.7928 0.7928 0.7937
1906.000000 0.7951 0.7965 0.7981 0.7996 0.8005
1911.000000 0.8017 0.7912 0.7856 0.7844 0.7832
1916.000000 0.7857 0.7878 0.7905 0.7931 0.7962
1921.000000 0.7993 0.8024 0.8056 0.8088 0.8122
1926.000000 0.8158 0.8193 0.8220 0.8244 0.8267
1931.000000 0.8291 0.8314 0.8338 0.8361 0.8384
1936.000000 0.8407 0.8430 0.8454 0.8476 0.8496
1941.000000 0.8516 0.8537 0.8556 0.8570 0.8584
1946.000000 0.8598 0.8612 0.8618 0.8624 0.8628
1951.000000 0.8622 0.8615 0.8609 0.8602 0.8594
1956.000000 0.8592 0.8595 0.8598 0.8612 0.8629
1961.000000 0.8654 0.8670 0.8681 0.8690 0.8697
1966.000000 0.8703 0.8706 0.8708 0.8711 0.8713
1971.000000 0.8715 0.8717 0.8719 0.8720 0.8722
1976.000000 0.8724 0.8725 0.8727 0.8730 0.8732
1981.000000 0.8735 0.8737 0.8740 0.8742 0.8745
1986.000000 0.8748 0.8750 0.8752 0.8753 0.8754
1991.000000 0.8756 0.8757 0.8758 0.8760 0.8761
1996.000000 0.8763 0.8764 0.8765 0.8767 0.8769
2001.000000 0.8770 0.8772 0.8773 0.8774 0.8774
2006.000000 0.8775 0.8776 0.8777 0.8778 0.8779
2011.000000 0.8779 0.8780 0.8781 0.8782 0.8783
2016.000000 0.8784 0.8784 0.8785 0.8786 0.8787
2021.000000 0.8787 0.8788 0.8788 0.8788 0.8788
2026.000000 0.8789 0.8789 0.8789 0.8789 0.8790
2031.000000 0.8790 0.8790 0.8790 0.8791 0.8791
2036.000000 0.8792 0.8792 0.8792 0.8792 0.8793
2041.000000 0.8793 0.8793 0.8793 0.8794 0.8794
2046.000000 0.8795 0.8795 0.8795 0.8795 0.8795
2051.000000 0.8794 0.8794 0.8794 0.8794 0.8793
2056.000000 0.8793 0.8792 0.8792 0.8791 0.8791
2061.000000 0.8790 0.8790 0.8790 0.8790 0.8789
2066.000000 0.8789 0.8788 0.8788 0.8787 0.8787
2071.000000 0.8786 0.8786 0.8785 0.8785 0.8785
2076.000000 0.8785 0.8784 0.8784 0.8783 0.8783
2081.000000 0.8782 0.8782 0.8781 0.8781 0.8780
2086.000000 0.8779 0.8778 0.8777 0.8776 0.8775
2091.000000 0.8774 0.8773 0.8772 0.8771 0.8770
2096.000000 0.8769 0.8768 0.8767 0.8766 0.8765
2101.000000 0.8764 0.8763 0.8762 0.8761 0.8760
2106.000000 0.8759 0.8758 0.8757 0.8755 0.8754
2111.000000 0.8752 0.8751 0.8749 0.8747 0.8745
2116.000000 0.8743 0.8741 0.8740 0.8738 0.8736
2121.000000 0.8734 0.8732 0.8730 0.8729 0.8727
2126.000000 0.8725 0.8723 0.8721 0.8711 0.8701
2131.000000 0.8691 0.8682 0.8672 0.8662 0.8645
2136.000000 0.8629 0.8611 0.8594 0.8571 0.8548
2141.000000 0.8523 0.8499 0.8471 0.8443 0.8422
2146.000000 0.8401 0.8382 0.8364 0.8344 0.8324
2151.000000 0.8309 0.8294 0.8288 0.8279 0.8349
2156.000000 0.8415 0.8487 0.8560 0.8613 0.8667
2161.000000 0.8663 0.8669 0.8654 0.8648 0.8636
2166.000000 0.8625 0.8587 0.8549 0.8514 0.8479
2171.000000 0.8443 0.8408 0.8364 0.8320 0.8276
2176.000000 0.8233 0.8192 0.8152 0.8109 0.8067
2181.000000 0.7832 0.7598 0.7124 0.6651 0.6177
2186.000000 0.5704 0.5230 0.4757 0.4283 0.3810
2191.000000 0.3336 0.2863 0.2389 0.1916 0.1811
2196.000000 0.1698 0.2264 0.2822 0.4320 0.5818
2201.000000 0.7158 0.8499 0.8544 0.8590 0.8630
2206.000000 0.8671 0.8690 0.8710 0.8723 0.8736
2211.000000 0.8741 0.8746 0.8750 0.8755 0.8758
2216.000000 0.8761 0.8764 0.8767 0.8769 0.8772
2221.000000 0.8773 0.8775 0.8776 0.8778 0.8780
2226.000000 0.8782 0.8783 0.8785 0.8786 0.8788
2231.000000 0.8789 0.8791 0.8791 0.8791 0.8791
2236.000000 0.8792 0.8792 0.8792 0.8792 0.8793
2241.000000 0.8793 0.8794 0.8794 0.8794 0.8794
2246.000000 0.8795 0.8795 0.8795 0.8795 0.8795
2251.000000 0.8795 0.8795 0.8795 0.8795 0.8795
2256.000000 0.8795 0.8795 0.8795 0.8795 0.8795
2261.000000 0.8794 0.8793 0.8792 0.8791 0.8790
2266.000000 0.8789 0.8788 0.8787 0.8786 0.8785
2271.000000 0.8784 0.8783 0.8782 0.8781 0.8780
2276.000000 0.8779 0.8778 0.8777 0.8776 0.8775
2281.000000 0.8774 0.8777 0.8772 0.8772 0.8771
2286.000000 0.8771 0.8770 0.8769 0.8768 0.8768
2291.000000 0.8767 0.8767 0.8766 0.8766 0.8765
2296.000000 0.8764 0.8763 0.8763 0.8762 0.8762
2301.000000 0.8761 0.8761 0.8760 0.8760 0.8759
2306.000000 0.8759 0.8758 0.8758 0.8757 0.8757
2311.000000 0.8756 0.8756 0.8755 0.8755 0.8755
2316.000000 0.8755 0.8754 0.8754 0.8753 0.8753
2321.000000 0.8752 0.8752 0.8752 0.8752 0.8752
2326.000000 0.8753 0.8753 0.8753 0.8753 0.8754
2331.000000 0.8754 0.8755 0.8755 0.8756 0.8756
2336.000000 0.8757 0.8757 0.8757 0.8757 0.8758
2341.000000 0.8758 0.8759 0.8759 0.8760 0.8760
2346.000000 0.8760 0.8760 0.8760 0.8760 0.8760
2351.000000 0.8760 0.8760 0.8755 0.8750 0.8745
2356.000000 0.8740 0.8734 0.8729 0.8726 0.8723
2361.000000 0.8725 0.8727 0.8733 0.8739 0.8744
2366.000000 0.8750 0.8754 0.8758 0.8762 0.8766
2371.000000 0.8768 0.8771 0.8773 0.8776 0.8778
2376.000000 0.8781 0.8784 0.8787 0.8789 0.8791
2381.000000 0.8792 0.8794 0.8796 0.8798 0.8800
2386.000000 0.8802 0.8803 0.8804 0.8804 0.8804
2391.000000 0.8804 0.8804 0.8804 0.8804 0.8804
2396.000000 0.8804 0.8804 0.8804 0.8803 0.8803
2401.000000 0.8802 0.8801 0.8800 0.8800 0.8799
2406.000000 0.8798 0.8797 0.8797 0.8796 0.8795
2411.000000 0.8794 0.8794 0.8792 0.8791 0.8789
2416.000000 0.8788 0.8787 0.8786 0.8784 0.8783
2421.000000 0.8781 0.8780 0.8778 0.8777 0.8776
2426.000000 0.8775 0.8773 0.8772 0.8770 0.8769
2431.000000 0.8767 0.8766 0.8764 0.8763 0.8761
2436.000000 0.8760 0.8758 0.8757 0.8755 0.8754
2441.000000 0.8752 0.8750 0.8747 0.8745 0.8742
2446.000000 0.8740 0.8737 0.8734 0.8731 0.8729
2451.000000 0.8726 0.8724 0.8721 0.8718 0.8715
2456.000000 0.8713 0.8710 0.8707 0.8704 0.8702
2461.000000 0.8699 0.8696 0.8693 0.8690 0.8687
2466.000000 0.8685 0.8682 0.8679 0.8676 0.8673
2471.000000 0.8670 0.8667 0.8664 0.8662 0.8658
2476.000000 0.8655 0.8650 0.8645 0.8640 0.8635
2481.000000 0.8630 0.8625 0.8620 0.8615 0.8610
2486.000000 0.8605 0.8597 0.8590 0.8579 0.8569
