##TITLE=Methane, dichlorodifluoro-
##JCAMP-DX=4.24
##DATA TYPE=INFRARED SPECTRUM
##CLASS=COBLENTZ
##ORIGIN=DOW CHEMICAL COMPANY
##OWNER=Copyright (C) 1987 by the Coblentz Society
Collection (C) 2018 copyright by the U.S. Secretary of Commerce
on behalf of the United States of America. All rights reserved.
##DATE=1964
##NAMES=dichloro(difluoro)methane
FREON-12
##CAS REGISTRY NO=75-71-8
##MOLFORM=C Cl2 F2
##SOURCE REFERENCE=COBLENTZ NO. 8832
##$NIST SOURCE=COBLENTZ
##$NIST IMAGE=cob8832
##SPECTROMETER/DATA SYSTEM=DOW KBr FOREPRISM-GRATING
##INSTRUMENT PARAMETERS=GRATING CHANGED AT 5.0, 7.5, 15.0 MICRON
##STATE=GAS (100 mmHg, N2 ADDED, TOTAL PRESSURE 600 mmHg)
##PATH LENGTH=5 CM
##SAMPLING PROCEDURE=TRANSMISSION
##RESOLUTION=2
##DATA PROCESSING=DIGITIZED BY COBLENTZ SOCIETY (BATCH II) FROM HARD COPY
##XUNITS=1/CM
##YUNITS=TRANSMITTANCE
##XFACTOR=1.0
##YFACTOR=1
##FIRSTX=453
##LASTX=3798
##FIRSTY=0.8808
##MAXX=3798
##MINX=453
##MAXY=0.9727
##MINY=0
##NPOINTS=3346
##XYDATA=(X++(Y..Y))
453.000000 0.8808 0.8823 0.8835 0.8847 0.8860
458.000000 0.8872 0.8890 0.8907 0.8924 0.8941
463.000000 0.8958 0.8976 0.8993 0.9010 0.9027
468.000000 0.9044 0.9060 0.9077 0.9094 0.9111
473.000000 0.9128 0.9145 0.9161 0.9178 0.9195
478.000000 0.9212 0.9229 0.9245 0.9261 0.9277
483.000000 0.9293 0.9309 0.9325 0.9341 0.9357
488.000000 0.9370 0.9382 0.9393 0.9404 0.9415
493.000000 0.9426 0.9437 0.9448 0.9460 0.9471
498.000000 0.9482 0.9491 0.9493 0.9496 0.9498
503.000000 0.9501 0.9503 0.9514 0.9504 0.9502
508.000000 0.9499 0.9497 0.9494 0.9491 0.9489
513.000000 0.9487 0.9485 0.9484 0.9482 0.9480
518.000000 0.9479 0.9477 0.9476 0.9474 0.9472
523.000000 0.9471 0.9469 0.9466 0.9464 0.9461
528.000000 0.9458 0.9455 0.9452 0.9449 0.9447
533.000000 0.9444 0.9441 0.9438 0.9435 0.9432
538.000000 0.9428 0.9424 0.9420 0.9415 0.9411
543.000000 0.9406 0.9402 0.9398 0.9393 0.9389
548.000000 0.9386 0.9390 0.9393 0.9397 0.9401
553.000000 0.9404 0.9408 0.9415 0.9422 0.9430
558.000000 0.9438 0.9446 0.9455 0.9465 0.9475
563.000000 0.9485 0.9495 0.9505 0.9515 0.9525
568.000000 0.9535 0.9543 0.9551 0.9559 0.9567
573.000000 0.9574 0.9582 0.9589 0.9597 0.9604
578.000000 0.9611 0.9618 0.9625 0.9631 0.9638
583.000000 0.9642 0.9645 0.9649 0.9652 0.9655
588.000000 0.9658 0.9662 0.9665 0.9668 0.9672
593.000000 0.9675 0.9679 0.9682 0.9686 0.9691
598.000000 0.9696 0.9701 0.9706 0.9711 0.9716
603.000000 0.9720 0.9714 0.9727 0.9703 0.9696
608.000000 0.9687 0.9677 0.9667 0.9656 0.9646
613.000000 0.9642 0.9638 0.9634 0.9630 0.9626
618.000000 0.9622 0.9619 0.9617 0.9615 0.9614
623.000000 0.9611 0.9606 0.9602 0.9597 0.9593
628.000000 0.9588 0.9583 0.9577 0.9572 0.9566
633.000000 0.9560 0.9554 0.9548 0.9540 0.9533
638.000000 0.9525 0.9517 0.9498 0.9453 0.9401
643.000000 0.9337 0.9263 0.9201 0.9140 0.9071
648.000000 0.8991 0.8880 0.8578 0.8230 0.7883
653.000000 0.7535 0.7188 0.6840 0.6493 0.6145
658.000000 0.5798 0.5451 0.5103 0.4843 0.4731
663.000000 0.4515 0.4162 0.3727 0.3567 0.3677
668.000000 0.3859 0.4041 0.4213 0.4228 0.4244
673.000000 0.4270 0.4299 0.4329 0.4379 0.4436
678.000000 0.4534 0.4663 0.4845 0.5405 0.5977
683.000000 0.6549 0.7219 0.7323 0.7494 0.7723
688.000000 0.7912 0.8576 0.8747 0.8855 0.8933
693.000000 0.8970 0.8983 0.8993 0.8993 0.8996
698.000000 0.8996 0.8991 0.8986 0.8977 0.8967
703.000000 0.8951 0.8933 0.8916 0.8898 0.8877
708.000000 0.8855 0.8833 0.8812 0.8790 0.8769
713.000000 0.8747 0.8726 0.8710 0.8696 0.8682
718.000000 0.8669 0.8655 0.8646 0.8640 0.8635
723.000000 0.8629 0.8623 0.8618 0.8612 0.8609
728.000000 0.8606 0.8603 0.8601 0.8600 0.8600
733.000000 0.8600 0.8600 0.8595 0.8589 0.8583
738.000000 0.8577 0.8564 0.8551 0.8537 0.8522
743.000000 0.8505 0.8488 0.8471 0.8454 0.8443
748.000000 0.8435 0.8426 0.8422 0.8422 0.8422
753.000000 0.8426 0.8432 0.8438 0.8444 0.8449
758.000000 0.8453 0.8440 0.8422 0.8398 0.8394
763.000000 0.8400 0.8412 0.8426 0.8442 0.8462
768.000000 0.8484 0.8507 0.8520 0.8532 0.8534
773.000000 0.8535 0.8536 0.8537 0.8537 0.8537
778.000000 0.8537 0.8537 0.8537 0.8536 0.8534
783.000000 0.8532 0.8531 0.8529 0.8527 0.8526
788.000000 0.8523 0.8520 0.8518 0.8515 0.8512
793.000000 0.8510 0.8507 0.8504 0.8502 0.8499
798.000000 0.8496 0.8494 0.8493 0.8491 0.8489
803.000000 0.8487 0.8481 0.8484 0.8482 0.8480
808.000000 0.8478 0.8476 0.8473 0.8470 0.8468
813.000000 0.8465 0.8462 0.8459 0.8447 0.8429
818.000000 0.8411 0.8388 0.8364 0.8340 0.8316
823.000000 0.8292 0.8268 0.8231 0.8186 0.8140
828.000000 0.8096 0.8054 0.8021 0.8003 0.7997
833.000000 0.7995 0.7994 0.7992 0.7971 0.7773
838.000000 0.7533 0.7393 0.7393 0.7655 0.7793
843.000000 0.7780 0.7749 0.7646 0.7541 0.7388
848.000000 0.7157 0.7006 0.6471 0.6303 0.6097
853.000000 0.5836 0.5659 0.5304 0.4896 0.4487
858.000000 0.4079 0.3190 0.2866 0.2015 0.1770
863.000000 0.1635 0.1487 0.1295 0.0948 0.0610
868.000000 0.0423 0.0299 0.0227 0.0153 0.0097
873.000000 0.0078 0.0058 0.0051 0.0049 0.0046
878.000000 0.0044 0.0042 0.0039 0.0015 0.0035
883.000000 0.0033 0.0031 0.0031 0.0031 0.0033
888.000000 0.0036 0.0040 0.0049 0.0061 0.0075
893.000000 0.0097 0.0119 0.0139 0.0146 0.0148
898.000000 0.0145 0.0117 0.0086 0.0055 0.0023
903.000000 0.0001 0.0001 0.0001 0.0001 0.0001
908.000000 0.0001 0.0001 0.0001 0.0001 0.0001
913.000000 0.0001 0.0001 0.0001 0.0000 0.0000
918.000000 0.0000 0.0000 0.0000 0.0000 0.0000
923.000000 0.0000 0.0000 0.0000 0.0000 0.0000
928.000000 0.0000 0.0000 0.0002 0.0012 0.0022
933.000000 0.0032 0.0049 0.0104 0.0455 0.1700
938.000000 0.2645 0.4037 0.5533 0.7029 0.7871
943.000000 0.8090 0.8220 0.8274 0.8329 0.8363
948.000000 0.8394 0.8423 0.8441 0.8458 0.8476
953.000000 0.8487 0.8496 0.8505 0.8514 0.8520
958.000000 0.8526 0.8532 0.8537 0.8543 0.8549
963.000000 0.8554 0.8559 0.8563 0.8568 0.8573
968.000000 0.8577 0.8580 0.8582 0.8583 0.8585
973.000000 0.8587 0.8589 0.8590 0.8589 0.8587
978.000000 0.8585 0.8583 0.8581 0.8578 0.8576
983.000000 0.8572 0.8567 0.8565 0.8567 0.8570
988.000000 0.8580 0.8591 0.8597 0.8598 0.8600
993.000000 0.8599 0.8599 0.8598 0.8597 0.8597
998.000000 0.8608 0.8598 0.8598 0.8599 0.8600
1003.000000 0.8600 0.8601 0.8603 0.8604 0.8605
1008.000000 0.8607 0.8608 0.8609 0.8611 0.8612
1013.000000 0.8613 0.8617 0.8622 0.8627 0.8631
1018.000000 0.8636 0.8641 0.8644 0.8641 0.8638
1023.000000 0.8632 0.8624 0.8615 0.8607 0.8600
1028.000000 0.8593 0.8586 0.8580 0.8572 0.8565
1033.000000 0.8558 0.8551 0.8544 0.8538 0.8531
1038.000000 0.8525 0.8518 0.8512 0.8505 0.8498
1043.000000 0.8491 0.8478 0.8455 0.8432 0.8410
1048.000000 0.8374 0.8338 0.8303 0.8254 0.8204
1053.000000 0.8154 0.8081 0.7998 0.7912 0.7785
1058.000000 0.7657 0.7517 0.7367 0.7175 0.6660
1063.000000 0.6332 0.6020 0.5682 0.5326 0.4859
1068.000000 0.4394 0.3928 0.3463 0.2998 0.1990
1073.000000 0.1664 0.1301 0.1122 0.0619 0.0406
1078.000000 0.0287 0.0198 0.0128 0.0068 0.0060
1083.000000 0.0054 0.0052 0.0055 0.0058 0.0058
1088.000000 0.0058 0.0058 0.0058 0.0059 0.0061
1093.000000 0.0063 0.0064 0.0066 0.0068 0.0069
1098.000000 0.0071 0.0055 0.0072 0.0073 0.0074
1103.000000 0.0074 0.0075 0.0077 0.0079 0.0082
1108.000000 0.0084 0.0087 0.0089 0.0092 0.0094
1113.000000 0.0098 0.0101 0.0105 0.0109 0.0114
1118.000000 0.0121 0.0128 0.0136 0.0148 0.0161
1123.000000 0.0174 0.0194 0.0214 0.0236 0.0261
1128.000000 0.0289 0.0330 0.0374 0.0393 0.0393
1133.000000 0.0382 0.0367 0.0318 0.0247 0.0180
1138.000000 0.0127 0.0082 0.0061 0.0042 0.0034
1143.000000 0.0033 0.0032 0.0032 0.0033 0.0034
1148.000000 0.0035 0.0037 0.0038 0.0040 0.0043
1153.000000 0.0047 0.0050 0.0054 0.0058 0.0064
1158.000000 0.0069 0.0072 0.0064 0.0074 0.0075
1163.000000 0.0074 0.0072 0.0070 0.0068 0.0068
1168.000000 0.0068 0.0068 0.0072 0.0077 0.0088
1173.000000 0.0109 0.0149 0.0254 0.0596 0.1168
1178.000000 0.1740 0.2312 0.2884 0.3832 0.4310
1183.000000 0.4787 0.5264 0.5742 0.6219 0.6748
1188.000000 0.7133 0.7350 0.7552 0.7603 0.7636
1193.000000 0.7662 0.7686 0.7708 0.7728 0.7708
1198.000000 0.7669 0.7631 0.7592 0.7564 0.7632
1203.000000 0.7760 0.7841 0.7768 0.7630 0.7633
1208.000000 0.7732 0.7878 0.8001 0.8075 0.8100
1213.000000 0.8109 0.8115 0.8116 0.8116 0.8114
1218.000000 0.8106 0.8097 0.8085 0.8033 0.7972
1223.000000 0.7912 0.7843 0.7777 0.7715 0.7652
1228.000000 0.7589 0.7513 0.7442 0.7383 0.7354
1233.000000 0.7328 0.7296 0.7263 0.7205 0.7132
1238.000000 0.7048 0.6941 0.6709 0.6476 0.6313
1243.000000 0.6321 0.6676 0.7426 0.7504 0.7564
1248.000000 0.7579 0.7579 0.7579 0.7619 0.7685
1253.000000 0.7774 0.7877 0.7974 0.8068 0.8164
1258.000000 0.8261 0.8340 0.8417 0.8456 0.8495
1263.000000 0.8521 0.8543 0.8566 0.8580 0.8594
1268.000000 0.8606 0.8613 0.8619 0.8625 0.8625
1273.000000 0.8648 0.8624 0.8622 0.8620 0.8619
1278.000000 0.8616 0.8614 0.8612 0.8610 0.8608
1283.000000 0.8604 0.8599 0.8594 0.8589 0.8584
1288.000000 0.8579 0.8571 0.8563 0.8556 0.8548
1293.000000 0.8540 0.8532 0.8525 0.8518 0.8511
1298.000000 0.8504 0.8497 0.8490 0.8483 0.8476
1303.000000 0.8469 0.8462 0.8455 0.8448 0.8441
1308.000000 0.8434 0.8426 0.8419 0.8412 0.8405
1313.000000 0.8398 0.8390 0.8382 0.8373 0.8364
1318.000000 0.8356 0.8347 0.8339 0.8330 0.8321
1323.000000 0.8313 0.8304 0.8295 0.8286 0.8276
1328.000000 0.8266 0.8257 0.8247 0.8238 0.8228
1333.000000 0.8224 0.8221 0.8218 0.8215 0.8212
1338.000000 0.8222 0.8238 0.8205 0.8167 0.8129
1343.000000 0.8109 0.8099 0.8092 0.8086 0.8078
1348.000000 0.8071 0.8063 0.8055 0.8047 0.8040
1353.000000 0.8033 0.8027 0.8021 0.8014 0.8006
1358.000000 0.7997 0.7988 0.7978 0.7968 0.7959
1363.000000 0.7949 0.7939 0.7930 0.7916 0.7903
1368.000000 0.7888 0.7860 0.7825 0.7789 0.7755
1373.000000 0.7721 0.7705 0.7689 0.7679 0.7670
1378.000000 0.7662 0.7655 0.7648 0.7640 0.7633
1383.000000 0.7626 0.7628 0.7618 0.7615 0.7615
1388.000000 0.7633 0.7749 0.7821 0.7893 0.7965
1393.000000 0.8037 0.8109 0.8181 0.8253 0.8325
1398.000000 0.8398 0.8454 0.8481 0.8504 0.8510
1403.000000 0.8515 0.8516 0.8517 0.8519 0.8523
1408.000000 0.8527 0.8532 0.8536 0.8531 0.8542
1413.000000 0.8547 0.8552 0.8561 0.8572 0.8579
1418.000000 0.8585 0.8590 0.8584 0.8574 0.8564
1423.000000 0.8557 0.8554 0.8551 0.8551 0.8552
1428.000000 0.8555 0.8559 0.8564 0.8568 0.8572
1433.000000 0.8577 0.8581 0.8585 0.8590 0.8596
1438.000000 0.8603 0.8603 0.8595 0.8578 0.8560
1443.000000 0.8554 0.8550 0.8554 0.8558 0.8561
1448.000000 0.8563 0.8566 0.8568 0.8575 0.8588
1453.000000 0.8609 0.8648 0.8673 0.8683 0.8689
1458.000000 0.8694 0.8653 0.8586 0.8539 0.8509
1463.000000 0.8491 0.8473 0.8465 0.8457 0.8448
1468.000000 0.8440 0.8432 0.8424 0.8417 0.8409
1473.000000 0.8401 0.8388 0.8376 0.8363 0.8342
1478.000000 0.8327 0.8318 0.8319 0.8322 0.8335
1483.000000 0.8347 0.8372 0.8396 0.8415 0.8431
1488.000000 0.8445 0.8460 0.8475 0.8489 0.8505
1493.000000 0.8521 0.8533 0.8544 0.8553 0.8553
1498.000000 0.8553 0.8553 0.8553 0.8543 0.8532
1503.000000 0.8535 0.8577 0.8649 0.8677 0.8674
1508.000000 0.8671 0.8662 0.8617 0.8587 0.8570
1513.000000 0.8563 0.8557 0.8555 0.8557 0.8558
1518.000000 0.8560 0.8563 0.8565 0.8563 0.8554
1523.000000 0.8538 0.8518 0.8497 0.8476 0.8467
1528.000000 0.8485 0.8458 0.8453 0.8449 0.8448
1533.000000 0.8450 0.8454 0.8462 0.8475 0.8495
1538.000000 0.8515 0.8539 0.8562 0.8569 0.8542
1543.000000 0.8517 0.8496 0.8475 0.8455 0.8450
1548.000000 0.8446 0.8442 0.8438 0.8433 0.8428
1553.000000 0.8425 0.8428 0.8437 0.8445 0.8456
1558.000000 0.8470 0.8481 0.8470 0.8391 0.8353
1563.000000 0.8336 0.8332 0.8329 0.8327 0.8326
1568.000000 0.8325 0.8325 0.8326 0.8302 0.8253
1573.000000 0.8216 0.8206 0.8195 0.8190 0.8186
1578.000000 0.8173 0.8140 0.8073 0.7983 0.7935
1583.000000 0.7897 0.7875 0.7848 0.7791 0.7749
1588.000000 0.7731 0.7735 0.7746 0.7764 0.7826
1593.000000 0.7877 0.7896 0.7898 0.7900 0.7914
1598.000000 0.7952 0.8007 0.8124 0.8222 0.8289
1603.000000 0.8338 0.8386 0.8424 0.8443 0.8461
1608.000000 0.8471 0.8481 0.8491 0.8500 0.8504
1613.000000 0.8508 0.8512 0.8516 0.8520 0.8523
1618.000000 0.8524 0.8525 0.8525 0.8526 0.8527
1623.000000 0.8527 0.8528 0.8528 0.8528 0.8528
1628.000000 0.8528 0.8530 0.8532 0.8535 0.8537
1633.000000 0.8540 0.8548 0.8558 0.8566 0.8556
1638.000000 0.8546 0.8536 0.8526 0.8528 0.8537
1643.000000 0.8554 0.8570 0.8582 0.8591 0.8568
1648.000000 0.8544 0.8549 0.8575 0.8607 0.8645
1653.000000 0.8667 0.8643 0.8616 0.8589 0.8561
1658.000000 0.8545 0.8543 0.8544 0.8552 0.8561
1663.000000 0.8569 0.8566 0.8563 0.8568 0.8585
1668.000000 0.8577 0.8571 0.8566 0.8563 0.8559
1673.000000 0.8558 0.8557 0.8556 0.8557 0.8564
1678.000000 0.8574 0.8584 0.8593 0.8607 0.8621
1683.000000 0.8637 0.8646 0.8635 0.8614 0.8601
1688.000000 0.8587 0.8579 0.8576 0.8578 0.8585
1693.000000 0.8601 0.8619 0.8643 0.8658 0.8666
1698.000000 0.8670 0.8672 0.8659 0.8645 0.8632
1703.000000 0.8620 0.8610 0.8601 0.8589 0.8590
1708.000000 0.8591 0.8592 0.8594 0.8595 0.8596
1713.000000 0.8604 0.8613 0.8622 0.8630 0.8633
1718.000000 0.8623 0.8612 0.8585 0.8567 0.8553
1723.000000 0.8546 0.8538 0.8533 0.8529 0.8525
1728.000000 0.8531 0.8539 0.8547 0.8571 0.8595
1733.000000 0.8599 0.8583 0.8568 0.8535 0.8498
1738.000000 0.8468 0.8450 0.8434 0.8419 0.8404
1743.000000 0.8389 0.8374 0.8358 0.8342 0.8326
1748.000000 0.8310 0.8288 0.8266 0.8244 0.8221
1753.000000 0.8183 0.8142 0.8113 0.8090 0.8085
1758.000000 0.8081 0.8084 0.8079 0.8082 0.8087
1763.000000 0.8099 0.8114 0.8137 0.8160 0.8185
1768.000000 0.8215 0.8253 0.8293 0.8300 0.8303
1773.000000 0.8307 0.8313 0.8327 0.8342 0.8357
1778.000000 0.8372 0.8383 0.8388 0.8391 0.8387
1783.000000 0.8373 0.8360 0.8346 0.8333 0.8319
1788.000000 0.8305 0.8292 0.8278 0.8264 0.8251
1793.000000 0.8237 0.8224 0.8215 0.8207 0.8199
1798.000000 0.8190 0.8184 0.8179 0.8176 0.8176
1803.000000 0.8176 0.8176 0.8176 0.8179 0.8183
1808.000000 0.8186 0.8190 0.8193 0.8195 0.8198
1813.000000 0.8200 0.8202 0.8204 0.8206 0.8208
1818.000000 0.8202 0.8196 0.8197 0.8206 0.8215
1823.000000 0.8224 0.8234 0.8244 0.8255 0.8244
1828.000000 0.8251 0.8229 0.8200 0.8175 0.8170
1833.000000 0.8166 0.8164 0.8165 0.8167 0.8172
1838.000000 0.8180 0.8189 0.8209 0.8231 0.8276
1843.000000 0.8279 0.8282 0.8284 0.8290 0.8296
1848.000000 0.8304 0.8315 0.8327 0.8340 0.8354
1853.000000 0.8368 0.8382 0.8397 0.8412 0.8427
1858.000000 0.8440 0.8453 0.8465 0.8478 0.8490
1863.000000 0.8498 0.8502 0.8506 0.8511 0.8511
1868.000000 0.8511 0.8510 0.8508 0.8505 0.8502
1873.000000 0.8500 0.8499 0.8498 0.8497 0.8496
1878.000000 0.8495 0.8495 0.8494 0.8493 0.8492
1883.000000 0.8491 0.8491 0.8490 0.8490 0.8490
1888.000000 0.8491 0.8491 0.8492 0.8492 0.8493
1893.000000 0.8493 0.8493 0.8494 0.8495 0.8496
1898.000000 0.8498 0.8499 0.8500 0.8501 0.8502
1903.000000 0.8503 0.8505 0.8506 0.8506 0.8507
1908.000000 0.8507 0.8507 0.8507 0.8507 0.8507
1913.000000 0.8507 0.8507 0.8507 0.8507 0.8508
1918.000000 0.8508 0.8508 0.8509 0.8509 0.8510
1923.000000 0.8510 0.8510 0.8511 0.8511 0.8512
1928.000000 0.8512 0.8512 0.8512 0.8512 0.8512
1933.000000 0.8512 0.8512 0.8513 0.8513 0.8501
1938.000000 0.8513 0.8513 0.8513 0.8513 0.8513
1943.000000 0.8513 0.8514 0.8514 0.8514 0.8515
1948.000000 0.8515 0.8515 0.8515 0.8516 0.8516
1953.000000 0.8516 0.8517 0.8517 0.8517 0.8517
1958.000000 0.8518 0.8518 0.8518 0.8519 0.8520
1963.000000 0.8520 0.8521 0.8522 0.8522 0.8523
1968.000000 0.8524 0.8524 0.8525 0.8526 0.8526
1973.000000 0.8527 0.8527 0.8527 0.8527 0.8526
1978.000000 0.8526 0.8526 0.8526 0.8526 0.8526
1983.000000 0.8525 0.8525 0.8525 0.8525 0.8525
1988.000000 0.8524 0.8524 0.8524 0.8525 0.8525
1993.000000 0.8525 0.8525 0.8525 0.8525 0.8525
1998.000000 0.8525 0.8525 0.8525 0.8525 0.8526
2003.000000 0.8526 0.8527 0.8527 0.8528 0.8528
2008.000000 0.8529 0.8529 0.8529 0.8529 0.8530
2013.000000 0.8530 0.8531 0.8531 0.8532 0.8532
2018.000000 0.8532 0.8532 0.8533 0.8533 0.8534
2023.000000 0.8534 0.8535 0.8535 0.8535 0.8535
2028.000000 0.8536 0.8536 0.8536 0.8536 0.8537
2033.000000 0.8537 0.8537 0.8537 0.8538 0.8538
2038.000000 0.8538 0.8538 0.8538 0.8538 0.8538
2043.000000 0.8538 0.8538 0.8537 0.8537 0.8537
2048.000000 0.8537 0.8537 0.8537 0.8536 0.8536
2053.000000 0.8536 0.8536 0.8536 0.8536 0.8536
2058.000000 0.8536 0.8535 0.8535 0.8535 0.8536
2063.000000 0.8537 0.8538 0.8538 0.8539 0.8539
2068.000000 0.8540 0.8540 0.8541 0.8542 0.8543
2073.000000 0.8543 0.8544 0.8544 0.8544 0.8544
2078.000000 0.8544 0.8544 0.8544 0.8544 0.8544
2083.000000 0.8544 0.8544 0.8544 0.8544 0.8544
2088.000000 0.8544 0.8544 0.8544 0.8544 0.8544
2093.000000 0.8544 0.8544 0.8544 0.8544 0.8544
2098.000000 0.8545 0.8545 0.8545 0.8544 0.8544
2103.000000 0.8544 0.8544 0.8544 0.8544 0.8543
2108.000000 0.8543 0.8543 0.8543 0.8543 0.8543
2113.000000 0.8542 0.8542 0.8542 0.8542 0.8542
2118.000000 0.8542 0.8541 0.8541 0.8540 0.8540
2123.000000 0.8539 0.8538 0.8537 0.8537 0.8536
2128.000000 0.8536 0.8535 0.8534 0.8533 0.8533
2133.000000 0.8532 0.8532 0.8531 0.8530 0.8530
2138.000000 0.8530 0.8529 0.8529 0.8528 0.8528
2143.000000 0.8527 0.8527 0.8526 0.8526 0.8525
2148.000000 0.8525 0.8524 0.8524 0.8522 0.8521
2153.000000 0.8518 0.8515 0.8512 0.8509 0.8506
2158.000000 0.8503 0.8500 0.8497 0.8491 0.8486
2163.000000 0.8475 0.8464 0.8451 0.8438 0.8421
2168.000000 0.8404 0.8384 0.8364 0.8336 0.8308
2173.000000 0.8280 0.8253 0.8227 0.8201 0.8172
2178.000000 0.8143 0.8107 0.8072 0.8039 0.8007
2183.000000 0.7983 0.7960 0.7936 0.7913 0.7874
2188.000000 0.7836 0.7764 0.7692 0.7624 0.7557
2193.000000 0.7528 0.7500 0.7492 0.7481 0.7484
2198.000000 0.7483 0.7489 0.7496 0.7529 0.7563
2203.000000 0.7581 0.7600 0.7613 0.7627 0.7643
2208.000000 0.7660 0.7731 0.7802 0.7943 0.8085
2213.000000 0.8096 0.8107 0.8108 0.8109 0.8109
2218.000000 0.8110 0.8104 0.8099 0.8091 0.8084
2223.000000 0.8071 0.8059 0.8044 0.8030 0.8005
2228.000000 0.7980 0.7899 0.7818 0.7737 0.7657
2233.000000 0.7576 0.7495 0.7414 0.7333 0.7252
2238.000000 0.7171 0.7090 0.7010 0.6936 0.6863
2243.000000 0.6831 0.6799 0.6774 0.6750 0.6726
2248.000000 0.6702 0.6450 0.6199 0.6076 0.5954
2253.000000 0.5958 0.5962 0.6014 0.5957 0.6551
2258.000000 0.7037 0.7304 0.7571 0.7644 0.7717
2263.000000 0.7774 0.7832 0.7922 0.8012 0.8102
2268.000000 0.8192 0.8242 0.8293 0.8296 0.8299
2273.000000 0.8298 0.8297 0.8296 0.8296 0.8296
2278.000000 0.8296 0.8298 0.8300 0.8308 0.8316
2283.000000 0.8325 0.8335 0.8361 0.8388 0.8388
2288.000000 0.8354 0.8388 0.8388 0.8386 0.8385
2293.000000 0.8381 0.8378 0.8357 0.8337 0.8296
2298.000000 0.8256 0.8223 0.8191 0.8154 0.8118
2303.000000 0.8070 0.8022 0.7952 0.7882 0.7804
2308.000000 0.7726 0.7696 0.7667 0.7667 0.7668
2313.000000 0.7671 0.7674 0.7680 0.7675 0.7772
2318.000000 0.7858 0.7895 0.7932 0.7978 0.8024
2323.000000 0.8057 0.8091 0.8119 0.8147 0.8226
2328.000000 0.8306 0.8403 0.8501 0.8546 0.8591
2333.000000 0.8611 0.8631 0.8643 0.8656 0.8665
2338.000000 0.8675 0.8684 0.8693 0.8698 0.8704
2343.000000 0.8708 0.8712 0.8713 0.8715 0.8716
2348.000000 0.8718 0.8719 0.8721 0.8726 0.8732
2353.000000 0.8737 0.8742 0.8753 0.8764 0.8775
2358.000000 0.8786 0.8795 0.8804 0.8811 0.8818
2363.000000 0.8822 0.8826 0.8825 0.8824 0.8820
2368.000000 0.8816 0.8805 0.8794 0.8773 0.8753
2373.000000 0.8738 0.8723 0.8710 0.8698 0.8687
2378.000000 0.8677 0.8666 0.8656 0.8647 0.8639
2383.000000 0.8633 0.8627 0.8621 0.8615 0.8612
2388.000000 0.8610 0.8608 0.8607 0.8605 0.8603
2393.000000 0.8601 0.8600 0.8599 0.8598 0.8597
2398.000000 0.8597 0.8597 0.8597 0.8596 0.8596
2403.000000 0.8596 0.8596 0.8595 0.8595 0.8594
2408.000000 0.8593 0.8592 0.8592 0.8591 0.8591
2413.000000 0.8590 0.8589 0.8588 0.8588 0.8588
2418.000000 0.8588 0.8588 0.8588 0.8588 0.8588
2423.000000 0.8588 0.8588 0.8588 0.8588 0.8588
2428.000000 0.8588 0.8588 0.8588 0.8588 0.8588
2433.000000 0.8588 0.8588 0.8588 0.8589 0.8589
2438.000000 0.8589 0.8589 0.8589 0.8589 0.8589
2443.000000 0.8589 0.8590 0.8590 0.8590 0.8590
2448.000000 0.8591 0.8591 0.8591 0.8591 0.8591
2453.000000 0.8591 0.8592 0.8592 0.8592 0.8592
2458.000000 0.8593 0.8593 0.8593 0.8593 0.8593
2463.000000 0.8593 0.8593 0.8593 0.8593 0.8593
2468.000000 0.8594 0.8594 0.8594 0.8594 0.8594
2473.000000 0.8594 0.8594 0.8594 0.8594 0.8594
2478.000000 0.8594 0.8594 0.8594 0.8594 0.8594
