##TITLE=Methane, chlorotrifluoro-
##JCAMP-DX=4.24
##DATA TYPE=INFRARED SPECTRUM
##CLASS=COBLENTZ
##ORIGIN=DOW CHEMICAL COMPANY
##OWNER=Copyright (C) 1987 by the Coblentz Society
Collection (C) 2018 copyright by the U.S. Secretary of Commerce
on behalf of the United States of America. All rights reserved.
##DATE=1964
##NAMES=chloro(trifluoro)methane
FREON-13
##CAS REGISTRY NO=75-72-9
##MOLFORM=C Cl F3
##SOURCE REFERENCE=COBLENTZ NO. 8825
##$NIST SOURCE=COBLENTZ
##$NIST IMAGE=cob8825
##SPECTROMETER/DATA SYSTEM=DOW KBr FOREPRISM-GRATING
##INSTRUMENT PARAMETERS=GRATING CHANGED AT 5.0, 7.5, 15.0 MICRON
##STATE=GAS (50 mmHg, N2 ADDED, TOTAL PRESSURE 600 mmHg)
##PATH LENGTH=5 CM
##SAMPLING PROCEDURE=TRANSMISSION
##RESOLUTION=2
##DATA PROCESSING=DIGITIZED BY COBLENTZ SOCIETY (BATCH II) FROM HARD COPY
##XUNITS=1/CM
##YUNITS=TRANSMITTANCE
##XFACTOR=1.0
##YFACTOR=1
##FIRSTX=460
##LASTX=3796
##FIRSTY=0.8492
##MAXX=3796
##MINX=460
##MAXY=0.9186
##MINY=0.0049
##NPOINTS=3337
##XYDATA=(X++(Y..Y))
460.000000 0.8492 0.8507 0.8519 0.8531 0.8543
465.000000 0.8555 0.8567 0.8579 0.8590 0.8602
470.000000 0.8613 0.8624 0.8636 0.8647 0.8659
475.000000 0.8670 0.8680 0.8690 0.8700 0.8709
480.000000 0.8719 0.8729 0.8739 0.8749 0.8759
485.000000 0.8769 0.8778 0.8788 0.8798 0.8806
490.000000 0.8814 0.8822 0.8830 0.8838 0.8846
495.000000 0.8854 0.8862 0.8863 0.8878 0.8884
500.000000 0.8888 0.8892 0.8895 0.8899 0.8903
505.000000 0.8906 0.8910 0.8914 0.8913 0.8910
510.000000 0.8908 0.8906 0.8903 0.8901 0.8897
515.000000 0.8892 0.8886 0.8881 0.8876 0.8871
520.000000 0.8865 0.8860 0.8855 0.8850 0.8844
525.000000 0.8839 0.8833 0.8827 0.8820 0.8814
530.000000 0.8808 0.8802 0.8795 0.8789 0.8783
535.000000 0.8771 0.8759 0.8747 0.8735 0.8723
540.000000 0.8711 0.8699 0.8687 0.8678 0.8668
545.000000 0.8658 0.8648 0.8638 0.8628 0.8618
550.000000 0.8608 0.8598 0.8594 0.8580 0.8594
555.000000 0.8597 0.8601 0.8605 0.8609 0.8613
560.000000 0.8618 0.8626 0.8635 0.8643 0.8651
565.000000 0.8659 0.8667 0.8676 0.8685 0.8694
570.000000 0.8703 0.8712 0.8721 0.8730 0.8739
575.000000 0.8748 0.8757 0.8766 0.8775 0.8786
580.000000 0.8797 0.8807 0.8818 0.8829 0.8840
585.000000 0.8850 0.8861 0.8872 0.8883 0.8894
590.000000 0.8904 0.8910 0.8915 0.8919 0.8924
595.000000 0.8929 0.8933 0.8938 0.8943 0.8946
600.000000 0.8948 0.8950 0.8951 0.8953 0.8953
605.000000 0.8950 0.8947 0.8944 0.8942 0.8939
610.000000 0.8936 0.8933 0.8931 0.8928 0.8926
615.000000 0.8924 0.8922 0.8920 0.8918 0.8916
620.000000 0.8914 0.8912 0.8910 0.8907 0.8907
625.000000 0.8909 0.8911 0.8913 0.8914 0.8916
630.000000 0.8918 0.8920 0.8922 0.8924 0.8926
635.000000 0.8929 0.8938 0.8947 0.8956 0.8964
640.000000 0.8973 0.8982 0.8991 0.9000 0.9003
645.000000 0.9005 0.9007 0.9009 0.9011 0.9013
650.000000 0.9013 0.9012 0.9010 0.9009 0.9007
655.000000 0.9034 0.9004 0.9002 0.9000 0.8997
660.000000 0.8995 0.8992 0.8989 0.9015 0.9052
665.000000 0.9096 0.9158 0.9186 0.9182 0.9177
670.000000 0.9140 0.9087 0.9058 0.9048 0.9039
675.000000 0.9031 0.9020 0.9008 0.8994 0.8980
680.000000 0.8965 0.8951 0.8939 0.8927 0.8915
685.000000 0.8903 0.8892 0.8883 0.8874 0.8865
690.000000 0.8856 0.8846 0.8837 0.8828 0.8819
695.000000 0.8810 0.8800 0.8791 0.8781 0.8771
700.000000 0.8762 0.8752 0.8743 0.8733 0.8725
705.000000 0.8718 0.8711 0.8704 0.8697 0.8690
710.000000 0.8683 0.8676 0.8669 0.8662 0.8656
715.000000 0.8650 0.8645 0.8639 0.8634 0.8629
720.000000 0.8623 0.8618 0.8613 0.8607 0.8603
725.000000 0.8600 0.8596 0.8593 0.8589 0.8586
730.000000 0.8582 0.8579 0.8575 0.8572 0.8568
735.000000 0.8565 0.8561 0.8558 0.8553 0.8548
740.000000 0.8542 0.8537 0.8532 0.8527 0.8522
745.000000 0.8517 0.8510 0.8502 0.8494 0.8486
750.000000 0.8478 0.8470 0.8462 0.8452 0.8428
755.000000 0.8403 0.8379 0.8257 0.8133 0.8008
760.000000 0.7884 0.7759 0.7635 0.7510 0.7386
765.000000 0.7261 0.7137 0.7012 0.6888 0.6763
770.000000 0.6639 0.6538 0.6508 0.6520 0.6587
775.000000 0.6729 0.6871 0.7054 0.7041 0.6367
780.000000 0.5387 0.4407 0.3834 0.7697 0.7478
785.000000 0.7230 0.6981 0.6733 0.6484 0.6235
790.000000 0.6074 0.6078 0.6263 0.6534 0.6805
795.000000 0.7077 0.7348 0.7619 0.7890 0.8150
800.000000 0.8261 0.8360 0.8396 0.8413 0.8430
805.000000 0.8439 0.8449 0.8458 0.8463 0.8466
810.000000 0.8468 0.8470 0.8470 0.8470 0.8471
815.000000 0.8471 0.8471 0.8471 0.8471 0.8471
820.000000 0.8471 0.8471 0.8472 0.8472 0.8472
825.000000 0.8472 0.8472 0.8472 0.8472 0.8472
830.000000 0.8473 0.8473 0.8473 0.8473 0.8473
835.000000 0.8473 0.8473 0.8474 0.8474 0.8474
840.000000 0.8474 0.8474 0.8474 0.8474 0.8474
845.000000 0.8475 0.8475 0.8475 0.8475 0.8475
850.000000 0.8475 0.8475 0.8475 0.8476 0.8476
855.000000 0.8476 0.8476 0.8476 0.8476 0.8476
860.000000 0.8476 0.8477 0.8477 0.8477 0.8477
865.000000 0.8477 0.8477 0.8477 0.8477 0.8477
870.000000 0.8477 0.8476 0.8476 0.8475 0.8475
875.000000 0.8474 0.8472 0.8470 0.8468 0.8466
880.000000 0.8464 0.8462 0.8460 0.8457 0.8454
885.000000 0.8450 0.8445 0.8441 0.8437 0.8432
890.000000 0.8428 0.8423 0.8421 0.8420 0.8419
895.000000 0.8418 0.8416 0.8415 0.8414 0.8413
900.000000 0.8413 0.8415 0.8418 0.8420 0.8423
905.000000 0.8425 0.8427 0.8430 0.8432 0.8436
910.000000 0.8439 0.8443 0.8446 0.8450 0.8453
915.000000 0.8457 0.8460 0.8464 0.8467 0.8471
920.000000 0.8453 0.8473 0.8473 0.8473 0.8473
925.000000 0.8473 0.8473 0.8473 0.8474 0.8474
930.000000 0.8474 0.8472 0.8470 0.8468 0.8465
935.000000 0.8463 0.8461 0.8459 0.8457 0.8454
940.000000 0.8452 0.8453 0.8454 0.8456 0.8457
945.000000 0.8458 0.8460 0.8461 0.8462 0.8464
950.000000 0.8466 0.8474 0.8482 0.8491 0.8499
955.000000 0.8507 0.8515 0.8517 0.8519 0.8520
960.000000 0.8521 0.8523 0.8524 0.8526 0.8527
965.000000 0.8529 0.8530 0.8531 0.8533 0.8534
970.000000 0.8534 0.8535 0.8536 0.8537 0.8537
975.000000 0.8538 0.8539 0.8540 0.8540 0.8541
980.000000 0.8542 0.8543 0.8543 0.8544 0.8544
985.000000 0.8545 0.8546 0.8546 0.8547 0.8547
990.000000 0.8548 0.8549 0.8549 0.8550 0.8550
995.000000 0.8551 0.8552 0.8552 0.8554 0.8556
1000.000000 0.8558 0.8560 0.8561 0.8563 0.8565
1005.000000 0.8567 0.8568 0.8570 0.8572 0.8574
1010.000000 0.8576 0.8577 0.8579 0.8581 0.8583
1015.000000 0.8584 0.8586 0.8586 0.8587 0.8588
1020.000000 0.8589 0.8589 0.8590 0.8582 0.8574
1025.000000 0.8565 0.8558 0.8554 0.8550 0.8546
1030.000000 0.8541 0.8537 0.8533 0.8530 0.8527
1035.000000 0.8523 0.8520 0.8549 0.8513 0.8510
1040.000000 0.8507 0.8503 0.8500 0.8497 0.8494
1045.000000 0.8490 0.8487 0.8484 0.8481 0.8478
1050.000000 0.8475 0.8463 0.8448 0.8434 0.8419
1055.000000 0.8400 0.8380 0.8360 0.8340 0.8319
1060.000000 0.8299 0.8278 0.8257 0.8236 0.8214
1065.000000 0.8193 0.8171 0.8145 0.8119 0.8093
1070.000000 0.8061 0.7975 0.7738 0.7523 0.7309
1075.000000 0.7147 0.7124 0.7098 0.6631 0.6337
1080.000000 0.5928 0.5111 0.4719 0.4327 0.3935
1085.000000 0.3542 0.3150 0.2758 0.1409 0.0988
1090.000000 0.0719 0.0644 0.0569 0.0513 0.0460
1095.000000 0.0429 0.0402 0.0378 0.0380 0.0369
1100.000000 0.0327 0.0216 0.0127 0.0107 0.0114
1105.000000 0.1884 0.0082 0.1775 0.1403 0.1031
1110.000000 0.0659 0.0287 0.0118 0.0087 0.0085
1115.000000 0.0088 0.0075 0.0123 0.0160 0.0292
1120.000000 0.0436 0.0729 0.1397 0.3764 0.6130
1125.000000 0.6443 0.6287 0.6084 0.5978 0.5994
1130.000000 0.6041 0.6136 0.6223 0.6314 0.6651
1135.000000 0.7089 0.7339 0.7489 0.7833 0.8055
1140.000000 0.8196 0.8285 0.8362 0.8422 0.8465
1145.000000 0.8487 0.8508 0.8521 0.8533 0.8544
1150.000000 0.8553 0.8555 0.8558 0.8560 0.8557
1155.000000 0.8565 0.8545 0.8539 0.8529 0.8517
1160.000000 0.8502 0.8482 0.8463 0.8438 0.8402
1165.000000 0.8366 0.8314 0.8262 0.8212 0.8161
1170.000000 0.8110 0.8060 0.7988 0.7904 0.7820
1175.000000 0.7744 0.7668 0.7605 0.7583 0.7580
1180.000000 0.7587 0.7607 0.7639 0.7670 0.7690
1185.000000 0.7692 0.7688 0.7678 0.7622 0.7331
1190.000000 0.6923 0.6515 0.6108 0.5700 0.5085
1195.000000 0.4565 0.4045 0.3525 0.3005 0.2485
1200.000000 0.1965 0.1362 0.0628 0.0467 0.0288
1205.000000 0.0150 0.0105 0.0083 0.0066 0.0060
1210.000000 0.0058 0.0058 0.0061 0.0064 0.0049
1215.000000 0.0070 0.0077 0.0083 0.0092 0.0108
1220.000000 0.0142 0.0196 0.0299 0.0410 0.0488
1225.000000 0.0700 0.1163 0.1547 0.1742 0.2218
1230.000000 0.2911 0.3605 0.4299 0.4992 0.5686
1235.000000 0.6601 0.6803 0.7356 0.7563 0.7673
1240.000000 0.7772 0.7969 0.7999 0.8011 0.8011
1245.000000 0.8005 0.7999 0.7992 0.7985 0.7978
1250.000000 0.8071 0.8147 0.8154 0.8143 0.8104
1255.000000 0.8066 0.8022 0.7980 0.7983 0.7990
1260.000000 0.8068 0.8292 0.8300 0.8302 0.8304
1265.000000 0.8306 0.8309 0.8318 0.8326 0.8336
1270.000000 0.8350 0.8364 0.8398 0.8436 0.8475
1275.000000 0.8513 0.8516 0.8522 0.8521 0.8522
1280.000000 0.8520 0.8519 0.8517 0.8515 0.8514
1285.000000 0.8512 0.8508 0.8503 0.8498 0.8493
1290.000000 0.8489 0.8484 0.8479 0.8474 0.8471
1295.000000 0.8467 0.8464 0.8461 0.8457 0.8454
1300.000000 0.8450 0.8447 0.8444 0.8440 0.8435
1305.000000 0.8429 0.8423 0.8418 0.8412 0.8407
1310.000000 0.8401 0.8396 0.8385 0.8374 0.8364
1315.000000 0.8353 0.8342 0.8331 0.8320 0.8310
1320.000000 0.8299 0.8288 0.8278 0.8267 0.8257
1325.000000 0.8246 0.8233 0.8220 0.8207 0.8195
1330.000000 0.8182 0.8172 0.8163 0.8154 0.8131
1335.000000 0.8067 0.8003 0.7940 0.7911 0.7930
1340.000000 0.8002 0.8093 0.8112 0.8125 0.8141
1345.000000 0.8158 0.8178 0.8197 0.8213 0.8226
1350.000000 0.8239 0.8252 0.8265 0.8277 0.8290
1355.000000 0.8303 0.8316 0.8329 0.8341 0.8350
1360.000000 0.8358 0.8367 0.8375 0.8382 0.8389
1365.000000 0.8396 0.8403 0.8410 0.8418 0.8425
1370.000000 0.8432 0.8440 0.8447 0.8454 0.8456
1375.000000 0.8453 0.8450 0.8447 0.8444 0.8439
1380.000000 0.8432 0.8424 0.8417 0.8409 0.8409
1385.000000 0.8422 0.8433 0.8444 0.8455 0.8466
1390.000000 0.8476 0.8487 0.8499 0.8511 0.8523
1395.000000 0.8534 0.8542 0.8544 0.8545 0.8543
1400.000000 0.8541 0.8539 0.8536 0.8531 0.8527
1405.000000 0.8522 0.8517 0.8513 0.8508 0.8507
1410.000000 0.8505 0.8510 0.8519 0.8529 0.8539
1415.000000 0.8549 0.8559 0.8566 0.8573 0.8580
1420.000000 0.8579 0.8571 0.8564 0.8557 0.8551
1425.000000 0.8544 0.8537 0.8530 0.8524 0.8517
1430.000000 0.8510 0.8503 0.8495 0.8488 0.8480
1435.000000 0.8473 0.8465 0.8458 0.8453 0.8450
1440.000000 0.8447 0.8446 0.8446 0.8446 0.8445
1445.000000 0.8445 0.8445 0.8444 0.8444 0.8447
1450.000000 0.8452 0.8457 0.8463 0.8475 0.8488
1455.000000 0.8501 0.8508 0.8511 0.8514 0.8509
1460.000000 0.8500 0.8492 0.8484 0.8481 0.8478
1465.000000 0.8478 0.8480 0.8482 0.8484 0.8486
1470.000000 0.8488 0.8489 0.8489 0.8489 0.8486
1475.000000 0.8479 0.8473 0.8465 0.8455 0.8445
1480.000000 0.8444 0.8444 0.8444 0.8445 0.8446
1485.000000 0.8448 0.8449 0.8451 0.8452 0.8457
1490.000000 0.8462 0.8467 0.8472 0.8478 0.8483
1495.000000 0.8488 0.8493 0.8498 0.8503 0.8506
1500.000000 0.8508 0.8510 0.8511 0.8515 0.8522
1505.000000 0.8528 0.8534 0.8532 0.8526 0.8520
1510.000000 0.8514 0.8507 0.8501 0.8495 0.8498
1515.000000 0.8502 0.8506 0.8510 0.8514 0.8518
1520.000000 0.8522 0.8520 0.8518 0.8515 0.8512
1525.000000 0.8510 0.8508 0.8509 0.8510 0.8511
1530.000000 0.8512 0.8513 0.8515 0.8517 0.8519
1535.000000 0.8521 0.8549 0.8578 0.8595 0.8581
1540.000000 0.8568 0.8554 0.8541 0.8527 0.8516
1545.000000 0.8509 0.8502 0.8496 0.8489 0.8482
1550.000000 0.8476 0.8482 0.8487 0.8492 0.8504
1555.000000 0.8517 0.8523 0.8528 0.8520 0.8467
1560.000000 0.8417 0.8386 0.8362 0.8362 0.8370
1565.000000 0.8378 0.8385 0.8392 0.8401 0.8407
1570.000000 0.8413 0.8418 0.8424 0.8425 0.8425
1575.000000 0.8425 0.8416 0.8404 0.8392 0.8381
1580.000000 0.8371 0.8368 0.8368 0.8368 0.8369
1585.000000 0.8371 0.8374 0.8376 0.8379 0.8381
1590.000000 0.8384 0.8386 0.8389 0.8391 0.8394
1595.000000 0.8396 0.8399 0.8401 0.8404 0.8408
1600.000000 0.8411 0.8414 0.8417 0.8420 0.8423
1605.000000 0.8425 0.8428 0.8430 0.8433 0.8435
1610.000000 0.8438 0.8440 0.8443 0.8445 0.8447
1615.000000 0.8449 0.8451 0.8453 0.8455 0.8457
1620.000000 0.8459 0.8461 0.8465 0.8467 0.8469
1625.000000 0.8471 0.8473 0.8475 0.8477 0.8479
1630.000000 0.8485 0.8496 0.8507 0.8523 0.8530
1635.000000 0.8520 0.8509 0.8495 0.8490 0.8485
1640.000000 0.8481 0.8489 0.8497 0.8504 0.8511
1645.000000 0.8515 0.8518 0.8522 0.8527 0.8532
1650.000000 0.8543 0.8554 0.8534 0.8516 0.8500
1655.000000 0.8483 0.8477 0.8476 0.8475 0.8475
1660.000000 0.8476 0.8477 0.8478 0.8481 0.8485
1665.000000 0.8490 0.8494 0.8499 0.8503 0.8509
1670.000000 0.8515 0.8521 0.8527 0.8533 0.8542
1675.000000 0.8552 0.8562 0.8572 0.8591 0.8607
1680.000000 0.8595 0.8584 0.8576 0.8567 0.8558
1685.000000 0.8544 0.8539 0.8548 0.8557 0.8566
1690.000000 0.8576 0.8594 0.8618 0.8626 0.8626
1695.000000 0.8625 0.8624 0.8623 0.8621 0.8616
1700.000000 0.8610 0.8604 0.8597 0.8591 0.8584
1705.000000 0.8577 0.8572 0.8568 0.8563 0.8559
1710.000000 0.8561 0.8576 0.8596 0.8603 0.8605
1715.000000 0.8600 0.8594 0.8580 0.8559 0.8547
1720.000000 0.8545 0.8547 0.8551 0.8556 0.8560
1725.000000 0.8569 0.8579 0.8591 0.8603 0.8614
1730.000000 0.8622 0.8624 0.8606 0.8588 0.8567
1735.000000 0.8542 0.8543 0.8547 0.8552 0.8558
1740.000000 0.8563 0.8566 0.8568 0.8571 0.8571
1745.000000 0.8571 0.8568 0.8564 0.8561 0.8549
1750.000000 0.8534 0.8520 0.8510 0.8501 0.8497
1755.000000 0.8493 0.8490 0.8488 0.8486 0.8483
1760.000000 0.8481 0.8479 0.8477 0.8475 0.8473
1765.000000 0.8472 0.8470 0.8468 0.8466 0.8464
1770.000000 0.8462 0.8461 0.8461 0.8460 0.8459
1775.000000 0.8458 0.8457 0.8456 0.8456 0.8456
1780.000000 0.8457 0.8457 0.8458 0.8459 0.8460
1785.000000 0.8461 0.8461 0.8462 0.8463 0.8464
1790.000000 0.8465 0.8466 0.8466 0.8467 0.8468
1795.000000 0.8469 0.8469 0.8470 0.8471 0.8472
1800.000000 0.8472 0.8473 0.8474 0.8475 0.8476
1805.000000 0.8476 0.8477 0.8478 0.8478 0.8478
1810.000000 0.8477 0.8477 0.8476 0.8476 0.8475
1815.000000 0.8474 0.8474 0.8473 0.8473 0.8472
1820.000000 0.8472 0.8471 0.8471 0.8470 0.8470
1825.000000 0.8469 0.8470 0.8471 0.8472 0.8473
1830.000000 0.8474 0.8478 0.8482 0.8486 0.8491
1835.000000 0.8498 0.8504 0.8509 0.8515 0.8520
1840.000000 0.8525 0.8520 0.8512 0.8505 0.8498
1845.000000 0.8491 0.8486 0.8482 0.8478 0.8474
1850.000000 0.8471 0.8469 0.8467 0.8464 0.8462
1855.000000 0.8459 0.8456 0.8453 0.8450 0.8450
1860.000000 0.8449 0.8449 0.8449 0.8448 0.8448
1865.000000 0.8447 0.8446 0.8442 0.8437 0.8428
1870.000000 0.8416 0.8403 0.8391 0.8384 0.8377
1875.000000 0.8370 0.8363 0.8357 0.8350 0.8344
1880.000000 0.8338 0.8332 0.8332 0.8347 0.8364
1885.000000 0.8381 0.8395 0.8392 0.8389 0.8386
1890.000000 0.8382 0.8378 0.8374 0.8370 0.8377
1895.000000 0.8386 0.8397 0.8410 0.8423 0.8434
1900.000000 0.8443 0.8452 0.8457 0.8463 0.8468
1905.000000 0.8474 0.8479 0.8483 0.8484 0.8485
1910.000000 0.8486 0.8487 0.8487 0.8488 0.8489
1915.000000 0.8489 0.8490 0.8490 0.8491 0.8491
1920.000000 0.8492 0.8493 0.8493 0.8492 0.8492
1925.000000 0.8491 0.8491 0.8490 0.8490 0.8489
1930.000000 0.8489 0.8488 0.8488 0.8487 0.8487
1935.000000 0.8486 0.8486 0.8485 0.8484 0.8484
1940.000000 0.8483 0.8483 0.8482 0.8481 0.8481
1945.000000 0.8480 0.8479 0.8479 0.8478 0.8478
1950.000000 0.8477 0.8477 0.8476 0.8476 0.8475
1955.000000 0.8475 0.8475 0.8474 0.8474 0.8473
1960.000000 0.8473 0.8473 0.8472 0.8472 0.8471
1965.000000 0.8469 0.8467 0.8465 0.8463 0.8461
1970.000000 0.8459 0.8457 0.8454 0.8450 0.8443
1975.000000 0.8436 0.8428 0.8422 0.8416 0.8409
1980.000000 0.8403 0.8397 0.8388 0.8376 0.8364
1985.000000 0.8361 0.8360 0.8359 0.8359 0.8360
1990.000000 0.8362 0.8364 0.8366 0.8368 0.8370
1995.000000 0.8374 0.8380 0.8386 0.8393 0.8399
2000.000000 0.8405 0.8414 0.8424 0.8430 0.8436
2005.000000 0.8441 0.8447 0.8453 0.8459 0.8464
2010.000000 0.8469 0.8474 0.8479 0.8484 0.8489
2015.000000 0.8489 0.8490 0.8491 0.8492 0.8492
2020.000000 0.8493 0.8493 0.8493 0.8493 0.8493
2025.000000 0.8493 0.8493 0.8493 0.8493 0.8493
2030.000000 0.8494 0.8494 0.8494 0.8494 0.8494
2035.000000 0.8494 0.8494 0.8494 0.8494 0.8494
2040.000000 0.8494 0.8494 0.8494 0.8494 0.8494
2045.000000 0.8493 0.8493 0.8492 0.8492 0.8491
2050.000000 0.8491 0.8490 0.8489 0.8488 0.8488
2055.000000 0.8487 0.8487 0.8486 0.8486 0.8485
2060.000000 0.8484 0.8484 0.8484 0.8484 0.8484
2065.000000 0.8484 0.8484 0.8484 0.8484 0.8484
2070.000000 0.8484 0.8484 0.8485 0.8485 0.8485
2075.000000 0.8485 0.8485 0.8485 0.8485 0.8485
2080.000000 0.8485 0.8485 0.8485 0.8485 0.8485
2085.000000 0.8485 0.8486 0.8486 0.8486 0.8486
2090.000000 0.8486 0.8486 0.8486 0.8486 0.8486
2095.000000 0.8486 0.8486 0.8486 0.8486 0.8486
2100.000000 0.8486 0.8486 0.8487 0.8487 0.8487
2105.000000 0.8487 0.8487 0.8487 0.8488 0.8488
2110.000000 0.8489 0.8489 0.8490 0.8490 0.8491
2115.000000 0.8491 0.8492 0.8492 0.8493 0.8493
2120.000000 0.8494 0.8494 0.8495 0.8496 0.8497
2125.000000 0.8497 0.8498 0.8498 0.8499 0.8499
2130.000000 0.8500 0.8500 0.8501 0.8501 0.8502
2135.000000 0.8502 0.8503 0.8503 0.8504 0.8504
2140.000000 0.8505 0.8505 0.8506 0.8506 0.8507
2145.000000 0.8507 0.8508 0.8508 0.8509 0.8509
2150.000000 0.8510 0.8510 0.8510 0.8510 0.8511
2155.000000 0.8511 0.8511 0.8511 0.8512 0.8512
2160.000000 0.8513 0.8513 0.8513 0.8513 0.8514
2165.000000 0.8514 0.8514 0.8514 0.8515 0.8515
2170.000000 0.8516 0.8516 0.8516 0.8516 0.8517
2175.000000 0.8517 0.8518 0.8518 0.8518 0.8518
2180.000000 0.8519 0.8519 0.8519 0.8518 0.8518
2185.000000 0.8518 0.8518 0.8518 0.8518 0.8518
2190.000000 0.8518 0.8518 0.8518 0.8518 0.8518
2195.000000 0.8518 0.8518 0.8518 0.8518 0.8518
2200.000000 0.8518 0.8518 0.8518 0.8518 0.8518
2205.000000 0.8518 0.8518 0.8518 0.8518 0.8518
2210.000000 0.8518 0.8518 0.8518 0.8518 0.8518
2215.000000 0.8518 0.8518 0.8518 0.8518 0.8518
2220.000000 0.8518 0.8518 0.8518 0.8518 0.8518
2225.000000 0.8518 0.8518 0.8518 0.8518 0.8517
2230.000000 0.8517 0.8516 0.8516 0.8515 0.8515
2235.000000 0.8515 0.8515 0.8514 0.8514 0.8513
2240.000000 0.8513 0.8512 0.8512 0.8512 0.8512
2245.000000 0.8511 0.8511 0.8510 0.8510 0.8509
2250.000000 0.8509 0.8509 0.8509 0.8508 0.8508
2255.000000 0.8507 0.8507 0.8506 0.8506 0.8505
2260.000000 0.8505 0.8505 0.8505 0.8504 0.8503
2265.000000 0.8502 0.8502 0.8501 0.8500 0.8499
2270.000000 0.8499 0.8498 0.8497 0.8496 0.8496
2275.000000 0.8495 0.8494 0.8493 0.8493 0.8492
2280.000000 0.8491 0.8490 0.8490 0.8489 0.8488
2285.000000 0.8487 0.8487 0.8481 0.8475 0.8469
2290.000000 0.8464 0.8458 0.8452 0.8446 0.8441
2295.000000 0.8426 0.8412 0.8397 0.8383 0.8351
2300.000000 0.8320 0.8289 0.8259 0.8229 0.8200
2305.000000 0.8172 0.8145 0.8134 0.8124 0.8123
2310.000000 0.8122 0.8121 0.8121 0.8123 0.8121
2315.000000 0.8128 0.8132 0.8144 0.8157 0.8182
2320.000000 0.8208 0.8238 0.8269 0.8299 0.8329
2325.000000 0.8360 0.8392 0.8424 0.8456 0.8488
2330.000000 0.8521 0.8557 0.8594 0.8597 0.8600
2335.000000 0.8603 0.8607 0.8609 0.8612 0.8613
2340.000000 0.8615 0.8617 0.8619 0.8622 0.8625
2345.000000 0.8627 0.8630 0.8637 0.8644 0.8651
2350.000000 0.8658 0.8665 0.8672 0.8678 0.8684
2355.000000 0.8684 0.8685 0.8683 0.8688 0.8678
2360.000000 0.8675 0.8672 0.8669 0.8666 0.8663
2365.000000 0.8655 0.8648 0.8638 0.8628 0.8616
2370.000000 0.8605 0.8593 0.8582 0.8569 0.8557
2375.000000 0.8543 0.8530 0.8516 0.8503 0.8492
2380.000000 0.8482 0.8471 0.8461 0.8451 0.8442
2385.000000 0.8435 0.8428 0.8420 0.8413 0.8406
2390.000000 0.8399 0.8391 0.8384 0.8376 0.8368
2395.000000 0.8360 0.8352 0.8344 0.8337 0.8332
2400.000000 0.8328 0.8323 0.8319 0.8314 0.8310
2405.000000 0.8308 0.8297 0.8305 0.8304 0.8303
2410.000000 0.8302 0.8303 0.8304 0.8305 0.8307
2415.000000 0.8309 0.8311 0.8312 0.8314 0.8315
2420.000000 0.8317 0.8321 0.8325 0.8329 0.8333
2425.000000 0.8337 0.8341 0.8345 0.8350 0.8355
2430.000000 0.8361 0.8367 0.8373 0.8379 0.8385
2435.000000 0.8389 0.8394 0.8398 0.8403 0.8407
2440.000000 0.8411 0.8415 0.8420 0.8422 0.8425
2445.000000 0.8427 0.8430 0.8432 0.8435 0.8437
2450.000000 0.8440 0.8442 0.8445 0.8447 0.8449
2455.000000 0.8450 0.8451 0.8452 0.8454 0.8455
2460.000000 0.8457 0.8458 0.8460 0.8461 0.8463
2465.000000 0.8464 0.8465 0.8466 0.8467 0.8468
2470.000000 0.8470 0.8471 0.8472 0.8473 0.8475
2475.000000 0.8476 0.8477 0.8478 0.8480 0.8481
2480.000000 0.8482 0.8483 0.8484 0.8484 0.8484
2485.000000 0.8484 0.8484 0.8484 0.8484 0.8484
