##TITLE=d,l-2,3-DICHLOROBUTANE
##JCAMP-DX=4.24
##DATA TYPE=INFRARED SPECTRUM
##CLASS=COBLENTZ
##ORIGIN=W.T. BOLLETER
##OWNER=COBLENTZ SOCIETY
Collection (C) 2018 copyright by the U.S. Secretary of Commerce
on behalf of the United States of America. All rights reserved.
##DATE=Not specified, most likely prior to 1970
##NAMES=2,3-dichlorobutane
##CAS REGISTRY NO=7581-97-7
##MOLFORM=C4 H8 Cl2
##SOURCE REFERENCE=COBLENTZ NO. 4502
##$NIST SOURCE=COBLENTZ
##$NIST IMAGE=cob4502
##SPECTROMETER/DATA SYSTEM=Not specified, most likely a prism, grating, or hybrid spectrometer.
##PATH LENGTH=0.0025 CM
##SAMPLING PROCEDURE=TRANSMISSION
##RESOLUTION=4
##DATA PROCESSING=DIGITIZED BY NIST FROM HARD COPY
##XUNITS=MICROMETERS
##YUNITS=TRANSMITTANCE
##XFACTOR=1.000000
##YFACTOR=1
##DELTAX=000.017600
##FIRSTX=14.504
##LASTX=38.0001
##FIRSTY=0.003
##MAXX=38.0001
##MINX=14.504
##MAXY=0.925
##MINY=0
##NPOINTS=1336
##XYDATA=(X++(Y..Y))
14.504000 0.0030 0.0050 0.0050 0.0070 0.0070
14.592066 0.0080 0.0100 0.0100 0.0120 0.0120
14.680000 0.0140 0.0160 0.0170 0.0190 0.0230
14.768066 0.0250 0.0250 0.0250 0.0260 0.0260
14.856000 0.0280 0.0280 0.0280 0.0280 0.0280
14.944066 0.0260 0.0260 0.0250 0.0250 0.0210
15.032000 0.0160 0.0140 0.0100 0.0100 0.0080
15.120066 0.0070 0.0050 0.0050 0.0030 0.0030
15.208000 0.0010 0.0010 0.0010 0.0010 0.0010
15.296066 0.0010 0.0000 0.0000 0.0010 0.0010
15.384000 0.0010 0.0010 0.0010 0.0010 0.0010
15.472066 0.0000 0.0000 0.0000 0.0000 0.0000
15.560000 0.0010 0.0010 0.0030 0.0030 0.0050
15.648066 0.0070 0.0100 0.0100 0.0160 0.0210
15.736000 0.0250 0.0260 0.0330 0.0390 0.0510
15.824066 0.0750 0.0890 0.1000 0.1050 0.1210
15.912000 0.1370 0.1510 0.1600 0.1690 0.1760
16.000066 0.1890 0.2000 0.2120 0.2230 0.2320
16.088000 0.2390 0.2500 0.2530 0.2640 0.2760
16.176066 0.2830 0.2910 0.2980 0.3030 0.3160
16.264000 0.3250 0.3260 0.3370 0.3420 0.3440
16.352066 0.3460 0.3480 0.3480 0.3440 0.3410
16.440000 0.3350 0.3260 0.3120 0.2980 0.2800
16.528066 0.2620 0.2410 0.2170 0.1940 0.1710
16.616000 0.1480 0.1300 0.1080 0.0870 0.0780
16.704066 0.0660 0.0410 0.0260 0.0230 0.0210
16.792000 0.0170 0.0120 0.0100 0.0100 0.0100
16.880066 0.0100 0.0100 0.0100 0.0120 0.0120
16.968000 0.0140 0.0230 0.0280 0.0320 0.0350
17.056066 0.0420 0.0500 0.0620 0.0780 0.0960
17.144000 0.1000 0.1030 0.1230 0.1440 0.1550
17.232066 0.1710 0.1870 0.2030 0.2190 0.2390
17.320000 0.2570 0.2760 0.2940 0.3100 0.3250
17.408066 0.3420 0.3550 0.3690 0.3800 0.3960
17.496000 0.4050 0.4170 0.4280 0.4370 0.4480
17.584066 0.4500 0.4530 0.4530 0.4570 0.4580
17.672000 0.4580 0.4570 0.4550 0.4500 0.4390
17.760066 0.4280 0.4170 0.4000 0.3800 0.3570
17.848000 0.3420 0.3170 0.3000 0.2820 0.2570
17.936066 0.2500 0.2370 0.2320 0.2300 0.2320
18.024000 0.2480 0.2580 0.2750 0.2920 0.3120
18.112066 0.3330 0.3570 0.3820 0.4050 0.4280
18.200000 0.4530 0.4750 0.4960 0.5350 0.5510
18.288066 0.5670 0.5800 0.5940 0.6050 0.6160
18.376000 0.6210 0.6280 0.6300 0.6300 0.6320
18.464066 0.6320 0.6280 0.6260 0.6230 0.6170
18.552000 0.6080 0.6050 0.5980 0.5800 0.5580
18.640066 0.5420 0.5250 0.5050 0.4960 0.4870
18.728000 0.4690 0.4500 0.4320 0.4140 0.3960
18.816066 0.3730 0.3530 0.3390 0.3250 0.3050
18.904000 0.2870 0.2690 0.2550 0.2440 0.2250
18.992066 0.2070 0.1910 0.1750 0.1600 0.1460
19.080000 0.1320 0.1160 0.0960 0.0800 0.0730
19.168066 0.0550 0.0460 0.0330 0.0280 0.0250
19.256000 0.0230 0.0210 0.0210 0.0210 0.0230
19.344066 0.0230 0.0250 0.0260 0.0280 0.0330
19.432000 0.0390 0.0480 0.0690 0.0920 0.1210
19.520066 0.1330 0.1390 0.1570 0.1890 0.2080
19.608000 0.2440 0.2760 0.3100 0.3390 0.3580
19.696066 0.3910 0.4050 0.4390 0.4580 0.4850
19.784000 0.5230 0.5440 0.5570 0.5800 0.6000
19.872066 0.6190 0.6300 0.6410 0.6500 0.6600
19.960000 0.6690 0.6780 0.6890 0.6980 0.7050
20.048066 0.7080 0.7160 0.7230 0.7260 0.7320
20.136000 0.7370 0.7390 0.7420 0.7500 0.7510
20.224066 0.7510 0.7550 0.7550 0.7580 0.7580
20.312000 0.7580 0.7580 0.7570 0.7570 0.7550
20.400066 0.7550 0.7530 0.7510 0.7500 0.7480
20.488000 0.7420 0.7390 0.7370 0.7350 0.7350
20.576066 0.7330 0.7330 0.7330 0.7320 0.7320
20.664000 0.7320 0.7330 0.7370 0.7410 0.7460
20.752066 0.7500 0.7510 0.7600 0.7670 0.7760
20.840000 0.7830 0.7890 0.7940 0.8010 0.8030
20.928066 0.8080 0.8170 0.8250 0.8280 0.8320
21.016000 0.8390 0.8420 0.8440 0.8460 0.8500
21.104066 0.8530 0.8570 0.8600 0.8620 0.8660
21.192000 0.8660 0.8670 0.8690 0.8690 0.8730
21.280066 0.8750 0.8780 0.8820 0.8820 0.8830
21.368000 0.8850 0.8850 0.8870 0.8870 0.8890
21.456066 0.8890 0.8890 0.8910 0.8910 0.8910
21.544000 0.8910 0.8910 0.8910 0.8910 0.8890
21.632066 0.8890 0.8890 0.8870 0.8870 0.8850
21.720000 0.8850 0.8850 0.8830 0.8830 0.8820
21.808066 0.8800 0.8800 0.8780 0.8780 0.8760
21.896000 0.8760 0.8750 0.8730 0.8730 0.8710
21.984066 0.8690 0.8670 0.8640 0.8620 0.8620
22.072000 0.8620 0.8600 0.8600 0.8580 0.8570
22.160066 0.8550 0.8530 0.8510 0.8510 0.8500
22.248000 0.8460 0.8410 0.8390 0.8370 0.8330
22.336066 0.8280 0.8250 0.8210 0.8080 0.8050
22.424000 0.8010 0.7920 0.7910 0.7800 0.7660
22.512066 0.7580 0.7500 0.7390 0.7330 0.7210
22.600000 0.7070 0.6910 0.6750 0.6550 0.6350
22.688066 0.6160 0.5940 0.5750 0.5530 0.5300
22.776000 0.5100 0.5000 0.4890 0.4670 0.4480
22.864066 0.4280 0.4070 0.3920 0.3640 0.3500
22.952000 0.3390 0.3260 0.3170 0.3050 0.3010
23.040066 0.3000 0.3000 0.3010 0.3070 0.3210
23.128000 0.3320 0.3500 0.3660 0.3800 0.3980
23.216066 0.4140 0.4330 0.4510 0.4730 0.4960
23.304000 0.5250 0.5440 0.5550 0.5710 0.5940
23.392066 0.6050 0.6100 0.6250 0.6300 0.6420
23.480000 0.6500 0.6530 0.6550 0.6580 0.6580
23.568066 0.6600 0.6600 0.6600 0.6600 0.6580
23.656000 0.6580 0.6570 0.6550 0.6510 0.6500
23.744066 0.6480 0.6460 0.6440 0.6460 0.6480
23.832000 0.6500 0.6530 0.6570 0.6660 0.6750
23.920066 0.6870 0.7000 0.7070 0.7250 0.7390
24.008000 0.7500 0.7600 0.7710 0.7800 0.7910
24.096066 0.7980 0.8070 0.8160 0.8260 0.8350
24.184000 0.8410 0.8510 0.8580 0.8660 0.8710
24.272066 0.8760 0.8830 0.8890 0.8920 0.8980
24.360000 0.9010 0.9030 0.9050 0.9070 0.9080
24.448066 0.9080 0.9120 0.9160 0.9190 0.9190
24.536000 0.9210 0.9210 0.9210 0.9230 0.9250
24.624066 0.9250 0.9250 0.9230 0.9230 0.9210
24.712000 0.9210 0.9190 0.9190 0.9170 0.9170
24.800066 0.9160 0.9140 0.9140 0.9120 0.9100
24.888000 0.9080 0.9080 0.9070 0.9050 0.9030
24.976066 0.9010 0.9000 0.8960 0.8920 0.8910
25.064000 0.8850 0.8820 0.8750 0.8710 0.8660
25.152066 0.8620 0.8570 0.8550 0.8510 0.8500
25.240000 0.8370 0.8280 0.8190 0.8080 0.8030
25.328066 0.8010 0.7890 0.7780 0.7670 0.7550
25.416000 0.7500 0.7480 0.7350 0.7250 0.7160
25.504066 0.7100 0.7050 0.7030 0.7010 0.6960
25.592000 0.6940 0.6890 0.6850 0.6830 0.6830
25.680066 0.6830 0.6850 0.6850 0.6870 0.6890
25.768000 0.6910 0.6940 0.6960 0.7000 0.7010
25.856066 0.7100 0.7120 0.7160 0.7190 0.7230
25.944000 0.7300 0.7350 0.7420 0.7500 0.7530
26.032066 0.7570 0.7640 0.7660 0.7670 0.7690
26.120000 0.7710 0.7750 0.7780 0.7820 0.7830
26.208066 0.7830 0.7850 0.7870 0.7870 0.7870
26.296000 0.7870 0.7870 0.7870 0.7850 0.7830
26.384066 0.7820 0.7800 0.7780 0.7730 0.7670
26.472000 0.7620 0.7570 0.7510 0.7420 0.7350
26.560066 0.7300 0.7230 0.7160 0.7050 0.6980
26.648000 0.6800 0.6670 0.6530 0.6350 0.6170
26.736066 0.6010 0.5890 0.5820 0.5690 0.5570
26.824000 0.5460 0.5280 0.5100 0.5010 0.4940
26.912066 0.4870 0.4750 0.4620 0.4500 0.4350
27.000000 0.4300 0.4210 0.4120 0.4080 0.4050
27.088066 0.4010 0.3980 0.3940 0.3920 0.3890
27.176000 0.3890 0.3870 0.3870 0.3890 0.3910
27.264066 0.4000 0.4010 0.4050 0.4170 0.4250
27.352000 0.4280 0.4330 0.4420 0.4510 0.4530
27.440066 0.4550 0.4580 0.4620 0.4690 0.4760
27.528000 0.4850 0.4870 0.4890 0.4920 0.4920
27.616066 0.4920 0.4920 0.4920 0.4920 0.4910
27.704000 0.4910 0.4890 0.4870 0.4850 0.4830
27.792066 0.4800 0.4730 0.4640 0.4550 0.4510
27.880000 0.4440 0.4390 0.4230 0.4120 0.4080
27.968066 0.3960 0.3850 0.3780 0.3670 0.3550
28.056000 0.3440 0.3320 0.3210 0.3070 0.3010
28.144066 0.2910 0.2800 0.2730 0.2580 0.2510
28.232000 0.2440 0.2370 0.2300 0.2250 0.2160
28.320066 0.2100 0.2070 0.2050 0.2010 0.2000
28.408000 0.2000 0.1980 0.1980 0.1980 0.2000
28.496066 0.2000 0.2010 0.2030 0.2050 0.2080
28.584000 0.2120 0.2190 0.2280 0.2350 0.2420
28.672066 0.2460 0.2500 0.2510 0.2530 0.2550
28.760000 0.2570 0.2580 0.2580 0.2600 0.2600
28.848066 0.2580 0.2580 0.2550 0.2550 0.2530
28.936000 0.2510 0.2440 0.2370 0.2280 0.2210
29.024066 0.2160 0.2100 0.2050 0.2030 0.2010
29.112000 0.2000 0.1920 0.1890 0.1850 0.1820
29.200066 0.1780 0.1710 0.1670 0.1660 0.1640
29.288000 0.1640 0.1640 0.1660 0.1670 0.1690
29.376066 0.1730 0.1820 0.1910 0.1960 0.2030
29.464000 0.2080 0.2170 0.2280 0.2420 0.2620
29.552066 0.2750 0.2890 0.3000 0.3070 0.3230
29.640000 0.3350 0.3500 0.3620 0.3760 0.3890
29.728066 0.4010 0.4140 0.4280 0.4410 0.4510
29.816000 0.4640 0.4750 0.4830 0.4910 0.5070
29.904066 0.5160 0.5260 0.5370 0.5480 0.5580
29.992000 0.5690 0.5780 0.5890 0.5960 0.6030
30.080066 0.6070 0.6170 0.6230 0.6250 0.6300
30.168000 0.6330 0.6460 0.6530 0.6550 0.6580
30.256066 0.6600 0.6620 0.6670 0.6730 0.6750
30.344000 0.6780 0.6820 0.6830 0.6850 0.6890
30.432066 0.6910 0.6920 0.6940 0.6960 0.7000
30.520000 0.7010 0.7010 0.7030 0.7030 0.7030
30.608066 0.7030 0.7010 0.7010 0.6960 0.6940
30.696000 0.6940 0.6910 0.6870 0.6850 0.6830
30.784066 0.6800 0.6730 0.6660 0.6600 0.6530
30.872000 0.6500 0.6410 0.6330 0.6280 0.6230
30.960066 0.6170 0.6120 0.6070 0.6010 0.5980
31.048000 0.5960 0.5890 0.5870 0.5820 0.5780
31.136066 0.5750 0.5690 0.5660 0.5620 0.5580
31.224000 0.5570 0.5550 0.5530 0.5530 0.5530
31.312066 0.5550 0.5550 0.5570 0.5580 0.5600
31.400000 0.5670 0.5690 0.5710 0.5730 0.5750
31.488066 0.5760 0.5820 0.5890 0.5940 0.6010
31.576000 0.6050 0.6120 0.6160 0.6170 0.6210
31.664066 0.6250 0.6300 0.6330 0.6350 0.6370
31.752000 0.6410 0.6420 0.6440 0.6440 0.6460
31.840066 0.6460 0.6460 0.6460 0.6460 0.6460
31.928000 0.6440 0.6440 0.6420 0.6420 0.6390
32.016066 0.6370 0.6330 0.6320 0.6280 0.6250
32.104000 0.6210 0.6170 0.6160 0.6120 0.6070
32.192066 0.6050 0.6030 0.6010 0.6000 0.5910
32.280000 0.5870 0.5820 0.5800 0.5760 0.5730
32.368066 0.5710 0.5690 0.5670 0.5670 0.5660
32.456000 0.5660 0.5670 0.5670 0.5690 0.5710
32.544066 0.5710 0.5730 0.5750 0.5780 0.5820
32.632000 0.5850 0.5980 0.6030 0.6070 0.6160
32.720066 0.6170 0.6210 0.6250 0.6300 0.6320
32.808000 0.6370 0.6420 0.6440 0.6500 0.6510
32.896066 0.6530 0.6550 0.6570 0.6600 0.6620
32.984000 0.6660 0.6690 0.6730 0.6760 0.6800
33.072066 0.6820 0.6830 0.6910 0.7010 0.7030
33.160000 0.7050 0.7070 0.7070 0.7080 0.7100
33.248066 0.7100 0.7120 0.7160 0.7190 0.7250
33.336000 0.7280 0.7300 0.7320 0.7320 0.7350
33.424066 0.7370 0.7370 0.7390 0.7410 0.7420
33.512000 0.7420 0.7420 0.7420 0.7420 0.7420
33.600066 0.7420 0.7440 0.7440 0.7440 0.7440
33.688000 0.7460 0.7460 0.7460 0.7460 0.7460
33.776066 0.7480 0.7480 0.7480 0.7480 0.7480
33.864000 0.7460 0.7460 0.7440 0.7440 0.7440
33.952066 0.7440 0.7440 0.7440 0.7420 0.7420
34.040000 0.7420 0.7420 0.7410 0.7390 0.7390
34.128066 0.7370 0.7370 0.7370 0.7370 0.7370
34.216000 0.7350 0.7330 0.7300 0.7260 0.7250
34.304066 0.7250 0.7230 0.7230 0.7210 0.7210
34.392000 0.7210 0.7210 0.7210 0.7210 0.7190
34.480066 0.7190 0.7190 0.7160 0.7140 0.7140
34.568000 0.7120 0.7100 0.7050 0.7030 0.7030
34.656066 0.7010 0.7000 0.7000 0.6980 0.6980
34.744000 0.6960 0.6960 0.6940 0.6940 0.6940
34.832066 0.6920 0.6890 0.6870 0.6850 0.6830
34.920000 0.6820 0.6780 0.6760 0.6750 0.6730
35.008066 0.6710 0.6690 0.6670 0.6670 0.6660
35.096000 0.6620 0.6580 0.6550 0.6530 0.6510
35.184066 0.6500 0.6480 0.6460 0.6440 0.6420
35.272000 0.6410 0.6390 0.6370 0.6350 0.6330
35.360066 0.6320 0.6320 0.6300 0.6280 0.6280
35.448000 0.6280 0.6260 0.6250 0.6210 0.6210
35.536066 0.6190 0.6190 0.6190 0.6190 0.6190
35.624000 0.6170 0.6170 0.6170 0.6170 0.6160
35.712066 0.6140 0.6140 0.6120 0.6120 0.6120
35.800000 0.6120 0.6100 0.6100 0.6080 0.6080
35.888066 0.6070 0.6050 0.6050 0.6050 0.6050
35.976000 0.6030 0.6030 0.6010 0.6010 0.6000
36.064066 0.6000 0.5980 0.5980 0.5920 0.5920
36.152000 0.5890 0.5870 0.5870 0.5850 0.5830
36.240066 0.5830 0.5820 0.5800 0.5780 0.5780
36.328000 0.5760 0.5760 0.5760 0.5760 0.5760
36.416066 0.5760 0.5750 0.5750 0.5730 0.5710
36.504000 0.5690 0.5670 0.5660 0.5640 0.5620
36.592066 0.5600 0.5600 0.5570 0.5550 0.5530
36.680000 0.5510 0.5500 0.5480 0.5460 0.5440
36.768066 0.5410 0.5410 0.5390 0.5370 0.5330
36.856000 0.5300 0.5300 0.5280 0.5250 0.5230
36.944066 0.5230 0.5210 0.5190 0.5160 0.5120
37.032000 0.5080 0.5080 0.5050 0.5050 0.5030
37.120066 0.5030 0.5030 0.5010 0.5000 0.5000
37.208000 0.4980 0.4960 0.4940 0.4940 0.4920
37.296066 0.4920 0.4920 0.4910 0.4910 0.4910
37.384000 0.4910 0.4890 0.4890 0.4890 0.4890
37.472066 0.4870 0.4870 0.4870 0.4870 0.4870
37.560000 0.4870 0.4870 0.4870 0.4850 0.4850
37.648066 0.4830 0.4830 0.4830 0.4830 0.4830
37.736000 0.4830 0.4830 0.4830 0.4830 0.4830
37.824066 0.4830 0.4830 0.4830 0.4830 0.4850
37.912000 0.4870 0.4870 0.4850 0.4850 0.4830
38.000066 0.4780
##END=
