##TITLE=1-PENTENE, 2-METHYL-
##JCAMP-DX=4.24
##DATA TYPE=INFRARED SPECTRUM
##CLASS=COBLENTZ III
##ORIGIN=DOW CORNING CORP.
##OWNER=COBLENTZ SOCIETY
Collection (C) 2018 copyright by the U.S. Secretary of Commerce
on behalf of the United States of America. All rights reserved.
##DATE=Not specified, most likely prior to 1970
##NAMES=2-methyl-1-pentene
##CAS REGISTRY NO=763-29-1
##MOLFORM=C6 H12
##SOURCE REFERENCE=COBLENTZ NO. 4269
##$NIST SOURCE=COBLENTZ
##$NIST IMAGE=cob4269
##SPECTROMETER/DATA SYSTEM=PERKIN-ELMER 521 (GRATING)
##INSTRUMENT PARAMETERS=FILTERS AT 3150, 2500, 2000, 1150, 700, 410; GRATING CHANGES AT 2000, 630 CM^-^1
##STATE=SOLUTION (10% IN CCl4 FOR 3800-1300, 10% IN CS2 FOR 1300-650, AND 10% IN CCl4 FOR 650-250 CM^-^1) VERSUS SOLVENT
##PATH LENGTH=0.011, 0.011, AND 0.010 CM (CsBr CELL)
##SAMPLING PROCEDURE=TRANSMISSION
##RESOLUTION=4
##DATA PROCESSING=DIGITIZED BY NIST FROM HARD COPY (FROM TWO SEGMENTS)
##XUNITS=1/CM
##YUNITS=TRANSMITTANCE
##XFACTOR=1.000000
##YFACTOR=1
##DELTAX=1.022366
##FIRSTX=247.668
##LASTX=3804.48
##FIRSTY=0.973
##MAXX=3804.48
##MINX=247.668
##MAXY=0.973
##MINY=0.00421299
##NPOINTS=3480
##XYDATA=(X++(Y..Y))
247.668000 0.9730 0.9730 0.9730 0.9730 0.9730
252.779829 0.9720 0.9720 0.9720 0.9720 0.9720
257.891657 0.9710 0.9690 0.9680 0.9660 0.9660
263.003486 0.9660 0.9640 0.9620 0.9620 0.9610
268.115314 0.9600 0.9580 0.9580 0.9580 0.9570
273.227143 0.9570 0.9550 0.9550 0.9550 0.9550
278.338972 0.9550 0.9550 0.9550 0.9550 0.9540
283.450800 0.9540 0.9540 0.9530 0.9530 0.9530
288.562629 0.9530 0.9530 0.9530 0.9510 0.9510
293.674457 0.9500 0.9500 0.9480 0.9460 0.9440
298.786286 0.9440 0.9430 0.9420 0.9420 0.9420
303.898115 0.9420 0.9420 0.9420 0.9420 0.9420
309.009943 0.9400 0.9400 0.9390 0.9370 0.9370
314.121772 0.9360 0.9350 0.9350 0.9330 0.9330
319.233600 0.9320 0.9320 0.9320 0.9320 0.9320
324.345429 0.9330 0.9330 0.9330 0.9330 0.9330
329.457258 0.9330 0.9330 0.9330 0.9320 0.9320
334.569086 0.9320 0.9320 0.9310 0.9310 0.9310
339.680915 0.9290 0.9290 0.9280 0.9280 0.9280
344.792743 0.9260 0.9260 0.9250 0.9250 0.9240
349.904572 0.9220 0.9210 0.9210 0.9200 0.9180
355.016401 0.9180 0.9180 0.9170 0.9170 0.9170
360.128229 0.9150 0.9150 0.9140 0.9140 0.9130
365.240058 0.9130 0.9140 0.9140 0.9140 0.9140
370.351886 0.9140 0.9140 0.9140 0.9140 0.9140
375.463715 0.9140 0.9140 0.9150 0.9170 0.9170
380.575544 0.9180 0.9180 0.9180 0.9180 0.9180
385.687372 0.9170 0.9100 0.9040 0.9030 0.8950
390.799201 0.8910 0.8860 0.8840 0.8730 0.8710
395.911029 0.8700 0.8750 0.8820 0.8910 0.8950
401.022858 0.8950 0.8990 0.9000 0.9000 0.8990
406.134687 0.8990 0.8970 0.8960 0.8950 0.8920
411.246515 0.8910 0.8840 0.8810 0.8730 0.8670
416.358344 0.8590 0.8520 0.8281 0.8240 0.8190
421.470172 0.7940 0.7860 0.7820 0.7770 0.7730
426.582001 0.7660 0.7650 0.7660 0.7799 0.7800
431.693830 0.7910 0.8150 0.8300 0.8380 0.8380
436.805658 0.8260 0.8240 0.8200 0.8150 0.8080
441.917487 0.7930 0.7900 0.7910 0.8080 0.8240
447.029315 0.8420 0.8669 0.8929 0.9040 0.9060
452.141144 0.9070 0.9100 0.9110 0.9110 0.9110
457.252973 0.9130 0.9130 0.9130 0.9140 0.9140
462.364801 0.9140 0.9150 0.9150 0.9150 0.9150
467.476630 0.9150 0.9140 0.9140 0.9130 0.9130
472.588458 0.9110 0.9100 0.9100 0.9100 0.9100
477.700287 0.9110 0.9110 0.9110 0.9110 0.9110
482.812116 0.9110 0.9100 0.9100 0.9080 0.9080
487.923944 0.9060 0.9060 0.9040 0.9040 0.9040
493.035773 0.9040 0.9030 0.9030 0.9030 0.9000
498.147601 0.9000 0.8990 0.8970 0.8960 0.8920
503.259430 0.8890 0.8880 0.8880 0.8860 0.8840
508.371259 0.8800 0.8800 0.8670 0.8660 0.8630
513.483087 0.8570 0.8420 0.8310 0.8150 0.7790
518.594916 0.7421 0.7220 0.6991 0.6920 0.6621
523.706744 0.6590 0.6620 0.6680 0.6910 0.6970
528.818573 0.7429 0.7430 0.7390 0.7310 0.7240
533.930402 0.7210 0.7210 0.7240 0.7330 0.7749
539.042230 0.7930 0.8149 0.8309 0.8370 0.8410
544.154059 0.8510 0.8630 0.8640 0.8670 0.8680
549.265887 0.8700 0.8710 0.8730 0.8730 0.8740
554.377716 0.8750 0.8770 0.8780 0.8780 0.8800
559.489545 0.8800 0.8800 0.8800 0.8800 0.8810
564.601373 0.8810 0.8810 0.8810 0.8810 0.8820
569.713202 0.8820 0.8820 0.8820 0.8820 0.8840
574.825030 0.8840 0.8840 0.8840 0.8840 0.8840
579.936859 0.8840 0.8840 0.8840 0.8840 0.8840
585.048688 0.8840 0.8840 0.8840 0.8840 0.8840
590.160516 0.8840 0.8840 0.8840 0.8840 0.8840
595.272345 0.8840 0.8840 0.8840 0.8840 0.8840
600.384173 0.8820 0.8820 0.8820 0.8820 0.8820
605.496002 0.8820 0.8820 0.8820 0.8810 0.8810
610.607831 0.8810 0.8810 0.8810 0.8800 0.8800
615.719659 0.8800 0.8800 0.8780 0.8780 0.8780
620.831488 0.8780 0.8780 0.8770 0.8770 0.8770
625.943316 0.8770 0.8750 0.8750 0.8750 0.8740
631.055145 0.8740 0.8740 0.8730 0.8730 0.8730
636.166974 0.8710 0.8710 0.8710 0.8710 0.8700
641.278802 0.8700 0.8700 0.8700 0.8680 0.8680
646.390631 0.8670 0.8670 0.8660 0.8660 0.8640
651.502459 0.8640 0.8630 0.8620 0.8570 0.8560
656.614288 0.8550 0.8490 0.8450 0.8400 0.8400
661.726117 0.8410 0.8420 0.8440 0.8440 0.8460
666.837945 0.8480 0.8480 0.8480 0.8460 0.8460
671.949774 0.8460 0.8480 0.8480 0.8480 0.8490
677.061602 0.8490 0.8490 0.8490 0.8490 0.8480
682.173431 0.8460 0.8440 0.8440 0.8420 0.8410
687.285260 0.8380 0.8370 0.8340 0.8330 0.8280
692.397088 0.8270 0.8260 0.8270 0.8280 0.8310
697.508917 0.8340 0.8370 0.8400 0.8420 0.8460
702.620745 0.8480 0.8480 0.8480 0.8490 0.8510
707.732574 0.8510 0.8510 0.8490 0.8460 0.8460
712.844403 0.8450 0.8450 0.8440 0.8420 0.8410
717.956231 0.8350 0.8340 0.8310 0.8280 0.8230
723.068060 0.8170 0.8120 0.8110 0.8010 0.7871
728.179888 0.7800 0.7730 0.7420 0.7310 0.7210
733.291717 0.7150 0.7130 0.7110 0.7100 0.7110
738.403546 0.7150 0.7330 0.7480 0.7510 0.7580
743.515374 0.7610 0.7799 0.7860 0.7900 0.8159
748.627203 0.8220 0.8330 0.8330 0.8350 0.8380
753.739031 0.8400 0.8420 0.8440 0.8460 0.8480
758.850860 0.8480 0.8480 0.8480 0.8480 0.8480
763.962689 0.8460 0.8460 0.8450 0.8440 0.8440
769.074517 0.8420 0.8420 0.8410 0.8400 0.8400
774.186346 0.8400 0.8400 0.8400 0.8400 0.8400
779.298174 0.8380 0.8370 0.8370 0.8370 0.8370
784.410003 0.8370 0.8380 0.8380 0.8400 0.8400
789.521832 0.8400 0.8400 0.8380 0.8380 0.8370
794.633660 0.8370 0.8370 0.8350 0.8340 0.8300
799.745489 0.8280 0.8270 0.8260 0.8240 0.8230
804.857317 0.8200 0.8130 0.7901 0.7840 0.7790
809.969146 0.7750 0.7710 0.7650 0.7610 0.7600
815.080975 0.7600 0.7580 0.7580 0.7550 0.7510
820.192803 0.7430 0.7400 0.7430 0.7570 0.7770
825.304632 0.7800 0.7860 0.7940 0.7970 0.8080
830.416460 0.8120 0.8150 0.8170 0.8190 0.8200
835.528289 0.8220 0.8220 0.8220 0.8200 0.8190
840.640118 0.8170 0.8160 0.8130 0.8090 0.8040
845.751946 0.8020 0.7940 0.7830 0.7760 0.7680
850.863775 0.7510 0.7350 0.7210 0.7080 0.7000
855.975603 0.6890 0.6840 0.6491 0.6311 0.6131
861.087432 0.5789 0.5400 0.5020 0.4770 0.4480
866.199261 0.4190 0.3761 0.3391 0.3201 0.3001
871.311089 0.2930 0.2910 0.2890 0.2640 0.2450
876.422918 0.1861 0.1431 0.1061 0.0851 0.0631
881.534746 0.0240 0.0220 0.0220 0.0230 0.0270
886.646575 0.0380 0.0420 0.0490 0.1137 0.1727
891.758404 0.1761 0.2240 0.2740 0.3720 0.4040
896.870232 0.4409 0.4879 0.5718 0.5860 0.6019
901.982061 0.6270 0.6300 0.6420 0.6560 0.6630
907.093889 0.6740 0.6910 0.7099 0.7170 0.7290
912.205718 0.7400 0.7480 0.7530 0.7610 0.7650
917.317547 0.7680 0.7750 0.7800 0.7820 0.7840
922.429375 0.7860 0.7860 0.7880 0.7900 0.7910
927.541204 0.7940 0.7950 0.7970 0.7980 0.8000
932.653032 0.8000 0.8000 0.8010 0.8010 0.8010
937.764861 0.8000 0.8000 0.7980 0.7970 0.7950
942.876690 0.7940 0.7900 0.7880 0.7860 0.7840
947.988518 0.7820 0.7770 0.7730 0.7680 0.7471
953.100347 0.7390 0.7330 0.7250 0.7030 0.6710
958.212175 0.6620 0.6620 0.6670 0.6750 0.6879
963.324004 0.7020 0.7140 0.7470 0.7530 0.7570
968.435833 0.7600 0.7620 0.7680 0.7710 0.7730
973.547661 0.7750 0.7750 0.7750 0.7730 0.7730
978.659490 0.7720 0.7710 0.7680 0.7660 0.7640
983.771318 0.7610 0.7550 0.7510 0.7510 0.7530
988.883147 0.7550 0.7600 0.7640 0.7680 0.7770
993.994976 0.7790 0.7820 0.7860 0.7870 0.7900
999.106804 0.7910 0.7910 0.7930 0.7940 0.7940
1004.218633 0.7930 0.7910 0.7880 0.7840 0.7830
1009.330461 0.7820 0.7800 0.7790 0.7790 0.7790
1014.442290 0.7770 0.7770 0.7770 0.7790 0.7800
1019.554119 0.7800 0.7820 0.7820 0.7830 0.7830
1024.665947 0.7830 0.7830 0.7830 0.7820 0.7820
1029.777776 0.7820 0.7820 0.7820 0.7820 0.7820
1034.889604 0.7820 0.7820 0.7800 0.7800 0.7800
1040.001433 0.7800 0.7800 0.7820 0.7820 0.7830
1045.113262 0.7830 0.7840 0.7840 0.7840 0.7840
1050.225090 0.7840 0.7840 0.7840 0.7840 0.7840
1055.336919 0.7830 0.7790 0.7760 0.7750 0.7720
1060.448747 0.7710 0.7690 0.7690 0.7690 0.7690
1065.560576 0.7680 0.7660 0.7600 0.7550 0.7530
1070.672405 0.7470 0.7430 0.7320 0.7310 0.7290
1075.784233 0.7290 0.7290 0.7290 0.7280 0.7260
1080.896062 0.7210 0.7080 0.7000 0.6920 0.6751
1086.007890 0.6620 0.6590 0.6600 0.6670 0.6750
1091.119719 0.6810 0.7110 0.7260 0.7330 0.7360
1096.231548 0.7400 0.7480 0.7540 0.7580 0.7760
1101.343376 0.7770 0.7800 0.7800 0.7830 0.7840
1106.455205 0.7870 0.7900 0.7930 0.7950 0.7950
1111.567033 0.8000 0.8010 0.8010 0.8040 0.8050
1116.678862 0.8050 0.8050 0.8060 0.8060 0.8060
1121.790691 0.8080 0.8110 0.8120 0.8150 0.8160
1126.902519 0.8190 0.8220 0.8230 0.8230 0.8230
1132.014348 0.8230 0.8230 0.8230 0.8230 0.8230
1137.126176 0.8230 0.8230 0.8230 0.8230 0.8240
1142.238005 0.8240 0.8240 0.8240 0.8260 0.8260
1147.349834 0.8270 0.8270 0.8270 0.8270 0.8270
1152.461662 0.8270 0.8270 0.8270 0.8270 0.8270
1157.573491 0.8270 0.8270 0.8270 0.8270 0.8270
1162.685319 0.8260 0.8260 0.8260 0.8260 0.8260
1167.797148 0.8260 0.8260 0.8240 0.8240 0.8240
1172.908977 0.8240 0.8230 0.8230 0.8230 0.8230
1178.020805 0.8220 0.8200 0.8190 0.8170 0.8170
1183.132634 0.8160 0.8150 0.8150 0.8130 0.8110
1188.244462 0.8090 0.8080 0.8060 0.8040 0.8020
1193.356291 0.8010 0.7980 0.7970 0.7910 0.7860
1198.468120 0.7820 0.7760 0.7730 0.7690 0.7680
1203.579948 0.7650 0.7640 0.7620 0.7620 0.7600
1208.691777 0.7580 0.7540 0.7500 0.7400 0.7370
1213.803605 0.7280 0.7170 0.7110 0.7100 0.7100
1218.915434 0.7150 0.7240 0.7360 0.7430 0.7550
1224.027263 0.7600 0.7620 0.7640 0.7650 0.7660
1229.139091 0.7680 0.7680 0.7690 0.7690 0.7690
1234.250920 0.7690 0.7690 0.7690 0.7680 0.7660
1239.362748 0.7640 0.7610 0.7580 0.7550 0.7530
1244.474577 0.7500 0.7460 0.7400 0.7330 0.7320
1249.586406 0.7290 0.7280 0.7260 0.7260 0.7250
1254.698234 0.7240 0.7210 0.7200 0.7140 0.7130
1259.810063 0.7130 0.7110 0.7100 0.7100 0.7100
1264.921891 0.7080 0.7080 0.7080 0.7080 0.7100
1270.033720 0.7140 0.7180 0.7220 0.7280 0.7310
1275.145549 0.7330 0.7360 0.7390 0.7400 0.7420
1280.257377 0.7440 0.7470 0.7480 0.7510 0.7540
1285.369206 0.7550 0.7580 0.7610 0.7620 0.7650
1290.481034 0.7680 0.7690 0.7750 0.7760 0.7790
1295.592863 0.7830 0.7840 0.7860 0.7870 0.7880
1300.704692 0.7900 0.7930 0.7940 0.7950 0.7970
1305.816520 0.8000 0.8010 0.8020 0.8040 0.8050
1310.928349 0.8060 0.8060 0.8080 0.8090 0.8090
1316.040177 0.8110 0.8110 0.8110 0.8110 0.8110
1321.152006 0.8110 0.8110 0.8090 0.8050 0.8020
1326.263835 0.7980 0.7950 0.7910 0.7880 0.7860
1331.375663 0.7840 0.7840 0.7860 0.7870 0.7900
1336.487492 0.7940 0.7950 0.7950 0.7970 0.7970
1341.599320 0.7970 0.7950 0.7950 0.7930 0.7880
1346.711149 0.7860 0.7820 0.7750 0.7710 0.7650
1351.822978 0.7510 0.7420 0.7330 0.7140 0.6990
1356.934806 0.6880 0.6800 0.6630 0.6241 0.6130
1362.046635 0.5709 0.5259 0.4530 0.3820 0.3460
1367.158463 0.3100 0.3260 0.3420 0.3430 0.3500
1372.270292 0.3581 0.3881 0.4261 0.4851 0.6020
1377.382121 0.6220 0.6400 0.6450 0.6630 0.6780
1382.493949 0.6920 0.7040 0.7070 0.7080 0.7110
1387.605778 0.7130 0.7180 0.7200 0.7200 0.7210
1392.717606 0.7210 0.7210 0.7180 0.7130 0.7080
1397.829435 0.7070 0.7030 0.6990 0.6960 0.6930
1402.941264 0.6880 0.6810 0.6750 0.6680 0.6530
1408.053092 0.6490 0.6300 0.6150 0.6080 0.5881
1413.164921 0.5770 0.5680 0.5580 0.5480 0.5390
1418.276749 0.5150 0.5040 0.4880 0.4840 0.4740
1423.388578 0.4670 0.4590 0.4510 0.4380 0.4240
1428.500407 0.4050 0.3830 0.3541 0.3361 0.3181
1433.612235 0.3070 0.3020 0.2740 0.2680 0.2460
1438.724064 0.2230 0.2050 0.1800 0.1770 0.1750
1443.835892 0.1710 0.1680 0.1600 0.1500 0.1400
1448.947721 0.1390 0.1400 0.1610 0.1819 0.1979
1454.059550 0.2241 0.2510 0.2550 0.2280 0.2280
1459.171378 0.2620 0.2660 0.2840 0.3568 0.4148
1464.283207 0.4711 0.5101 0.5540 0.5900 0.6110
1469.395035 0.6310 0.6560 0.6700 0.6750 0.6919
1474.506864 0.7060 0.7180 0.7280 0.7370 0.7470
1479.618693 0.7540 0.7620 0.7690 0.7760 0.7770
1484.730521 0.7800 0.7820 0.7880 0.7950 0.8000
1489.842350 0.8080 0.8120 0.8170 0.8220 0.8260
1494.954178 0.8270 0.8310 0.8380 0.8410 0.8420
1500.066007 0.8450 0.8480 0.8490 0.8490 0.8510
1505.177836 0.8510 0.8520 0.8530 0.8570 0.8600
1510.289664 0.8620 0.8630 0.8660 0.8670 0.8670
1515.401493 0.8680 0.8700 0.8710 0.8730 0.8730
1520.513321 0.8750 0.8770 0.8770 0.8780 0.8780
1525.625150 0.8800 0.8800 0.8810 0.8810 0.8810
1530.736979 0.8810 0.8810 0.8810 0.8810 0.8810
1535.848807 0.8810 0.8810 0.8810 0.8810 0.8810
1540.960636 0.8800 0.8800 0.8800 0.8800 0.8800
1546.072464 0.8800 0.8780 0.8780 0.8770 0.8750
1551.184293 0.8740 0.8740 0.8730 0.8730 0.8730
1556.296122 0.8730 0.8730 0.8710 0.8710 0.8700
1561.407950 0.8700 0.8680 0.8670 0.8670 0.8660
1566.519779 0.8640 0.8640 0.8600 0.8570 0.8570
1571.631607 0.8560 0.8550 0.8550 0.8550 0.8550
1576.743436 0.8550 0.8550 0.8560 0.8560 0.8560
1581.855265 0.8560 0.8560 0.8560 0.8550 0.8550
1586.967093 0.8550 0.8530 0.8530 0.8520 0.8520
1592.078922 0.8510 0.8490 0.8480 0.8440 0.8410
1597.190750 0.8400 0.8370 0.8340 0.8300 0.8260
1602.302579 0.8230 0.8200 0.8190 0.8090 0.8010
1607.414408 0.7950 0.7900 0.7860 0.7840 0.7820
1612.526236 0.7800 0.7790 0.7770 0.7720 0.7660
1617.638065 0.7530 0.7440 0.7370 0.7210 0.7140
1622.749893 0.7100 0.6950 0.6860 0.6810 0.6631
1627.861722 0.6589 0.6260 0.6169 0.5620 0.5540
1632.973551 0.5470 0.5400 0.5031 0.4751 0.4351
1638.085379 0.4089 0.3619 0.3220 0.2810 0.2640
1643.197208 0.2120 0.2110 0.2130 0.2399 0.2669
1648.309036 0.3322 0.4491 0.4861 0.6080 0.6490
1653.420865 0.6710 0.6800 0.6930 0.7259 0.7439
1658.532694 0.7540 0.7650 0.7870 0.7950 0.7980
1663.644522 0.8060 0.8120 0.8160 0.8170 0.8220
1668.756351 0.8260 0.8280 0.8330 0.8350 0.8370
1673.868179 0.8370 0.8380 0.8410 0.8440 0.8450
1678.980008 0.8490 0.8510 0.8520 0.8530 0.8550
1684.091837 0.8560 0.8560 0.8560 0.8570 0.8570
1689.203665 0.8570 0.8570 0.8570 0.8590 0.8590
1694.315494 0.8590 0.8600 0.8620 0.8620 0.8630
1699.427322 0.8640 0.8660 0.8670 0.8670 0.8670
1704.539151 0.8680 0.8680 0.8700 0.8700 0.8700
1709.650980 0.8710 0.8710 0.8710 0.8710 0.8710
1714.762808 0.8710 0.8710 0.8710 0.8710 0.8730
1719.874637 0.8730 0.8740 0.8740 0.8740 0.8740
1724.986465 0.8740 0.8740 0.8740 0.8740 0.8740
1730.098294 0.8740 0.8740 0.8730 0.8730 0.8710
1735.210123 0.8710 0.8710 0.8700 0.8680 0.8680
1740.321951 0.8670 0.8670 0.8670 0.8670 0.8660
1745.433780 0.8660 0.8660 0.8660 0.8640 0.8640
1750.545608 0.8640 0.8630 0.8620 0.8600 0.8590
1755.657437 0.8560 0.8530 0.8520 0.8480 0.8450
1760.769266 0.8400 0.8380 0.8380 0.8370 0.8310
1765.881094 0.8240 0.8160 0.8060 0.7950 0.7880
1770.992923 0.7820 0.7770 0.7760 0.7730 0.7720
1776.104751 0.7720 0.7720 0.7760 0.7790 0.7820
1781.216580 0.7840 0.7900 0.7970 0.8120 0.8160
1786.328409 0.8240 0.8300 0.8350 0.8400 0.8490
1791.440237 0.8510 0.8550 0.8570 0.8600 0.8630
1796.552066 0.8660 0.8680 0.8700 0.8730 0.8730
1801.663894 0.8740 0.8740 0.8740 0.8740 0.8740
1806.775723 0.8740 0.8740 0.8750 0.8750 0.8750
1811.887552 0.8750 0.8750 0.8750 0.8750 0.8750
1816.999380 0.8770 0.8770 0.8780 0.8800 0.8810
1822.111209 0.8810 0.8820 0.8820 0.8820 0.8820
1827.223038 0.8820 0.8810 0.8810 0.8810 0.8810
1832.334866 0.8810 0.8810 0.8810 0.8810 0.8810
1837.446695 0.8810 0.8810 0.8810 0.8810 0.8810
1842.558523 0.8810 0.8810 0.8810 0.8820 0.8820
1847.670352 0.8820 0.8820 0.8820 0.8820 0.8820
1852.782181 0.8820 0.8820 0.8820 0.8820 0.8840
1857.894009 0.8840 0.8850 0.8850 0.8850 0.8860
1863.005838 0.8860 0.8860 0.8860 0.8860 0.8860
1868.117666 0.8860 0.8860 0.8860 0.8860 0.8860
1873.229495 0.8860 0.8860 0.8860 0.8860 0.8880
1878.341324 0.8880 0.8880 0.8880 0.8880 0.8890
1883.453152 0.8890 0.8890 0.8910 0.8910 0.8910
1888.564981 0.8910 0.8910 0.8910 0.8910 0.8910
1893.676809 0.8910 0.8890 0.8890 0.8890 0.8880
1898.788638 0.8860 0.8860 0.8860 0.8860 0.8860
1903.900467 0.8860 0.8860 0.8860 0.8860 0.8860
1909.012295 0.8860 0.8860 0.8860 0.8860 0.8860
1914.124124 0.8860 0.8860 0.8860 0.8860 0.8880
1919.235952 0.8890 0.8890 0.8890 0.8890 0.8890
1924.347781 0.8890 0.8910 0.8910 0.8910 0.8910
1929.459610 0.8910 0.8910 0.8910 0.8910 0.8910
1934.571438 0.8910 0.8910 0.8910 0.8910 0.8910
1939.683267 0.8910 0.8910 0.8890 0.8890 0.8890
1944.795095 0.8890 0.8890 0.8890 0.8890 0.8890
1949.906924 0.8890 0.8890 0.8890 0.8890 0.8890
1955.018753 0.8890 0.8890 0.8890 0.8890 0.8890
1960.130581 0.8890 0.8890 0.8890 0.8890 0.8890
1965.242410 0.8890 0.8890 0.8890 0.8890 0.8890
1970.354238 0.8890 0.8890 0.8890 0.8890 0.8910
1975.466067 0.8910 0.8910 0.8910 0.8910 0.8910
1980.577896 0.8910 0.8920 0.8920 0.8920 0.8920
1985.689724 0.8930 0.8930 0.8930 0.8930 0.8930
1990.801553 0.8930 0.8950 0.8950 0.8950 0.8950
1995.913381 0.8950 0.8960 0.8960 0.8970 0.8970
2001.025210 0.8970 0.8970 0.8970 0.8970 0.8970
2006.137039 0.8970 0.8970 0.8970 0.8965 0.8960
2011.248867 0.8955 0.8950 0.8950 0.8950 0.8950
2016.360696 0.8949 0.8939 0.8930 0.8930 0.8929
2021.472524 0.8924 0.8920 0.8920 0.8920 0.8920
2026.584353 0.8919 0.8914 0.8910 0.8910 0.8910
2031.696182 0.8910 0.8910 0.8910 0.8908 0.8898
2036.808010 0.8890 0.8890 0.8889 0.8884 0.8880
2041.919839 0.8880 0.8881 0.8887 0.8890 0.8890
2047.031667 0.8890 0.8890 0.8893 0.8903 0.8910
2052.143496 0.8910 0.8910 0.8910 0.8910 0.8910
2057.255325 0.8910 0.8910 0.8910 0.8910 0.8910
2062.367153 0.8910 0.8910 0.8910 0.8910 0.8910
2067.478982 0.8910 0.8910 0.8910 0.8910 0.8905
2072.590810 0.8895 0.8890 0.8890 0.8890 0.8890
2077.702639 0.8890 0.8890 0.8887 0.8882 0.8880
2082.814468 0.8880 0.8880 0.8880 0.8880 0.8880
2087.926296 0.8874 0.8864 0.8860 0.8860 0.8860
2093.038125 0.8860 0.8857 0.8852 0.8850 0.8850
2098.149953 0.8850 0.8850 0.8847 0.8842 0.8840
2103.261782 0.8840 0.8840 0.8840 0.8840 0.8840
2108.373611 0.8833 0.8823 0.8820 0.8820 0.8820
2113.485439 0.8820 0.8820 0.8820 0.8820 0.8820
2118.597268 0.8820 0.8820 0.8820 0.8820 0.8820
2123.709096 0.8820 0.8820 0.8820 0.8820 0.8820
2128.820925 0.8820 0.8820 0.8820 0.8820 0.8820
2133.932754 0.8820 0.8820 0.8820 0.8820 0.8820
2139.044582 0.8820 0.8820 0.8820 0.8820 0.8820
2144.156411 0.8820 0.8820 0.8820 0.8820 0.8820
2149.268239 0.8820 0.8820 0.8820 0.8820 0.8820
2154.380068 0.8820 0.8820 0.8820 0.8820 0.8820
2159.491897 0.8820 0.8820 0.8820 0.8819 0.8814
2164.603725 0.8810 0.8810 0.8810 0.8810 0.8810
2169.715554 0.8810 0.8809 0.8804 0.8800 0.8800
2174.827382 0.8800 0.8800 0.8800 0.8800 0.8800
2179.939211 0.8800 0.8798 0.8788 0.8780 0.8780
2185.051040 0.8779 0.8774 0.8770 0.8770 0.8770
2190.162868 0.8770 0.8770 0.8770 0.8770 0.8770
2195.274697 0.8770 0.8770 0.8772 0.8777 0.8784
2200.386525 0.8794 0.8802 0.8807 0.8810 0.8810
2205.498354 0.8810 0.8810 0.8810 0.8810 0.8810
2210.610183 0.8810 0.8810 0.8810 0.8810 0.8810
2215.722011 0.8810 0.8810 0.8810 0.8810 0.8810
2220.833840 0.8810 0.8810 0.8810 0.8810 0.8810
2225.945668 0.8810 0.8810 0.8810 0.8810 0.8810
2231.057497 0.8810 0.8810 0.8810 0.8810 0.8810
2236.169326 0.8810 0.8810 0.8810 0.8810 0.8810
2241.281154 0.8810 0.8810 0.8810 0.8810 0.8810
2246.392983 0.8810 0.8810 0.8810 0.8810 0.8810
2251.504811 0.8810 0.8810 0.8810 0.8810 0.8810
2256.616640 0.8810 0.8810 0.8810 0.8810 0.8810
2261.728469 0.8810 0.8810 0.8810 0.8810 0.8810
2266.840297 0.8806 0.8801 0.8800 0.8800 0.8800
2271.952126 0.8800 0.8800 0.8800 0.8800 0.8800
2277.063954 0.8800 0.8800 0.8800 0.8800 0.8800
2282.175783 0.8800 0.8800 0.8800 0.8800 0.8800
2287.287612 0.8800 0.8800 0.8800 0.8800 0.8800
2292.399440 0.8800 0.8800 0.8800 0.8800 0.8800
2297.511269 0.8790 0.8780 0.8775 0.8769 0.8759
2302.623097 0.8750 0.8750 0.8750 0.8744 0.8740
