##TITLE=Cyclopropylamine
##JCAMP-DX=4.24
##DATA TYPE=INFRARED SPECTRUM
##CLASS=COBLENTZ
##ORIGIN=DOW CHEMICAL COMPANY
##OWNER=Copyright (C) 1987 by the Coblentz Society
Collection (C) 2018 copyright by the U.S. Secretary of Commerce
on behalf of the United States of America. All rights reserved.
##DATE=1964
##NAMES=cyclopropanamine
CYCLOPROPANAMINE
##CAS REGISTRY NO=765-30-0
##MOLFORM=C3 H7 N
##SOURCE REFERENCE=COBLENTZ NO. 8808
##$NIST SOURCE=COBLENTZ
##$NIST IMAGE=cob8808
##SPECTROMETER/DATA SYSTEM=DOW KBr FOREPRISM-GRATING
##INSTRUMENT PARAMETERS=GRATING CHANGED AT 5.0, 7.5, 15.0 MICRON
##STATE=GAS (35 mmHg, N2 ADDED, TOTAL PRESSURE 600 mmHg)
##PATH LENGTH=10 CM
##SAMPLING PROCEDURE=TRANSMISSION
##RESOLUTION=2
##DATA PROCESSING=DIGITIZED BY COBLENTZ SOCIETY (BATCH II) FROM HARD COPY
##XUNITS=1/CM
##YUNITS=TRANSMITTANCE
##XFACTOR=1.0
##YFACTOR=1
##FIRSTX=389
##LASTX=3790
##FIRSTY=0.5674
##MAXX=3790
##MINX=389
##MAXY=0.9
##MINY=0.0013
##NPOINTS=3402
##XYDATA=(X++(Y..Y))
389.000000 0.5674 0.5675 0.5676 0.5677 0.5678
394.000000 0.5679 0.5680 0.5681 0.5682 0.5683
399.000000 0.5684 0.5685 0.5686 0.5687 0.5690
404.000000 0.5713 0.5736 0.5760 0.5783 0.5806
409.000000 0.5843 0.5895 0.5948 0.6001 0.6054
414.000000 0.6107 0.6165 0.6223 0.6281 0.6338
419.000000 0.6396 0.6454 0.6509 0.6562 0.6615
424.000000 0.6669 0.6722 0.6775 0.6828 0.6881
429.000000 0.6951 0.7025 0.7098 0.7171 0.7244
434.000000 0.7317 0.7376 0.7424 0.7473 0.7521
439.000000 0.7569 0.7617 0.7665 0.7714 0.7754
444.000000 0.7779 0.7804 0.7829 0.7855 0.7880
449.000000 0.7905 0.7930 0.7955 0.7981 0.8006
454.000000 0.8031 0.8049 0.8068 0.8087 0.8105
459.000000 0.8124 0.8143 0.8162 0.8177 0.8190
464.000000 0.8202 0.8214 0.8227 0.8239 0.8251
469.000000 0.8264 0.8276 0.8288 0.8301 0.8313
474.000000 0.8326 0.8340 0.8342 0.8337 0.8332
479.000000 0.8327 0.8322 0.8317 0.8301 0.8286
484.000000 0.8277 0.8286 0.8295 0.8323 0.8351
489.000000 0.8379 0.8406 0.8409 0.8413 0.8416
494.000000 0.8421 0.8409 0.8387 0.8365 0.8336
499.000000 0.8280 0.8225 0.8222 0.8241 0.8287
504.000000 0.8333 0.8380 0.8402 0.8410 0.8405
509.000000 0.8393 0.8380 0.8368 0.8356 0.8351
514.000000 0.8352 0.8352 0.8353 0.8354 0.8354
519.000000 0.8362 0.8379 0.8396 0.8406 0.8307
524.000000 0.8208 0.8108 0.8009 0.7910 0.7811
529.000000 0.7730 0.7733 0.7971 0.8276 0.8470
534.000000 0.8475 0.8480 0.8481 0.8465 0.8427
539.000000 0.8358 0.8343 0.8336 0.8389 0.8550
544.000000 0.8598 0.8642 0.8655 0.8668 0.8680
549.000000 0.8693 0.8705 0.8717 0.8729 0.8741
554.000000 0.8753 0.8765 0.8776 0.8787 0.8799
559.000000 0.8810 0.8821 0.8833 0.8845 0.8857
564.000000 0.8869 0.8882 0.8894 0.8906 0.8917
569.000000 0.8927 0.8937 0.8947 0.8957 0.8967
574.000000 0.8977 0.8987 0.8986 0.8983 0.8981
579.000000 0.8978 0.9000 0.8973 0.8970 0.8968
584.000000 0.8965 0.8963 0.8960 0.8958 0.8952
589.000000 0.8945 0.8938 0.8932 0.8925 0.8919
594.000000 0.8907 0.8895 0.8882 0.8870 0.8858
599.000000 0.8846 0.8833 0.8821 0.8809 0.8796
604.000000 0.8781 0.8765 0.8750 0.8734 0.8719
609.000000 0.8703 0.8687 0.8672 0.8656 0.8641
614.000000 0.8625 0.8610 0.8596 0.8581 0.8566
619.000000 0.8551 0.8536 0.8521 0.8506 0.8491
624.000000 0.8476 0.8461 0.8445 0.8430 0.8415
629.000000 0.8399 0.8384 0.8369 0.8354 0.8350
634.000000 0.8346 0.8342 0.8338 0.8334 0.8328
639.000000 0.8313 0.8297 0.8281 0.8266 0.8255
644.000000 0.8244 0.8233 0.8222 0.8211 0.8200
649.000000 0.8189 0.8126 0.8167 0.8175 0.8192
654.000000 0.8208 0.8221 0.8233 0.8245 0.8256
659.000000 0.8253 0.8237 0.8211 0.8108 0.8004
664.000000 0.7901 0.7797 0.7801 0.7878 0.7999
669.000000 0.8120 0.8242 0.8276 0.8292 0.8307
674.000000 0.8320 0.8334 0.8348 0.8362 0.8378
679.000000 0.8393 0.8409 0.8416 0.8414 0.8412
684.000000 0.8410 0.8388 0.8348 0.8308 0.8263
689.000000 0.8281 0.8305 0.8329 0.8320 0.8269
694.000000 0.8207 0.8137 0.8064 0.7989 0.7913
699.000000 0.7710 0.7606 0.7529 0.7451 0.7366
704.000000 0.7253 0.7139 0.7026 0.6921 0.6830
709.000000 0.6739 0.6649 0.6524 0.6305 0.6085
714.000000 0.5793 0.5449 0.5215 0.4980 0.4799
719.000000 0.4626 0.4454 0.4050 0.3848 0.3682
724.000000 0.3488 0.3304 0.3215 0.3126 0.3042
729.000000 0.2967 0.2881 0.2666 0.2219 0.2006
734.000000 0.1898 0.1790 0.1682 0.1567 0.1449
739.000000 0.1331 0.1217 0.1149 0.1080 0.1012
744.000000 0.0944 0.0878 0.0833 0.0788 0.0691
749.000000 0.0586 0.0418 0.0248 0.0118 0.0115
754.000000 0.0123 0.0218 0.0367 0.0516 0.0625
759.000000 0.0617 0.0624 0.0586 0.0494 0.0401
764.000000 0.0309 0.0216 0.0124 0.0013 0.0064
769.000000 0.1044 0.1043 0.0980 0.0856 0.0780
774.000000 0.0791 0.0803 0.0837 0.0887 0.0960
779.000000 0.1033 0.1117 0.1203 0.1289 0.1393
784.000000 0.1507 0.1621 0.1876 0.2117 0.2326
789.000000 0.2534 0.2743 0.2951 0.3160 0.3368
794.000000 0.3577 0.3785 0.3994 0.4202 0.4411
799.000000 0.4619 0.4828 0.5036 0.5242 0.5312
804.000000 0.5384 0.5519 0.5654 0.5761 0.5858
809.000000 0.5955 0.6001 0.6038 0.6057 0.6061
814.000000 0.5909 0.5744 0.5579 0.5414 0.5249
819.000000 0.5084 0.6324 0.4996 0.6195 0.5882
824.000000 0.5569 0.5338 0.5332 0.5492 0.5678
829.000000 0.5863 0.6037 0.6039 0.6083 0.6193
834.000000 0.6303 0.6412 0.6522 0.6587 0.6594
839.000000 0.6601 0.6609 0.6626 0.6643 0.6681
844.000000 0.6734 0.6838 0.6947 0.7058 0.7156
849.000000 0.7240 0.7324 0.7407 0.7482 0.7544
854.000000 0.7606 0.7669 0.7731 0.7794 0.7836
859.000000 0.7872 0.7908 0.7944 0.7980 0.7985
864.000000 0.7988 0.7991 0.8025 0.7978 0.7962
869.000000 0.7946 0.7923 0.7890 0.7856 0.7823
874.000000 0.7786 0.7747 0.7708 0.7669 0.7630
879.000000 0.7586 0.7541 0.7508 0.7496 0.7601
884.000000 0.7741 0.7882 0.8023 0.8110 0.8128
889.000000 0.7934 0.7579 0.7224 0.7105 0.7110
894.000000 0.7121 0.7118 0.7155 0.7172 0.7189
899.000000 0.7207 0.7229 0.7252 0.7274 0.7298
904.000000 0.7334 0.7371 0.7407 0.7443 0.7489
909.000000 0.7536 0.7583 0.7630 0.7690 0.7760
914.000000 0.7822 0.7870 0.7918 0.7966 0.8014
919.000000 0.8056 0.8099 0.8141 0.8183 0.8226
924.000000 0.8269 0.8311 0.8354 0.8395 0.8431
929.000000 0.8468 0.8504 0.8540 0.8578 0.8620
934.000000 0.8663 0.8706 0.8744 0.8767 0.8789
939.000000 0.8812 0.8835 0.8855 0.8861 0.8867
944.000000 0.8873 0.8877 0.8878 0.8879 0.8879
949.000000 0.8880 0.8880 0.8877 0.8874 0.8912
954.000000 0.8867 0.8864 0.8861 0.8858 0.8850
959.000000 0.8842 0.8833 0.8825 0.8816 0.8808
964.000000 0.8795 0.8777 0.8759 0.8741 0.8723
969.000000 0.8705 0.8687 0.8668 0.8650 0.8629
974.000000 0.8604 0.8580 0.8555 0.8530 0.8506
979.000000 0.8480 0.8443 0.8405 0.8368 0.8330
984.000000 0.8293 0.8234 0.8152 0.8070 0.7989
989.000000 0.7887 0.7773 0.7659 0.7531 0.7394
994.000000 0.7257 0.7129 0.7002 0.6856 0.6604
999.000000 0.6351 0.6098 0.5845 0.5592 0.5339
1004.000000 0.5166 0.5080 0.5008 0.4964 0.4951
1009.000000 0.4939 0.4916 0.4934 0.4940 0.4963
1014.000000 0.5021 0.5192 0.5363 0.5534 0.5544
1019.000000 0.4870 0.4055 0.3240 0.1785 0.1835
1024.000000 0.6432 0.6449 0.6064 0.5855 0.5646
1029.000000 0.5437 0.5228 0.5019 0.4810 0.4629
1034.000000 0.4641 0.4834 0.4978 0.5121 0.5264
1039.000000 0.5403 0.5489 0.5955 0.6680 0.6993
1044.000000 0.7143 0.7276 0.7401 0.7494 0.7569
1049.000000 0.7644 0.7719 0.7773 0.7826 0.7878
1054.000000 0.7931 0.7984 0.8038 0.8092 0.8146
1059.000000 0.8200 0.8242 0.8281 0.8319 0.8358
1064.000000 0.8397 0.8433 0.8457 0.8481 0.8505
1069.000000 0.8529 0.8549 0.8559 0.8570 0.8581
1074.000000 0.8592 0.8603 0.8614 0.8625 0.8637
1079.000000 0.8648 0.8660 0.8671 0.8676 0.8677
1084.000000 0.8678 0.8679 0.8679 0.8679 0.8681
1089.000000 0.8717 0.8684 0.8686 0.8687 0.8688
1094.000000 0.8688 0.8689 0.8690 0.8691 0.8691
1099.000000 0.8692 0.8693 0.8693 0.8703 0.8733
1104.000000 0.8759 0.8773 0.8766 0.8753 0.8735
1109.000000 0.8691 0.8636 0.8604 0.8599 0.8594
1114.000000 0.8589 0.8585 0.8580 0.8578 0.8579
1119.000000 0.8580 0.8581 0.8576 0.8571 0.8565
1124.000000 0.8560 0.8554 0.8548 0.8543 0.8532
1129.000000 0.8520 0.8539 0.8563 0.8586 0.8600
1134.000000 0.8583 0.8567 0.8549 0.8528 0.8507
1139.000000 0.8486 0.8450 0.8415 0.8371 0.8321
1144.000000 0.8261 0.8181 0.8126 0.8083 0.8039
1149.000000 0.7996 0.7946 0.7891 0.7878 0.7895
1154.000000 0.7907 0.7920 0.7929 0.7909 0.7947
1159.000000 0.7977 0.8028 0.8074 0.8101 0.8100
1164.000000 0.8099 0.8098 0.8098 0.8081 0.8056
1169.000000 0.8001 0.7834 0.7755 0.7757 0.7830
1174.000000 0.7919 0.8007 0.8096 0.8184 0.8213
1179.000000 0.8222 0.8231 0.8239 0.8248 0.8257
1184.000000 0.8266 0.8275 0.8284 0.8295 0.8306
1189.000000 0.8312 0.8299 0.8284 0.8270 0.8252
1194.000000 0.8222 0.8193 0.8145 0.8097 0.8050
1199.000000 0.8020 0.7991 0.7963 0.7934 0.7894
1204.000000 0.7806 0.7719 0.7631 0.7543 0.7455
1209.000000 0.7367 0.7279 0.7191 0.7103 0.7061
1214.000000 0.7058 0.7047 0.7215 0.7372 0.7530
1219.000000 0.7688 0.7775 0.7730 0.7681 0.7629
1224.000000 0.7543 0.7445 0.7426 0.7438 0.7534
1229.000000 0.7629 0.7725 0.7731 0.7737 0.7740
1234.000000 0.7743 0.7798 0.7862 0.7916 0.7927
1239.000000 0.7939 0.7951 0.7965 0.7985 0.8008
1244.000000 0.8115 0.8143 0.8160 0.8173 0.8140
1249.000000 0.8108 0.8009 0.7956 0.7949 0.8134
1254.000000 0.8377 0.8506 0.8467 0.8470 0.8467
1259.000000 0.8464 0.8459 0.8451 0.8444 0.8436
1264.000000 0.8422 0.8409 0.8395 0.8379 0.8358
1269.000000 0.8338 0.8317 0.8297 0.8277 0.8261
1274.000000 0.8249 0.8238 0.8227 0.8215 0.8214
1279.000000 0.8216 0.8217 0.8219 0.8232 0.8248
1284.000000 0.8251 0.8245 0.8238 0.8216 0.8193
1289.000000 0.8050 0.7875 0.7699 0.7614 0.7574
1294.000000 0.8389 0.8362 0.8357 0.8351 0.8337
1299.000000 0.8313 0.8275 0.8228 0.8168 0.8134
1304.000000 0.8118 0.8115 0.8120 0.8134 0.8151
1309.000000 0.8185 0.8223 0.8267 0.8310 0.8353
1314.000000 0.8396 0.8434 0.8472 0.8510 0.8540
1319.000000 0.8546 0.8551 0.8557 0.8569 0.8556
1324.000000 0.8552 0.8549 0.8545 0.8541 0.8538
1329.000000 0.8535 0.8565 0.8632 0.8689 0.8696
1334.000000 0.8694 0.8689 0.8679 0.8644 0.8586
1339.000000 0.8509 0.8421 0.8312 0.8191 0.8052
1344.000000 0.7932 0.7831 0.7729 0.7545 0.7340
1349.000000 0.7134 0.6929 0.6724 0.6519 0.6313
1354.000000 0.6108 0.5865 0.5607 0.5381 0.5182
1359.000000 0.4991 0.4849 0.4713 0.4577 0.4347
1364.000000 0.4069 0.4069 0.4057 0.4126 0.4281
1369.000000 0.4348 0.4412 0.4371 0.4362 0.4330
1374.000000 0.3216 0.3201 0.3187 0.3764 0.4049
1379.000000 0.4095 0.3369 0.3124 0.4812 0.4672
1384.000000 0.4567 0.4463 0.4359 0.4254 0.4191
1389.000000 0.4180 0.4152 0.4186 0.4414 0.4643
1394.000000 0.4871 0.5100 0.5328 0.5556 0.5785
1399.000000 0.6013 0.6241 0.6470 0.6698 0.6926
1404.000000 0.7106 0.7260 0.7457 0.7619 0.7712
1409.000000 0.7790 0.7849 0.7892 0.7917 0.7949
1414.000000 0.7952 0.7950 0.7949 0.7941 0.7927
1419.000000 0.7890 0.7806 0.7722 0.7639 0.7597
1424.000000 0.7557 0.7701 0.7846 0.7971 0.7991
1429.000000 0.8001 0.8002 0.7994 0.7942 0.7845
1434.000000 0.7738 0.7628 0.7506 0.7374 0.7267
1439.000000 0.7174 0.7065 0.6874 0.6435 0.6268
1444.000000 0.6140 0.6061 0.5982 0.5903 0.5824
1449.000000 0.5744 0.5691 0.5684 0.5684 0.5661
1454.000000 0.5785 0.5865 0.5944 0.6058 0.6069
1459.000000 0.5844 0.5074 0.4304 0.3656 0.3648
1464.000000 0.6558 0.6536 0.6172 0.5964 0.5757
1469.000000 0.5549 0.5501 0.5544 0.5525 0.5780
1474.000000 0.5898 0.5919 0.5937 0.5965 0.6134
1479.000000 0.6302 0.6471 0.6639 0.6808 0.6976
1484.000000 0.7134 0.7274 0.7614 0.7855 0.8094
1489.000000 0.8321 0.8479 0.8562 0.8646 0.8717
1494.000000 0.8763 0.8810 0.8808 0.8750 0.8671
1499.000000 0.8610 0.8558 0.8882 0.8575 0.8661
1504.000000 0.8880 0.8915 0.8868 0.8813 0.8740
1509.000000 0.8647 0.8534 0.8459 0.8461 0.8485
1514.000000 0.8570 0.8657 0.8740 0.8795 0.8818
1519.000000 0.8830 0.8838 0.8803 0.8703 0.8600
1524.000000 0.8497 0.8435 0.8450 0.8496 0.8549
1529.000000 0.8622 0.8703 0.8771 0.8819 0.8835
1534.000000 0.8841 0.8840 0.8838 0.8834 0.8827
1539.000000 0.8819 0.8812 0.8768 0.8676 0.8554
1544.000000 0.8463 0.8461 0.8470 0.8505 0.8664
1549.000000 0.8747 0.8786 0.8810 0.8818 0.8825
1554.000000 0.8824 0.8823 0.8803 0.8754 0.8705
1559.000000 0.8656 0.8607 0.8467 0.8326 0.8172
1564.000000 0.8164 0.8311 0.8565 0.8609 0.8606
1569.000000 0.8605 0.8583 0.8536 0.8472 0.8410
1574.000000 0.8389 0.8443 0.8497 0.8507 0.8486
1579.000000 0.8358 0.8157 0.8201 0.8326 0.8367
1584.000000 0.8317 0.8270 0.8224 0.8178 0.8132
1589.000000 0.8083 0.8029 0.7975 0.7921 0.7867
1594.000000 0.7795 0.7724 0.7652 0.7581 0.7502
1599.000000 0.7411 0.7319 0.7227 0.7135 0.7027
1604.000000 0.6891 0.6755 0.6612 0.6469 0.6379
1609.000000 0.6290 0.6219 0.6153 0.6161 0.6183
1614.000000 0.6208 0.6215 0.6184 0.6085 0.5795
1619.000000 0.5442 0.5088 0.5064 0.5534 0.5857
1624.000000 0.6027 0.6018 0.5971 0.5901 0.5821
1629.000000 0.5709 0.5630 0.5629 0.5627 0.5653
1634.000000 0.5818 0.5979 0.6064 0.6041 0.5931
1639.000000 0.5854 0.5858 0.6390 0.6922 0.7372
1644.000000 0.7366 0.7301 0.7233 0.7203 0.7230
1649.000000 0.7312 0.7485 0.7586 0.7636 0.7372
1654.000000 0.7178 0.7260 0.7443 0.7626 0.7810
1659.000000 0.7955 0.8083 0.8234 0.8360 0.8473
1664.000000 0.8549 0.8625 0.8696 0.8737 0.8727
1669.000000 0.8651 0.8570 0.8497 0.8497 0.8807
1674.000000 0.8842 0.8693 0.8551 0.8551 0.8952
1679.000000 0.8951 0.8948 0.8925 0.8814 0.8613
1684.000000 0.8411 0.8404 0.8628 0.8898 0.8967
1689.000000 0.8968 0.8970 0.8929 0.8822 0.8714
1694.000000 0.8607 0.8500 0.8392 0.8401 0.8867
1699.000000 0.8870 0.8481 0.8160 0.8185 0.8743
1704.000000 0.8881 0.8897 0.8907 0.8916 0.8920
1709.000000 0.8920 0.8920 0.8919 0.8882 0.8836
1714.000000 0.8787 0.8738 0.8674 0.8699 0.8830
1719.000000 0.8884 0.8908 0.8930 0.8927 0.8923
1724.000000 0.8919 0.8914 0.8909 0.8904 0.8823
1729.000000 0.8734 0.8645 0.8557 0.8488 0.8501
1734.000000 0.8603 0.8704 0.8806 0.8842 0.8845
1739.000000 0.8842 0.8838 0.8834 0.8830 0.8826
1744.000000 0.8818 0.8810 0.8802 0.8795 0.8789
1749.000000 0.8783 0.8777 0.8772 0.8767 0.8761
1754.000000 0.8756 0.8750 0.8745 0.8740 0.8734
1759.000000 0.8729 0.8723 0.8715 0.8703 0.8693
1764.000000 0.8683 0.8670 0.8656 0.8616 0.8589
1769.000000 0.8564 0.8548 0.8570 0.8592 0.8614
1774.000000 0.8636 0.8655 0.8671 0.8678 0.8671
1779.000000 0.8663 0.8653 0.8643 0.8634 0.8623
1784.000000 0.8611 0.8599 0.8587 0.8575 0.8566
1789.000000 0.8556 0.8555 0.8569 0.8600 0.8644
1794.000000 0.8701 0.8734 0.8752 0.8764 0.8776
1799.000000 0.8786 0.8794 0.8802 0.8809 0.8814
1804.000000 0.8816 0.8819 0.8822 0.8824 0.8827
1809.000000 0.8826 0.8826 0.8825 0.8824 0.8824
1814.000000 0.8823 0.8820 0.8818 0.8815 0.8813
1819.000000 0.8810 0.8808 0.8805 0.8802 0.8797
1824.000000 0.8792 0.8787 0.8783 0.8778 0.8773
1829.000000 0.8768 0.8763 0.8757 0.8750 0.8744
1834.000000 0.8738 0.8731 0.8725 0.8714 0.8696
1839.000000 0.8679 0.8658 0.8616 0.8595 0.8606
1844.000000 0.8637 0.8656 0.8656 0.8656 0.8652
1849.000000 0.8647 0.8643 0.8638 0.8633 0.8629
1854.000000 0.8624 0.8620 0.8615 0.8611 0.8607
1859.000000 0.8603 0.8599 0.8595 0.8591 0.8587
1864.000000 0.8583 0.8579 0.8585 0.8598 0.8610
1869.000000 0.8620 0.8627 0.8631 0.8635 0.8635
1874.000000 0.8635 0.8636 0.8637 0.8638 0.8641
1879.000000 0.8649 0.8655 0.8657 0.8658 0.8655
1884.000000 0.8653 0.8651 0.8653 0.8656 0.8662
1889.000000 0.8672 0.8682 0.8691 0.8698 0.8704
1894.000000 0.8709 0.8714 0.8719 0.8723 0.8725
1899.000000 0.8726 0.8728 0.8729 0.8731 0.8729
1904.000000 0.8727 0.8725 0.8722 0.8720 0.8718
1909.000000 0.8715 0.8713 0.8710 0.8708 0.8707
1914.000000 0.8706 0.8705 0.8705 0.8704 0.8703
1919.000000 0.8711 0.8722 0.8732 0.8743 0.8752
1924.000000 0.8761 0.8766 0.8769 0.8772 0.8768
1929.000000 0.8764 0.8760 0.8749 0.8737 0.8729
1934.000000 0.8724 0.8754 0.8777 0.8795 0.8802
1939.000000 0.8802 0.8803 0.8805 0.8806 0.8806
1944.000000 0.8806 0.8806 0.8806 0.8806 0.8805
1949.000000 0.8803 0.8802 0.8800 0.8798 0.8794
1954.000000 0.8791 0.8787 0.8784 0.8781 0.8780
1959.000000 0.8788 0.8799 0.8814 0.8823 0.8820
1964.000000 0.8817 0.8814 0.8810 0.8807 0.8804
1969.000000 0.8801 0.8798 0.8795 0.8792 0.8789
1974.000000 0.8785 0.8782 0.8779 0.8776 0.8773
1979.000000 0.8770 0.8767 0.8764 0.8760 0.8757
1984.000000 0.8754 0.8751 0.8748 0.8745 0.8742
1989.000000 0.8738 0.8730 0.8727 0.8725 0.8723
1994.000000 0.8721 0.8719 0.8718 0.8716 0.8714
1999.000000 0.8712 0.8711 0.8710 0.8709 0.8709
2004.000000 0.8709 0.8708 0.8708 0.8707 0.8706
2009.000000 0.8704 0.8702 0.8700 0.8698 0.8696
2014.000000 0.8694 0.8690 0.8686 0.8679 0.8672
2019.000000 0.8665 0.8658 0.8651 0.8645 0.8638
2024.000000 0.8631 0.8624 0.8617 0.8610 0.8603
2029.000000 0.8595 0.8588 0.8580 0.8572 0.8564
2034.000000 0.8557 0.8549 0.8541 0.8534 0.8527
2039.000000 0.8522 0.8517 0.8512 0.8507 0.8502
2044.000000 0.8498 0.8493 0.8488 0.8484 0.8481
2049.000000 0.8477 0.8473 0.8470 0.8468 0.8469
2054.000000 0.8471 0.8472 0.8474 0.8475 0.8477
2059.000000 0.8478 0.8480 0.8483 0.8487 0.8490
2064.000000 0.8493 0.8496 0.8499 0.8504 0.8509
2069.000000 0.8515 0.8521 0.8527 0.8534 0.8542
2074.000000 0.8551 0.8560 0.8569 0.8577 0.8586
2079.000000 0.8598 0.8611 0.8623 0.8635 0.8645
2084.000000 0.8655 0.8650 0.8646 0.8636 0.8627
2089.000000 0.8609 0.8591 0.8578 0.8565 0.8561
2094.000000 0.8557 0.8555 0.8553 0.8563 0.8573
2099.000000 0.8596 0.8619 0.8642 0.8665 0.8687
2104.000000 0.8710 0.8713 0.8716 0.8717 0.8718
2109.000000 0.8718 0.8719 0.8719 0.8720 0.8720
2114.000000 0.8720 0.8720 0.8720 0.8720 0.8720
2119.000000 0.8720 0.8720 0.8719 0.8718 0.8717
2124.000000 0.8716 0.8715 0.8714 0.8713 0.8713
2129.000000 0.8711 0.8709 0.8707 0.8706 0.8704
2134.000000 0.8703 0.8701 0.8700 0.8698 0.8697
2139.000000 0.8696 0.8696 0.8695 0.8695 0.8694
2144.000000 0.8693 0.8694 0.8695 0.8696 0.8697
2149.000000 0.8698 0.8700 0.8701 0.8703 0.8706
2154.000000 0.8710 0.8714 0.8718 0.8722 0.8727
2159.000000 0.8731 0.8735 0.8739 0.8744 0.8747
2164.000000 0.8751 0.8755 0.8759 0.8762 0.8766
2169.000000 0.8770 0.8774 0.8777 0.8781 0.8783
2174.000000 0.8785 0.8785 0.8786 0.8786 0.8787
2179.000000 0.8787 0.8788 0.8787 0.8787 0.8786
2184.000000 0.8786 0.8785 0.8785 0.8784 0.8783
2189.000000 0.8782 0.8782 0.8781 0.8780 0.8778
2194.000000 0.8777 0.8775 0.8773 0.8771 0.8770
2199.000000 0.8768 0.8767 0.8765 0.8763 0.8761
2204.000000 0.8759 0.8755 0.8752 0.8749 0.8746
2209.000000 0.8742 0.8739 0.8736 0.8733 0.8730
2214.000000 0.8727 0.8723 0.8720 0.8717 0.8714
2219.000000 0.8710 0.8707 0.8704 0.8701 0.8698
2224.000000 0.8695 0.8691 0.8688 0.8685 0.8682
2229.000000 0.8679 0.8676 0.8672 0.8669 0.8667
2234.000000 0.8666 0.8664 0.8663 0.8661 0.8660
2239.000000 0.8658 0.8657 0.8655 0.8654 0.8652
2244.000000 0.8651 0.8649 0.8648 0.8647 0.8646
2249.000000 0.8645 0.8644 0.8643 0.8643 0.8642
2254.000000 0.8642 0.8641 0.8641 0.8641 0.8641
2259.000000 0.8641 0.8642 0.8643 0.8644 0.8644
2264.000000 0.8645 0.8646 0.8647 0.8649 0.8651
2269.000000 0.8654 0.8657 0.8660 0.8664 0.8667
2274.000000 0.8671 0.8675 0.8680 0.8685 0.8690
2279.000000 0.8695 0.8700 0.8705 0.8711 0.8716
2284.000000 0.8721 0.8728 0.8735 0.8742 0.8750
2289.000000 0.8757 0.8765 0.8769 0.8773 0.8776
2294.000000 0.8780 0.8783 0.8786 0.8788 0.8790
2299.000000 0.8789 0.8789 0.8789 0.8789 0.8788
2304.000000 0.8788 0.8787 0.8787 0.8787 0.8787
2309.000000 0.8786 0.8786 0.8784 0.8782 0.8779
2314.000000 0.8777 0.8775 0.8773 0.8771 0.8769
2319.000000 0.8767 0.8765 0.8763 0.8761 0.8759
2324.000000 0.8757 0.8755 0.8753 0.8750 0.8748
2329.000000 0.8745 0.8743 0.8741 0.8739 0.8739
2334.000000 0.8739 0.8739 0.8739 0.8739 0.8739
2339.000000 0.8739 0.8740 0.8743 0.8746 0.8748
2344.000000 0.8751 0.8754 0.8757 0.8760 0.8764
2349.000000 0.8768 0.8772 0.8775 0.8778 0.8779
2354.000000 0.8780 0.8781 0.8783 0.8784 0.8785
2359.000000 0.8786 0.8788 0.8788 0.8789 0.8789
2364.000000 0.8790 0.8790 0.8790 0.8790 0.8791
2369.000000 0.8791 0.8792 0.8792 0.8792 0.8792
2374.000000 0.8792 0.8791 0.8791 0.8790 0.8790
2379.000000 0.8789 0.8789 0.8789 0.8789 0.8787
2384.000000 0.8786 0.8784 0.8783 0.8781 0.8780
2389.000000 0.8778 0.8776 0.8774 0.8773 0.8771
2394.000000 0.8769 0.8767 0.8766 0.8764 0.8762
2399.000000 0.8760 0.8759 0.8757 0.8755 0.8753
2404.000000 0.8752 0.8750 0.8748 0.8746 0.8744
2409.000000 0.8742 0.8741 0.8739 0.8737 0.8735
2414.000000 0.8734 0.8732 0.8730 0.8728 0.8727
2419.000000 0.8725 0.8724 0.8722 0.8721 0.8719
