##TITLE=Glycidaldehyde
##JCAMP-DX=4.24
##DATA TYPE=INFRARED SPECTRUM
##CLASS=COBLENTZ III
##ORIGIN=WESTERN REGIONAL RES. USDA
##OWNER=Copyright (C) 1987 by the Coblentz Society
Collection (C) 2018 copyright by the U.S. Secretary of Commerce
on behalf of the United States of America. All rights reserved.
##DATE=1967/08/28
##NAMES=2-oxiranecarbaldehyde
##CAS REGISTRY NO=765-34-4
##MOLFORM=C3 H4 O2
##SOURCE REFERENCE=COBLENTZ NO. 5805
##$NIST SOURCE=COBLENTZ
##$NIST IMAGE=cob5805
##SPECTROMETER/DATA SYSTEM=CARY 90 (GRATING)
##INSTRUMENT PARAMETERS=ORDER CHANGES: 3000, 2000, 1200 CM^-^1
##STATE=LIQUID (NEAT)
##PATH LENGTH=0.0028 CM
##RESOLUTION=2
##XUNITS=1/CM
##YUNITS=TRANSMITTANCE
##XFACTOR=1.0
##YFACTOR=1
##FIRSTX=446
##LASTX=4000
##FIRSTY=0.8108
##MAXX=4000
##MINX=446
##MAXY=0.9021
##MINY=0.0042
##NPOINTS=3555
##XYDATA=(X++(Y..Y))
446.000000 0.8108 0.8104 0.8175 0.8096 0.8093
451.000000 0.8089 0.8085 0.8081 0.8078 0.8074
456.000000 0.8070 0.8062 0.8053 0.8045 0.8036
461.000000 0.8028 0.8019 0.8009 0.7996 0.7983
466.000000 0.7970 0.7957 0.7944 0.7931 0.7916
471.000000 0.7898 0.7880 0.7862 0.7844 0.7826
476.000000 0.7799 0.7771 0.7743 0.7715 0.7686
481.000000 0.7657 0.7610 0.7563 0.7515 0.7468
486.000000 0.7417 0.7352 0.7287 0.7222 0.7135
491.000000 0.7048 0.6961 0.6874 0.6787 0.6700
496.000000 0.6613 0.6526 0.6439 0.6352 0.6265
501.000000 0.6178 0.6091 0.6004 0.5917 0.5830
506.000000 0.5742 0.5570 0.5444 0.5413 0.5400
511.000000 0.5393 0.5407 0.5505 0.5691 0.5876
516.000000 0.6062 0.6247 0.6433 0.6618 0.6804
521.000000 0.6997 0.7080 0.7146 0.7244 0.7359
526.000000 0.7456 0.7537 0.7618 0.7701 0.7789
531.000000 0.7877 0.7955 0.8002 0.8050 0.8098
536.000000 0.8145 0.8184 0.8214 0.8245 0.8275
541.000000 0.8305 0.8335 0.8362 0.8381 0.8401
546.000000 0.8420 0.8439 0.8458 0.8477 0.8496
551.000000 0.8515 0.8527 0.8536 0.8545 0.8554
556.000000 0.8563 0.8572 0.8581 0.8590 0.8599
561.000000 0.8608 0.8617 0.8622 0.8626 0.8631
566.000000 0.8636 0.8641 0.8646 0.8651 0.8655
571.000000 0.8660 0.8665 0.8670 0.8675 0.8677
576.000000 0.8678 0.8680 0.8681 0.8683 0.8684
581.000000 0.8686 0.8687 0.8689 0.8690 0.8691
586.000000 0.8692 0.8693 0.8694 0.8695 0.8696
591.000000 0.8697 0.8698 0.8699 0.8704 0.8713
596.000000 0.8721 0.8729 0.8738 0.8746 0.8754
601.000000 0.8763 0.8771 0.8776 0.8779 0.8782
606.000000 0.8786 0.8789 0.8792 0.8795 0.8798
611.000000 0.8801 0.8804 0.8807 0.8866 0.8814
616.000000 0.8817 0.8820 0.8823 0.8826 0.8831
621.000000 0.8835 0.8839 0.8843 0.8847 0.8851
626.000000 0.8855 0.8859 0.8863 0.8863 0.8864
631.000000 0.8864 0.8865 0.8865 0.8866 0.8867
636.000000 0.8867 0.8863 0.8859 0.8855 0.8851
641.000000 0.8847 0.8843 0.8839 0.8835 0.8831
646.000000 0.8823 0.8813 0.8803 0.8793 0.8783
651.000000 0.8773 0.8763 0.8753 0.8744 0.8736
656.000000 0.8727 0.8719 0.8710 0.8702 0.8694
661.000000 0.8685 0.8677 0.8665 0.8650 0.8635
666.000000 0.8619 0.8601 0.8580 0.8559 0.8537
671.000000 0.8516 0.8493 0.8461 0.8430 0.8398
676.000000 0.8367 0.8335 0.8304 0.8263 0.8219
681.000000 0.8175 0.8131 0.8088 0.8043 0.7990
686.000000 0.7938 0.7885 0.7832 0.7779 0.7724
691.000000 0.7632 0.7541 0.7449 0.7340 0.7210
696.000000 0.7079 0.6920 0.6698 0.6161 0.5625
701.000000 0.5089 0.4552 0.4016 0.3545 0.3537
706.000000 0.3474 0.3515 0.3777 0.4076 0.4375
711.000000 0.4674 0.4973 0.5273 0.5572 0.5871
716.000000 0.6170 0.6469 0.6768 0.6966 0.7062
721.000000 0.7160 0.7280 0.7399 0.7493 0.7587
726.000000 0.7699 0.7815 0.7866 0.7916 0.7959
731.000000 0.7980 0.8001 0.8017 0.8023 0.8029
736.000000 0.8035 0.8036 0.8056 0.8036 0.8028
741.000000 0.8020 0.8011 0.8001 0.7986 0.7966
746.000000 0.7935 0.7904 0.7859 0.7813 0.7757
751.000000 0.7675 0.7531 0.7387 0.7243 0.7099
756.000000 0.6954 0.6810 0.6666 0.6522 0.6378
761.000000 0.6233 0.6089 0.5322 0.5233 0.5214
766.000000 0.5185 0.5212 0.5369 0.5534 0.5699
771.000000 0.5864 0.6029 0.6194 0.6359 0.6524
776.000000 0.6689 0.6813 0.6891 0.6971 0.7000
781.000000 0.7007 0.7005 0.7024 0.6997 0.6991
786.000000 0.6976 0.6934 0.6841 0.6755 0.6501
791.000000 0.6303 0.6105 0.5908 0.5710 0.5512
796.000000 0.5314 0.5116 0.4918 0.4720 0.4523
801.000000 0.4325 0.4127 0.3929 0.3731 0.3533
806.000000 0.3336 0.3138 0.2940 0.2742 0.2544
811.000000 0.2346 0.2148 0.1951 0.1883 0.1793
816.000000 0.1703 0.1540 0.1343 0.1071 0.0816
821.000000 0.0570 0.0515 0.0460 0.0417 0.0388
826.000000 0.0359 0.0334 0.0308 0.0283 0.0258
831.000000 0.0228 0.0194 0.0160 0.0145 0.0130
836.000000 0.0115 0.0100 0.0092 0.0090 0.0087
841.000000 0.0084 0.0081 0.0078 0.0076 0.0073
846.000000 0.0074 0.0075 0.0076 0.0077 0.0079
851.000000 0.0080 0.0081 0.0082 0.0083 0.0078
856.000000 0.0085 0.0086 0.0087 0.0088 0.0089
861.000000 0.0091 0.0093 0.0095 0.0097 0.0099
866.000000 0.0101 0.0103 0.0105 0.0107 0.0109
871.000000 0.0111 0.0248 0.0393 0.0538 0.0683
876.000000 0.0828 0.0973 0.1118 0.1263 0.1409
881.000000 0.1554 0.1699 0.1808 0.1877 0.1904
886.000000 0.1930 0.1956 0.1980 0.1986 0.1991
891.000000 0.1996 0.2001 0.2005 0.2009 0.2147
896.000000 0.2449 0.2752 0.3054 0.3357 0.3660
901.000000 0.3890 0.4085 0.4261 0.4428 0.4524
906.000000 0.4618 0.4711 0.4801 0.4890 0.4951
911.000000 0.4998 0.5046 0.5074 0.5093 0.5112
916.000000 0.5131 0.5146 0.5149 0.5153 0.5156
921.000000 0.5160 0.5162 0.5158 0.5160 0.5150
926.000000 0.5146 0.5139 0.5126 0.5113 0.5081
931.000000 0.5047 0.4997 0.4946 0.4866 0.4661
936.000000 0.4574 0.4542 0.4516 0.4501 0.4486
941.000000 0.4483 0.4452 0.4479 0.4506 0.4567
946.000000 0.4634 0.4699 0.4761 0.4817 0.4873
951.000000 0.4908 0.4933 0.4943 0.4943 0.4943
956.000000 0.4960 0.4936 0.4931 0.4905 0.4880
961.000000 0.4841 0.4752 0.4693 0.4615 0.4537
966.000000 0.4462 0.4396 0.4336 0.4275 0.4124
971.000000 0.3951 0.3720 0.3529 0.3482 0.3461
976.000000 0.3445 0.3430 0.3262 0.2871 0.2480
981.000000 0.2089 0.1698 0.1307 0.1050 0.0938
986.000000 0.0840 0.0744 0.0637 0.0478 0.0394
991.000000 0.0321 0.0268 0.0253 0.0215 0.0259
996.000000 0.0309 0.0616 0.0922 0.1228 0.1535
1001.000000 0.1841 0.2147 0.2454 0.2760 0.3253
1006.000000 0.3560 0.3719 0.3875 0.4016 0.4154
1011.000000 0.4267 0.4380 0.4460 0.4514 0.4568
1016.000000 0.4621 0.4675 0.4724 0.4771 0.4819
1021.000000 0.4866 0.4913 0.4982 0.5051 0.5114
1026.000000 0.5162 0.5209 0.5257 0.5290 0.5319
1031.000000 0.5348 0.5363 0.5372 0.5381 0.5388
1036.000000 0.5425 0.5388 0.5383 0.5379 0.5374
1041.000000 0.5370 0.5363 0.5350 0.5337 0.5324
1046.000000 0.5304 0.5285 0.5266 0.5246 0.5226
1051.000000 0.5205 0.5185 0.5164 0.5143 0.5123
1056.000000 0.5102 0.5077 0.5051 0.5025 0.4972
1061.000000 0.4905 0.4792 0.4647 0.4534 0.4447
1066.000000 0.4330 0.4247 0.4221 0.4245 0.4287
1071.000000 0.4355 0.4457 0.4573 0.4639 0.4706
1076.000000 0.4794 0.4879 0.4941 0.5003 0.5062
1081.000000 0.5099 0.5135 0.5172 0.5209 0.5245
1086.000000 0.5272 0.5299 0.5326 0.5354 0.5381
1091.000000 0.5405 0.5421 0.5438 0.5455 0.5471
1096.000000 0.5479 0.5488 0.5496 0.5497 0.5571
1101.000000 0.5498 0.5497 0.5490 0.5484 0.5477
1106.000000 0.5462 0.5442 0.5417 0.5385 0.5354
1111.000000 0.5309 0.5264 0.5218 0.5172 0.4900
1116.000000 0.4626 0.4351 0.4076 0.3802 0.3527
1121.000000 0.3253 0.2978 0.2733 0.2500 0.2264
1126.000000 0.2136 0.2008 0.1884 0.1765 0.1689
1131.000000 0.1647 0.1606 0.1594 0.1583 0.1553
1136.000000 0.1584 0.1714 0.1896 0.2077 0.2259
1141.000000 0.2440 0.2622 0.2803 0.2985 0.3175
1146.000000 0.3196 0.3193 0.3191 0.3120 0.2900
1151.000000 0.2680 0.2459 0.2239 0.2019 0.1799
1156.000000 0.1578 0.1358 0.1138 0.0918 0.0698
1161.000000 0.0477 0.0257 0.0205 0.0232 0.0238
1166.000000 0.0318 0.0809 0.1300 0.1792 0.2283
1171.000000 0.2774 0.3265 0.3757 0.4248 0.4591
1176.000000 0.4828 0.4990 0.5150 0.5289 0.5383
1181.000000 0.5486 0.5630 0.5742 0.5833 0.5924
1186.000000 0.6014 0.6070 0.6127 0.6183 0.6232
1191.000000 0.6279 0.6296 0.6303 0.6304 0.6361
1196.000000 0.6215 0.6095 0.5975 0.5855 0.5735
1201.000000 0.5615 0.5495 0.5415 0.5390 0.5367
1206.000000 0.5345 0.5106 0.4833 0.4560 0.4287
1211.000000 0.4014 0.3741 0.3468 0.3195 0.2972
1216.000000 0.2950 0.2918 0.2599 0.2187 0.1776
1221.000000 0.1364 0.0953 0.0541 0.0282 0.0294
1226.000000 0.0291 0.0301 0.0413 0.0953 0.1493
1231.000000 0.2033 0.2572 0.2748 0.2798 0.2816
1236.000000 0.2831 0.2859 0.2894 0.3297 0.3695
1241.000000 0.4094 0.4492 0.4770 0.4861 0.4952
1246.000000 0.5068 0.5189 0.5283 0.5369 0.5455
1251.000000 0.5560 0.5677 0.5794 0.5927 0.6063
1256.000000 0.6169 0.6265 0.6352 0.6425 0.6497
1261.000000 0.6569 0.6634 0.6690 0.6746 0.6802
1266.000000 0.6854 0.6893 0.6932 0.6972 0.7003
1271.000000 0.7024 0.7045 0.7066 0.7084 0.7091
1276.000000 0.7098 0.7106 0.7113 0.7120 0.7122
1281.000000 0.7122 0.7121 0.7120 0.7130 0.7113
1286.000000 0.7110 0.7106 0.7095 0.7084 0.7073
1291.000000 0.7054 0.7031 0.7009 0.6970 0.6902
1296.000000 0.6827 0.6759 0.6694 0.6629 0.6542
1301.000000 0.6428 0.6290 0.6149 0.6029 0.5910
1306.000000 0.5789 0.5664 0.5414 0.5029 0.4643
1311.000000 0.4258 0.3873 0.3487 0.3346 0.3343
1316.000000 0.3342 0.3339 0.3343 0.3345 0.3524
1321.000000 0.3703 0.3882 0.4061 0.4240 0.4419
1326.000000 0.4599 0.4778 0.4957 0.5136 0.5315
1331.000000 0.5494 0.5673 0.5852 0.6031 0.6194
1336.000000 0.6253 0.6314 0.6374 0.6465 0.6603
1341.000000 0.6720 0.6796 0.6873 0.6905 0.6933
1346.000000 0.6942 0.6948 0.6954 0.6955 0.6957
1351.000000 0.6956 0.6955 0.6940 0.6924 0.6908
1356.000000 0.6889 0.6859 0.6795 0.6727 0.6670
1361.000000 0.6613 0.6555 0.6493 0.6430 0.6368
1366.000000 0.6237 0.5428 0.4859 0.4289 0.3929
1371.000000 0.3925 0.3935 0.4164 0.4365 0.4566
1376.000000 0.4767 0.4968 0.5169 0.5197 0.5161
1381.000000 0.4851 0.4621 0.4392 0.4163 0.3934
1386.000000 0.3705 0.3529 0.3505 0.3482 0.3463
1391.000000 0.3449 0.3435 0.3421 0.3232 0.3038
1396.000000 0.2845 0.2651 0.2457 0.2263 0.2070
1401.000000 0.1876 0.1817 0.1818 0.1823 0.2083
1406.000000 0.2576 0.3070 0.3564 0.4058 0.4551
1411.000000 0.5045 0.5539 0.5791 0.5944 0.6087
1416.000000 0.6205 0.6322 0.6411 0.6484 0.6557
1421.000000 0.6631 0.6704 0.6775 0.6834 0.6863
1426.000000 0.6892 0.6921 0.6935 0.6949 0.6962
1431.000000 0.6975 0.6989 0.7002 0.7010 0.7016
1436.000000 0.7023 0.7030 0.7036 0.7043 0.7050
1441.000000 0.7052 0.7052 0.7052 0.7053 0.7053
1446.000000 0.7053 0.7044 0.7032 0.7021 0.7009
1451.000000 0.6998 0.6967 0.6935 0.6901 0.6855
1456.000000 0.6808 0.6753 0.6697 0.6642 0.6560
1461.000000 0.6478 0.6383 0.6258 0.6133 0.6007
1466.000000 0.5882 0.5757 0.5631 0.5506 0.5381
1471.000000 0.5255 0.5130 0.5005 0.4879 0.4754
1476.000000 0.4751 0.4747 0.4896 0.5094 0.5292
1481.000000 0.5490 0.5688 0.5886 0.6084 0.6282
1486.000000 0.6480 0.6678 0.6867 0.6990 0.7113
1491.000000 0.7236 0.7361 0.7429 0.7473 0.7517
1496.000000 0.7561 0.7605 0.7651 0.7702 0.7753
1501.000000 0.7804 0.7853 0.7883 0.7914 0.7945
1506.000000 0.7976 0.8006 0.8031 0.8053 0.8075
1511.000000 0.8097 0.8119 0.8135 0.8144 0.8153
1516.000000 0.8162 0.8171 0.8179 0.8186 0.8190
1521.000000 0.8194 0.8198 0.8201 0.8205 0.8209
1526.000000 0.8213 0.8212 0.8211 0.8210 0.8209
1531.000000 0.8208 0.8208 0.8217 0.8226 0.8236
1536.000000 0.8245 0.8253 0.8259 0.8265 0.8271
1541.000000 0.8277 0.8283 0.8289 0.8294 0.8297
1546.000000 0.8301 0.8304 0.8307 0.8311 0.8314
1551.000000 0.8317 0.8321 0.8324 0.8327 0.8331
1556.000000 0.8328 0.8331 0.8331 0.8330 0.8330
1561.000000 0.8324 0.8314 0.8305 0.8295 0.8286
1566.000000 0.8276 0.8269 0.8261 0.8254 0.8247
1571.000000 0.8239 0.8232 0.8224 0.8217 0.8210
1576.000000 0.8204 0.8199 0.8193 0.8187 0.8182
1581.000000 0.8176 0.8171 0.8164 0.8156 0.8148
1586.000000 0.8139 0.8131 0.8123 0.8114 0.8106
1591.000000 0.8098 0.8089 0.8080 0.8070 0.8059
1596.000000 0.8049 0.8039 0.8029 0.8019 0.8005
1601.000000 0.7990 0.7974 0.7959 0.7943 0.7928
1606.000000 0.7912 0.7897 0.7881 0.7866 0.7850
1611.000000 0.7835 0.7815 0.7786 0.7757 0.7729
1616.000000 0.7700 0.7671 0.7643 0.7611 0.7577
1621.000000 0.7543 0.7509 0.7475 0.7441 0.7407
1626.000000 0.7373 0.7339 0.7280 0.7210 0.7141
1631.000000 0.7074 0.7023 0.6971 0.6920 0.6868
1636.000000 0.6817 0.6766 0.6714 0.6658 0.6597
1641.000000 0.6535 0.6474 0.6412 0.6332 0.6247
1646.000000 0.6162 0.6077 0.5990 0.5902 0.5838
1651.000000 0.5803 0.5769 0.5751 0.5743 0.5736
1656.000000 0.5729 0.5722 0.5715 0.5708 0.5694
1661.000000 0.5602 0.5526 0.5451 0.5389 0.5370
1666.000000 0.5355 0.5340 0.5279 0.5141 0.5004
1671.000000 0.4866 0.4728 0.4590 0.4253 0.4241
1676.000000 0.4228 0.4216 0.3945 0.3721 0.3555
1681.000000 0.3418 0.3281 0.2985 0.2882 0.2779
1686.000000 0.2675 0.2517 0.2375 0.2314 0.2302
1691.000000 0.2290 0.2278 0.2270 0.2265 0.2260
1696.000000 0.2255 0.2250 0.2245 0.2179 0.2069
1701.000000 0.1883 0.1665 0.1454 0.1307 0.1160
1706.000000 0.0663 0.0478 0.0407 0.0335 0.0264
1711.000000 0.0210 0.0163 0.0129 0.0115 0.0100
1716.000000 0.0085 0.0079 0.0078 0.0078 0.0077
1721.000000 0.0075 0.0073 0.0070 0.0068 0.0068
1726.000000 0.0069 0.0070 0.0042 0.0072 0.0074
1731.000000 0.0076 0.0078 0.0080 0.0082 0.0085
1736.000000 0.0087 0.0089 0.0091 0.0092 0.0093
1741.000000 0.0094 0.0095 0.0096 0.0097 0.0098
1746.000000 0.0099 0.0099 0.0099 0.0099 0.0132
1751.000000 0.0336 0.0541 0.0745 0.0949 0.1153
1756.000000 0.1358 0.1562 0.1766 0.1970 0.2175
1761.000000 0.2379 0.2583 0.2788 0.2937 0.3000
1766.000000 0.3115 0.3257 0.3427 0.3615 0.3821
1771.000000 0.4010 0.4173 0.4336 0.4434 0.4530
1776.000000 0.4626 0.4713 0.4786 0.4859 0.4932
1781.000000 0.5005 0.5153 0.5301 0.5407 0.5500
1786.000000 0.5593 0.5661 0.5715 0.5768 0.5822
1791.000000 0.5875 0.5964 0.6072 0.6180 0.6255
1796.000000 0.6321 0.6388 0.6454 0.6519 0.6576
1801.000000 0.6633 0.6689 0.6746 0.6803 0.6839
1806.000000 0.6872 0.6906 0.6939 0.6973 0.7007
1811.000000 0.7038 0.7062 0.7085 0.7109 0.7133
1816.000000 0.7156 0.7180 0.7205 0.7230 0.7256
1821.000000 0.7281 0.7306 0.7332 0.7358 0.7386
1826.000000 0.7414 0.7442 0.7470 0.7498 0.7526
1831.000000 0.7550 0.7574 0.7597 0.7621 0.7644
1836.000000 0.7668 0.7691 0.7711 0.7726 0.7741
1841.000000 0.7755 0.7770 0.7785 0.7800 0.7815
1846.000000 0.7830 0.7845 0.7860 0.7872 0.7881
1851.000000 0.7889 0.7898 0.7906 0.7915 0.7923
1856.000000 0.7932 0.7941 0.7949 0.7957 0.7959
1861.000000 0.7960 0.7962 0.7964 0.7966 0.7968
1866.000000 0.7970 0.7973 0.7975 0.7978 0.7981
1871.000000 0.7986 0.7995 0.8004 0.8022 0.8042
1876.000000 0.8063 0.8083 0.8104 0.8124 0.8143
1881.000000 0.8162 0.8181 0.8203 0.8225 0.8247
1886.000000 0.8269 0.8291 0.8313 0.8335 0.8349
1891.000000 0.8362 0.8375 0.8388 0.8401 0.8413
1896.000000 0.8426 0.8439 0.8452 0.8465 0.8478
1901.000000 0.8487 0.8496 0.8505 0.8514 0.8523
1906.000000 0.8529 0.8532 0.8535 0.8538 0.8541
1911.000000 0.8540 0.8538 0.8536 0.8534 0.8531
1916.000000 0.8531 0.8533 0.8535 0.8537 0.8545
1921.000000 0.8554 0.8564 0.8572 0.8575 0.8578
1926.000000 0.8595 0.8580 0.8578 0.8576 0.8573
1931.000000 0.8571 0.8569 0.8567 0.8567 0.8567
1936.000000 0.8567 0.8567 0.8568 0.8568 0.8566
1941.000000 0.8565 0.8563 0.8561 0.8559 0.8558
1946.000000 0.8556 0.8554 0.8553 0.8551 0.8548
1951.000000 0.8544 0.8539 0.8534 0.8530 0.8525
1956.000000 0.8521 0.8516 0.8512 0.8507 0.8503
1961.000000 0.8495 0.8486 0.8476 0.8459 0.8442
1966.000000 0.8424 0.8407 0.8389 0.8372 0.8354
1971.000000 0.8336 0.8314 0.8293 0.8271 0.8251
1976.000000 0.8240 0.8229 0.8218 0.8207 0.8196
1981.000000 0.8185 0.8171 0.8155 0.8139 0.8123
1986.000000 0.8107 0.8091 0.8075 0.8057 0.8031
1991.000000 0.8004 0.7978 0.7952 0.7926 0.7900
1996.000000 0.7873 0.7847 0.7831 0.7816 0.7801
2001.000000 0.7786 0.7771 0.7763 0.7756 0.7748
2006.000000 0.7741 0.7733 0.7726 0.7718 0.7710
2011.000000 0.7701 0.7693 0.7684 0.7675 0.7666
2016.000000 0.7658 0.7649 0.7640 0.7631 0.7622
2021.000000 0.7613 0.7605 0.7590 0.7576 0.7557
2026.000000 0.7539 0.7521 0.7503 0.7484 0.7465
2031.000000 0.7446 0.7427 0.7408 0.7389 0.7369
2036.000000 0.7350 0.7331 0.7312 0.7298 0.7285
2041.000000 0.7274 0.7263 0.7252 0.7241 0.7237
2046.000000 0.7233 0.7232 0.7201 0.7230 0.7229
2051.000000 0.7234 0.7240 0.7248 0.7256 0.7291
2056.000000 0.7327 0.7361 0.7396 0.7428 0.7460
2061.000000 0.7491 0.7523 0.7552 0.7582 0.7604
2066.000000 0.7627 0.7649 0.7672 0.7694 0.7717
2071.000000 0.7739 0.7762 0.7795 0.7829 0.7863
2076.000000 0.7897 0.7931 0.7966 0.7992 0.8019
2081.000000 0.8042 0.8065 0.8088 0.8111 0.8133
2086.000000 0.8155 0.8172 0.8189 0.8206 0.8223
2091.000000 0.8240 0.8258 0.8272 0.8287 0.8298
2096.000000 0.8309 0.8320 0.8331 0.8342 0.8353
2101.000000 0.8364 0.8375 0.8385 0.8396 0.8403
2106.000000 0.8410 0.8409 0.8408 0.8407 0.8407
2111.000000 0.8406 0.8405 0.8404 0.8403 0.8398
2116.000000 0.8394 0.8387 0.8380 0.8373 0.8366
2121.000000 0.8358 0.8351 0.8340 0.8330 0.8315
2126.000000 0.8301 0.8286 0.8272 0.8257 0.8243
2131.000000 0.8232 0.8222 0.8212 0.8202 0.8192
2136.000000 0.8183 0.8173 0.8163 0.8156 0.8149
2141.000000 0.8146 0.8144 0.8141 0.8139 0.8136
2146.000000 0.8134 0.8131 0.8129 0.8127 0.8126
2151.000000 0.8125 0.8125 0.8124 0.8124 0.8123
2156.000000 0.8123 0.8123 0.8123 0.8122 0.8122
2161.000000 0.8121 0.8121 0.8122 0.8123 0.8125
2166.000000 0.8128 0.8130 0.8132 0.8134 0.8136
2171.000000 0.8138 0.8141 0.8143 0.8145 0.8147
2176.000000 0.8149 0.8151 0.8154 0.8156 0.8158
2181.000000 0.8160 0.8163 0.8165 0.8168 0.8170
2186.000000 0.8173 0.8175 0.8178 0.8180 0.8183
2191.000000 0.8185 0.8188 0.8190 0.8193 0.8196
2196.000000 0.8199 0.8201 0.8204 0.8207 0.8210
2201.000000 0.8215 0.8220 0.8225 0.8231 0.8236
2206.000000 0.8241 0.8246 0.8252 0.8257 0.8262
2211.000000 0.8267 0.8273 0.8277 0.8282 0.8283
2216.000000 0.8284 0.8285 0.8286 0.8287 0.8288
2221.000000 0.8289 0.8290 0.8291 0.8292 0.8293
2226.000000 0.8294 0.8295 0.8297 0.8298 0.8299
2231.000000 0.8298 0.8297 0.8292 0.8287 0.8282
2236.000000 0.8277 0.8271 0.8266 0.8257 0.8249
2241.000000 0.8237 0.8225 0.8213 0.8202 0.8190
2246.000000 0.8178 0.8166 0.8154 0.8137 0.8120
2251.000000 0.8098 0.8077 0.8055 0.8034 0.8008
2256.000000 0.7982 0.7955 0.7929 0.7903 0.7877
2261.000000 0.7850 0.7824 0.7802 0.7780 0.7764
2266.000000 0.7749 0.7734 0.7719 0.7715 0.7646
2271.000000 0.7709 0.7707 0.7705 0.7704 0.7708
2276.000000 0.7713 0.7717 0.7721 0.7734 0.7748
2281.000000 0.7763 0.7778 0.7793 0.7808 0.7823
2286.000000 0.7839 0.7854 0.7869 0.7883 0.7897
2291.000000 0.7909 0.7921 0.7933 0.7945 0.7957
2296.000000 0.7969 0.7979 0.7989 0.7999 0.8009
2301.000000 0.8019 0.8029 0.8038 0.8048 0.8058
2306.000000 0.8068 0.8077 0.8087 0.8096 0.8106
2311.000000 0.8115 0.8125 0.8134 0.8144 0.8153
2316.000000 0.8163 0.8172 0.8182 0.8191 0.8200
2321.000000 0.8209 0.8219 0.8228 0.8238 0.8247
2326.000000 0.8257 0.8266 0.8276 0.8285 0.8294
2331.000000 0.8303 0.8313 0.8322 0.8331 0.8340
2336.000000 0.8350 0.8359 0.8369 0.8378 0.8388
2341.000000 0.8399 0.8410 0.8421 0.8432 0.8443
2346.000000 0.8454 0.8469 0.8484 0.8499 0.8514
2351.000000 0.8530 0.8546 0.8561 0.8577 0.8586
2356.000000 0.8595 0.8604 0.8613 0.8622 0.8631
2361.000000 0.8640 0.8650 0.8656 0.8663 0.8668
2366.000000 0.8673 0.8678 0.8683 0.8688 0.8693
2371.000000 0.8687 0.8681 0.8671 0.8610 0.8651
2376.000000 0.8642 0.8632 0.8622 0.8610 0.8599
2381.000000 0.8583 0.8567 0.8560 0.8554 0.8553
2386.000000 0.8553 0.8552 0.8552 0.8552 0.8552
2391.000000 0.8551 0.8551 0.8550 0.8550 0.8553
2396.000000 0.8556 0.8560 0.8564 0.8568 0.8573
2401.000000 0.8579 0.8585 0.8592 0.8600 0.8608
2406.000000 0.8616 0.8623 0.8630 0.8636 0.8643
2411.000000 0.8650 0.8657 0.8664 0.8671 0.8674
2416.000000 0.8677 0.8678 0.8680 0.8682 0.8684
2421.000000 0.8685 0.8687 0.8689 0.8691 0.8692
2426.000000 0.8694 0.8695 0.8697 0.8695 0.8694
2431.000000 0.8689 0.8685 0.8680 0.8675 0.8670
2436.000000 0.8665 0.8658 0.8651 0.8641 0.8632
2441.000000 0.8622 0.8612 0.8602 0.8593 0.8583
2446.000000 0.8573 0.8564 0.8555 0.8547 0.8539
2451.000000 0.8531 0.8524 0.8516 0.8509 0.8502
2456.000000 0.8496 0.8496 0.8497 0.8497 0.8498
2461.000000 0.8498 0.8499 0.8498 0.8498 0.8493
2466.000000 0.8488 0.8482 0.8477 0.8473 0.8469
2471.000000 0.8468 0.8467 0.8465 0.8464 0.8462
2476.000000 0.8461 0.8459 0.8458 0.8457 0.8456
2481.000000 0.8459 0.8462 0.8466 0.8471 0.8475
2486.000000 0.8480 0.8485 0.8490 0.8501 0.8512
