##TITLE=Ketone, cyclopropyl methyl,
##JCAMP-DX=4.24
##DATA TYPE=INFRARED SPECTRUM
##CLASS=COBLENTZ III
##ORIGIN=ABBOTT LABORATORIES
##OWNER=Copyright (C) 1987 by the Coblentz Society
Collection (C) 2018 copyright by the U.S. Secretary of Commerce
on behalf of the United States of America. All rights reserved.
##DATE=1961/01/23
##NAMES=1-cyclopropylethanone
##CAS REGISTRY NO=765-43-5
##MOLFORM=C5 H8 O
##SOURCE REFERENCE=COBLENTZ NO. 5339
##$NIST SOURCE=COBLENTZ
##$NIST IMAGE=cob5339
##SPECTROMETER/DATA SYSTEM=PERKIN-ELMER 21 (GRATING)
##INSTRUMENT PARAMETERS=FILTER AT ABOUT 10 MICRONS
$$ SPECTRAL FEATURE AT 995 CM^-^1 IS AN ARTIFACT CAUSED BY FILTER CHANGE
##STATE=LIQUID (NEAT)
##PATH LENGTH=CAPILLARY
##RESOLUTION=2
##XUNITS=1/CM
##YUNITS=TRANSMITTANCE
##XFACTOR=1.0
##YFACTOR=1
##FIRSTX=668
##LASTX=4000
##FIRSTY=0.7524
##MAXX=4000
##MINX=668
##MAXY=0.8828
##MINY=0.1104
##NPOINTS=3333
##XYDATA=(X++(Y..Y))
668.000000 0.7524 0.7531 0.7541 0.7557 0.7574
673.000000 0.7594 0.7614 0.7636 0.7660 0.7684
678.000000 0.7709 0.7733 0.7756 0.7775 0.7795
683.000000 0.7812 0.7827 0.7842 0.7857 0.7871
688.000000 0.7888 0.7906 0.7925 0.7943 0.7957
693.000000 0.7973 0.7988 0.8003 0.8014 0.8025
698.000000 0.8035 0.8046 0.8057 0.8067 0.8078
703.000000 0.8088 0.8096 0.8105 0.8113 0.8122
708.000000 0.8130 0.8139 0.8147 0.8151 0.8154
713.000000 0.8157 0.8160 0.8162 0.8165 0.8168
718.000000 0.8171 0.8172 0.8173 0.8174 0.8175
723.000000 0.8176 0.8177 0.8178 0.8179 0.8177
728.000000 0.8176 0.8174 0.8172 0.8171 0.8164
733.000000 0.8152 0.8140 0.8128 0.8117 0.8110
738.000000 0.8102 0.8094 0.8090 0.8097 0.8104
743.000000 0.8111 0.8117 0.8124 0.8131 0.8140
748.000000 0.8149 0.8158 0.8166 0.8173 0.8178
753.000000 0.8183 0.8189 0.8196 0.8206 0.8214
758.000000 0.8224 0.8243 0.8278 0.8306 0.8329
763.000000 0.8341 0.8350 0.8358 0.8363 0.8362
768.000000 0.8362 0.8360 0.8359 0.8356 0.8350
773.000000 0.8344 0.8336 0.8330 0.8333 0.8313
778.000000 0.8302 0.8291 0.8281 0.8271 0.8258
783.000000 0.8245 0.8232 0.8219 0.8201 0.8173
788.000000 0.8145 0.8116 0.8088 0.8049 0.8004
793.000000 0.7959 0.7915 0.7871 0.7811 0.7743
798.000000 0.7675 0.7607 0.7553 0.7504 0.7454
803.000000 0.7405 0.7372 0.7346 0.7309 0.7259
808.000000 0.7148 0.7014 0.6905 0.6792 0.6679
813.000000 0.6588 0.6488 0.6444 0.6396 0.6453
818.000000 0.6507 0.6628 0.6759 0.6896 0.7060
823.000000 0.7194 0.7322 0.7449 0.7576 0.7669
828.000000 0.7738 0.7802 0.7862 0.7904 0.7913
833.000000 0.7922 0.7927 0.7929 0.7930 0.7932
838.000000 0.7932 0.7929 0.7927 0.7924 0.7921
843.000000 0.7918 0.7916 0.7914 0.7912 0.7910
848.000000 0.7909 0.7906 0.7905 0.7908 0.7904
853.000000 0.7904 0.7908 0.7914 0.7919 0.7921
858.000000 0.7921 0.7921 0.7920 0.7911 0.7898
863.000000 0.7885 0.7874 0.7862 0.7851 0.7835
868.000000 0.7817 0.7801 0.7782 0.7758 0.7733
873.000000 0.7700 0.7655 0.7610 0.7551 0.7486
878.000000 0.7421 0.7331 0.7208 0.7086 0.6932
883.000000 0.6749 0.6469 0.6111 0.5859 0.5622
888.000000 0.5349 0.5002 0.4654 0.4308 0.3963
893.000000 0.3619 0.3406 0.3419 0.3819 0.4276
898.000000 0.4731 0.5186 0.5639 0.6091 0.6430
903.000000 0.6533 0.6586 0.6573 0.6542 0.6520
908.000000 0.6518 0.6571 0.6618 0.6676 0.6827
913.000000 0.7010 0.7182 0.7326 0.7434 0.7532
918.000000 0.7593 0.7649 0.7700 0.7726 0.7752
923.000000 0.7777 0.7788 0.7821 0.7796 0.7778
928.000000 0.7759 0.7735 0.7704 0.7667 0.7605
933.000000 0.7544 0.7483 0.7424 0.7367 0.7309
938.000000 0.7236 0.7154 0.7075 0.7002 0.6944
943.000000 0.6909 0.6875 0.6843 0.6808 0.6771
948.000000 0.6735 0.6647 0.6523 0.6385 0.6210
953.000000 0.6035 0.5854 0.5673 0.5496 0.5326
958.000000 0.5217 0.5115 0.4992 0.4861 0.4796
963.000000 0.4859 0.4914 0.5082 0.5266 0.5450
968.000000 0.5633 0.5816 0.5998 0.6219 0.6379
973.000000 0.6490 0.6601 0.6736 0.6891 0.7031
978.000000 0.7156 0.7252 0.7325 0.7397 0.7456
983.000000 0.7505 0.7552 0.7579 0.7606 0.7632
988.000000 0.7647 0.7661 0.7674 0.7672 0.7676
993.000000 0.7462 0.7225 0.7092 0.7380 0.7732
998.000000 0.7745 0.7733 0.7714 0.7684 0.7650
1003.000000 0.7610 0.7569 0.7525 0.7480 0.7422
1008.000000 0.7364 0.7286 0.7203 0.7099 0.6968
1013.000000 0.6726 0.6469 0.6213 0.5958 0.5703
1018.000000 0.5449 0.5195 0.5045 0.4918 0.4780
1023.000000 0.4745 0.4738 0.4750 0.4857 0.5026
1028.000000 0.5195 0.5364 0.5533 0.5702 0.5869
1033.000000 0.6037 0.6249 0.6444 0.6619 0.6764
1038.000000 0.6851 0.6900 0.6950 0.6987 0.7015
1043.000000 0.7035 0.7066 0.7033 0.7019 0.7004
1048.000000 0.6978 0.6952 0.6902 0.6838 0.6781
1053.000000 0.6728 0.6676 0.6632 0.6593 0.6554
1058.000000 0.6516 0.6492 0.6472 0.6437 0.6488
1063.000000 0.6518 0.6563 0.6620 0.6700 0.6761
1068.000000 0.6816 0.6854 0.6871 0.6873 0.6865
1073.000000 0.6810 0.6691 0.6505 0.6320 0.6134
1078.000000 0.5950 0.5765 0.5582 0.5397 0.5215
1083.000000 0.5043 0.4941 0.4904 0.4876 0.5054
1088.000000 0.5252 0.5450 0.5647 0.5845 0.6041
1093.000000 0.6238 0.6400 0.6437 0.6559 0.6742
1098.000000 0.6850 0.6967 0.7050 0.7119 0.7189
1103.000000 0.7264 0.7329 0.7367 0.7404 0.7441
1108.000000 0.7462 0.7480 0.7497 0.7515 0.7531
1113.000000 0.7542 0.7551 0.7560 0.7569 0.7577
1118.000000 0.7579 0.7578 0.7581 0.7583 0.7581
1123.000000 0.7575 0.7570 0.7564 0.7559 0.7549
1128.000000 0.7538 0.7528 0.7516 0.7506 0.7495
1133.000000 0.7484 0.7471 0.7459 0.7442 0.7416
1138.000000 0.7391 0.7366 0.7327 0.7277 0.7227
1143.000000 0.7172 0.7106 0.7039 0.6968 0.6866
1148.000000 0.6759 0.6651 0.6533 0.6329 0.6121
1153.000000 0.5846 0.5509 0.5164 0.4821 0.4477
1158.000000 0.4135 0.3792 0.3451 0.3110 0.2785
1163.000000 0.2625 0.2600 0.2607 0.2613 0.2606
1168.000000 0.2645 0.2672 0.2703 0.2741 0.2794
1173.000000 0.2874 0.3390 0.3941 0.4490 0.5039
1178.000000 0.5542 0.5630 0.5661 0.5662 0.5654
1183.000000 0.5577 0.5354 0.5116 0.4879 0.4642
1188.000000 0.4406 0.4169 0.3933 0.3605 0.3609
1193.000000 0.3876 0.4326 0.4776 0.5224 0.5672
1198.000000 0.6114 0.6377 0.6549 0.6770 0.6952
1203.000000 0.7121 0.7229 0.7306 0.7383 0.7458
1208.000000 0.7504 0.7540 0.7575 0.7603 0.7630
1213.000000 0.7657 0.7685 0.7711 0.7731 0.7751
1218.000000 0.7771 0.7788 0.7791 0.7794 0.7796
1223.000000 0.7797 0.7808 0.7795 0.7786 0.7777
1228.000000 0.7768 0.7759 0.7744 0.7729 0.7714
1233.000000 0.7699 0.7682 0.7662 0.7642 0.7610
1238.000000 0.7574 0.7538 0.7502 0.7443 0.7374
1243.000000 0.7295 0.7207 0.7113 0.7011 0.6859
1248.000000 0.6597 0.6337 0.6076 0.5834 0.5811
1253.000000 0.5816 0.5989 0.6178 0.6366 0.6556
1258.000000 0.6744 0.6932 0.7119 0.7307 0.7494
1263.000000 0.7680 0.7815 0.7852 0.7889 0.7921
1268.000000 0.7944 0.7968 0.7977 0.7960 0.7985
1273.000000 0.7990 0.7991 0.7988 0.7987 0.7985
1278.000000 0.7983 0.7981 0.7980 0.7978 0.7977
1283.000000 0.7976 0.7975 0.7973 0.7972 0.7970
1288.000000 0.7968 0.7965 0.7960 0.7956 0.7951
1293.000000 0.7946 0.7941 0.7937 0.7933 0.7928
1298.000000 0.7922 0.7914 0.7906 0.7898 0.7890
1303.000000 0.7882 0.7866 0.7843 0.7820 0.7797
1308.000000 0.7774 0.7751 0.7725 0.7694 0.7664
1313.000000 0.7633 0.7603 0.7572 0.7541 0.7502
1318.000000 0.7462 0.7423 0.7384 0.7345 0.7304
1323.000000 0.7252 0.7200 0.7149 0.7097 0.7045
1328.000000 0.6979 0.6905 0.6833 0.6760 0.6681
1333.000000 0.6582 0.6484 0.6366 0.6175 0.5988
1338.000000 0.5802 0.5618 0.5434 0.5251 0.5066
1343.000000 0.4883 0.4731 0.4720 0.4720 0.4726
1348.000000 0.4746 0.4780 0.4826 0.4875 0.4923
1353.000000 0.4968 0.5013 0.5050 0.5077 0.5085
1358.000000 0.5127 0.5082 0.5072 0.5052 0.5031
1363.000000 0.5005 0.4954 0.4690 0.4376 0.4062
1368.000000 0.3749 0.3437 0.3124 0.2812 0.2501
1373.000000 0.2191 0.1880 0.1570 0.1281 0.1207
1378.000000 0.1213 0.1212 0.1424 0.1679 0.1932
1383.000000 0.2186 0.2439 0.2692 0.2945 0.3197
1388.000000 0.3449 0.3699 0.3951 0.4201 0.4452
1393.000000 0.4702 0.4952 0.5201 0.5418 0.5426
1398.000000 0.5435 0.5399 0.5470 0.5268 0.5203
1403.000000 0.5138 0.5073 0.5009 0.4944 0.4880
1408.000000 0.4815 0.4750 0.4686 0.4622 0.4575
1413.000000 0.4566 0.4564 0.4549 0.4576 0.4605
1418.000000 0.4639 0.4675 0.4711 0.4745 0.4780
1423.000000 0.4816 0.4852 0.4895 0.4944 0.4987
1428.000000 0.5030 0.5062 0.5083 0.5091 0.5095
1433.000000 0.5100 0.5104 0.5106 0.5106 0.5115
1438.000000 0.5150 0.5185 0.5227 0.5283 0.5352
1443.000000 0.5489 0.5665 0.5841 0.6017 0.6193
1448.000000 0.6369 0.6515 0.6614 0.6703 0.6775
1453.000000 0.6829 0.6883 0.6942 0.7002 0.7062
1458.000000 0.7122 0.7181 0.7223 0.7253 0.7283
1463.000000 0.7312 0.7342 0.7371 0.7398 0.7424
1468.000000 0.7451 0.7475 0.7489 0.7500 0.7510
1473.000000 0.7521 0.7532 0.7542 0.7555 0.7569
1478.000000 0.7581 0.7596 0.7630 0.7670 0.7753
1483.000000 0.7836 0.7872 0.7907 0.7936 0.7956
1488.000000 0.7976 0.7994 0.8013 0.8031 0.8047
1493.000000 0.8061 0.8074 0.8088 0.8101 0.8112
1498.000000 0.8119 0.8126 0.8133 0.8139 0.8143
1503.000000 0.8144 0.8144 0.8144 0.8145 0.8146
1508.000000 0.8146 0.8145 0.8142 0.8138 0.8134
1513.000000 0.8130 0.8126 0.8121 0.8118 0.8113
1518.000000 0.8110 0.8106 0.8103 0.8099 0.8095
1523.000000 0.8092 0.8088 0.8085 0.8081 0.8078
1528.000000 0.8076 0.8074 0.8071 0.8070 0.8068
1533.000000 0.8067 0.8065 0.8063 0.8062 0.8060
1538.000000 0.8059 0.8060 0.8073 0.8065 0.8067
1543.000000 0.8070 0.8072 0.8074 0.8077 0.8079
1548.000000 0.8082 0.8089 0.8097 0.8106 0.8114
1553.000000 0.8122 0.8130 0.8137 0.8141 0.8145
1558.000000 0.8148 0.8151 0.8154 0.8157 0.8160
1563.000000 0.8163 0.8166 0.8168 0.8168 0.8169
1568.000000 0.8169 0.8170 0.8170 0.8169 0.8167
1573.000000 0.8165 0.8163 0.8162 0.8160 0.8158
1578.000000 0.8156 0.8153 0.8148 0.8144 0.8139
1583.000000 0.8134 0.8130 0.8125 0.8121 0.8115
1588.000000 0.8106 0.8095 0.8085 0.8074 0.8063
1593.000000 0.8053 0.8040 0.8023 0.8007 0.7990
1598.000000 0.7973 0.7956 0.7939 0.7922 0.7905
1603.000000 0.7888 0.7870 0.7853 0.7836 0.7819
1608.000000 0.7802 0.7784 0.7767 0.7749 0.7732
1613.000000 0.7715 0.7698 0.7680 0.7662 0.7643
1618.000000 0.7624 0.7605 0.7586 0.7568 0.7549
1623.000000 0.7530 0.7511 0.7493 0.7476 0.7459
1628.000000 0.7441 0.7424 0.7407 0.7389 0.7372
1633.000000 0.7354 0.7337 0.7319 0.7303 0.7285
1638.000000 0.7258 0.7228 0.7197 0.7159 0.7116
1643.000000 0.7072 0.7027 0.6981 0.6933 0.6886
1648.000000 0.6838 0.6792 0.6747 0.6701 0.6656
1653.000000 0.6611 0.6566 0.6518 0.6470 0.6421
1658.000000 0.6372 0.6324 0.6271 0.6218 0.6166
1663.000000 0.6113 0.6051 0.5973 0.5718 0.5342
1668.000000 0.5144 0.4945 0.4747 0.4549 0.4351
1673.000000 0.4154 0.3957 0.3760 0.3563 0.3367
1678.000000 0.3171 0.2974 0.2779 0.2584 0.2389
1683.000000 0.2193 0.1998 0.1804 0.1609 0.1416
1688.000000 0.1239 0.1170 0.1132 0.1114 0.1107
1693.000000 0.1104 0.1105 0.1110 0.1116 0.1123
1698.000000 0.1139 0.1160 0.1239 0.1416 0.1666
1703.000000 0.1916 0.2165 0.2414 0.2662 0.2910
1708.000000 0.3158 0.3407 0.3654 0.3901 0.4147
1713.000000 0.4394 0.4640 0.4887 0.5132 0.5377
1718.000000 0.5600 0.5765 0.5922 0.6047 0.6119
1723.000000 0.6191 0.6264 0.6324 0.6377 0.6428
1728.000000 0.6480 0.6532 0.6584 0.6636 0.6864
1733.000000 0.7039 0.7083 0.7127 0.7170 0.7213
1738.000000 0.7256 0.7299 0.7341 0.7381 0.7416
1743.000000 0.7451 0.7485 0.7520 0.7554 0.7587
1748.000000 0.7612 0.7637 0.7663 0.7688 0.7713
1753.000000 0.7739 0.7764 0.7791 0.7818 0.7845
1758.000000 0.7872 0.7899 0.7926 0.7953 0.7980
1763.000000 0.8006 0.8027 0.8046 0.8065 0.8084
1768.000000 0.8103 0.8121 0.8140 0.8159 0.8177
1773.000000 0.8197 0.8215 0.8234 0.8252 0.8269
1778.000000 0.8286 0.8302 0.8318 0.8334 0.8350
1783.000000 0.8366 0.8382 0.8397 0.8413 0.8430
1788.000000 0.8445 0.8460 0.8473 0.8487 0.8500
1793.000000 0.8513 0.8526 0.8539 0.8552 0.8565
1798.000000 0.8578 0.8590 0.8599 0.8605 0.8613
1803.000000 0.8619 0.8623 0.8623 0.8629 0.8625
1808.000000 0.8624 0.8622 0.8621 0.8619 0.8618
1813.000000 0.8616 0.8615 0.8613 0.8611 0.8609
1818.000000 0.8607 0.8605 0.8602 0.8600 0.8598
1823.000000 0.8596 0.8593 0.8590 0.8587 0.8585
1828.000000 0.8582 0.8579 0.8577 0.8574 0.8571
1833.000000 0.8569 0.8566 0.8564 0.8563 0.8561
1838.000000 0.8560 0.8558 0.8557 0.8555 0.8554
1843.000000 0.8552 0.8550 0.8549 0.8549 0.8551
1848.000000 0.8554 0.8556 0.8559 0.8562 0.8564
1853.000000 0.8567 0.8570 0.8573 0.8577 0.8580
1858.000000 0.8584 0.8589 0.8593 0.8597 0.8602
1863.000000 0.8606 0.8610 0.8615 0.8619 0.8623
1868.000000 0.8627 0.8631 0.8635 0.8639 0.8644
1873.000000 0.8647 0.8650 0.8654 0.8657 0.8660
1878.000000 0.8663 0.8666 0.8668 0.8671 0.8671
1883.000000 0.8670 0.8669 0.8669 0.8668 0.8667
1888.000000 0.8667 0.8666 0.8665 0.8665 0.8664
1893.000000 0.8662 0.8659 0.8656 0.8652 0.8649
1898.000000 0.8645 0.8642 0.8638 0.8635 0.8632
1903.000000 0.8628 0.8625 0.8621 0.8618 0.8615
1908.000000 0.8612 0.8609 0.8606 0.8603 0.8600
1913.000000 0.8597 0.8594 0.8591 0.8589 0.8585
1918.000000 0.8583 0.8582 0.8581 0.8581 0.8581
1923.000000 0.8581 0.8582 0.8583 0.8584 0.8585
1928.000000 0.8586 0.8586 0.8589 0.8592 0.8596
1933.000000 0.8599 0.8602 0.8606 0.8610 0.8613
1938.000000 0.8617 0.8620 0.8623 0.8627 0.8631
1943.000000 0.8634 0.8638 0.8642 0.8645 0.8649
1948.000000 0.8653 0.8657 0.8661 0.8665 0.8669
1953.000000 0.8672 0.8675 0.8677 0.8680 0.8683
1958.000000 0.8685 0.8688 0.8690 0.8693 0.8696
1963.000000 0.8698 0.8701 0.8703 0.8706 0.8709
1968.000000 0.8710 0.8711 0.8711 0.8713 0.8714
1973.000000 0.8714 0.8715 0.8716 0.8716 0.8717
1978.000000 0.8718 0.8718 0.8719 0.8720 0.8720
1983.000000 0.8721 0.8721 0.8722 0.8722 0.8722
1988.000000 0.8723 0.8724 0.8725 0.8727 0.8729
1993.000000 0.8732 0.8734 0.8737 0.8740 0.8743
1998.000000 0.8744 0.8745 0.8745 0.8745 0.8745
2003.000000 0.8745 0.8745 0.8744 0.8743 0.8742
2008.000000 0.8741 0.8739 0.8738 0.8737 0.8736
2013.000000 0.8734 0.8733 0.8732 0.8730 0.8727
2018.000000 0.8723 0.8719 0.8715 0.8712 0.8707
2023.000000 0.8703 0.8700 0.8695 0.8691 0.8686
2028.000000 0.8682 0.8677 0.8673 0.8668 0.8663
2033.000000 0.8658 0.8653 0.8649 0.8644 0.8640
2038.000000 0.8635 0.8630 0.8625 0.8621 0.8616
2043.000000 0.8611 0.8606 0.8602 0.8599 0.8595
2048.000000 0.8592 0.8589 0.8586 0.8582 0.8579
2053.000000 0.8576 0.8572 0.8569 0.8567 0.8567
2058.000000 0.8566 0.8566 0.8566 0.8566 0.8565
2063.000000 0.8565 0.8565 0.8565 0.8565 0.8564
2068.000000 0.8564 0.8564 0.8563 0.8563 0.8563
2073.000000 0.8564 0.8564 0.8565 0.8565 0.8566
2078.000000 0.8566 0.8567 0.8568 0.8568 0.8569
2083.000000 0.8569 0.8570 0.8570 0.8571 0.8572
2088.000000 0.8572 0.8573 0.8573 0.8573 0.8573
2093.000000 0.8574 0.8574 0.8574 0.8574 0.8574
2098.000000 0.8575 0.8575 0.8575 0.8575 0.8575
2103.000000 0.8575 0.8575 0.8576 0.8576 0.8576
2108.000000 0.8578 0.8579 0.8581 0.8582 0.8583
2113.000000 0.8585 0.8587 0.8588 0.8590 0.8592
2118.000000 0.8593 0.8595 0.8597 0.8601 0.8606
2123.000000 0.8611 0.8616 0.8622 0.8627 0.8632
2128.000000 0.8637 0.8642 0.8647 0.8652 0.8657
2133.000000 0.8662 0.8667 0.8672 0.8672 0.8672
2138.000000 0.8672 0.8672 0.8672 0.8671 0.8671
2143.000000 0.8670 0.8669 0.8668 0.8666 0.8666
2148.000000 0.8665 0.8664 0.8663 0.8662 0.8661
2153.000000 0.8660 0.8659 0.8658 0.8657 0.8657
2158.000000 0.8657 0.8657 0.8657 0.8658 0.8658
2163.000000 0.8658 0.8658 0.8659 0.8659 0.8659
2168.000000 0.8659 0.8660 0.8661 0.8662 0.8663
2173.000000 0.8665 0.8667 0.8668 0.8669 0.8670
2178.000000 0.8671 0.8672 0.8673 0.8675 0.8676
2183.000000 0.8677 0.8678 0.8679 0.8680 0.8680
2188.000000 0.8681 0.8681 0.8682 0.8682 0.8682
2193.000000 0.8683 0.8683 0.8683 0.8683 0.8684
2198.000000 0.8684 0.8685 0.8685 0.8685 0.8685
2203.000000 0.8686 0.8686 0.8686 0.8686 0.8687
2208.000000 0.8688 0.8689 0.8689 0.8690 0.8691
2213.000000 0.8692 0.8693 0.8694 0.8694 0.8695
2218.000000 0.8696 0.8697 0.8698 0.8699 0.8700
2223.000000 0.8701 0.8701 0.8702 0.8703 0.8704
2228.000000 0.8705 0.8706 0.8706 0.8707 0.8708
2233.000000 0.8709 0.8710 0.8711 0.8711 0.8712
2238.000000 0.8713 0.8714 0.8715 0.8716 0.8716
2243.000000 0.8717 0.8718 0.8719 0.8719 0.8720
2248.000000 0.8721 0.8722 0.8722 0.8723 0.8724
2253.000000 0.8725 0.8725 0.8726 0.8727 0.8728
2258.000000 0.8728 0.8729 0.8730 0.8731 0.8732
2263.000000 0.8733 0.8734 0.8735 0.8736 0.8737
2268.000000 0.8738 0.8739 0.8740 0.8741 0.8742
2273.000000 0.8743 0.8744 0.8745 0.8746 0.8747
2278.000000 0.8748 0.8749 0.8750 0.8750 0.8751
2283.000000 0.8752 0.8753 0.8754 0.8755 0.8756
2288.000000 0.8757 0.8758 0.8759 0.8759 0.8760
2293.000000 0.8760 0.8760 0.8760 0.8761 0.8761
2298.000000 0.8762 0.8762 0.8762 0.8762 0.8762
2303.000000 0.8763 0.8763 0.8763 0.8763 0.8764
2308.000000 0.8764 0.8765 0.8765 0.8765 0.8765
2313.000000 0.8765 0.8764 0.8763 0.8762 0.8761
2318.000000 0.8761 0.8760 0.8759 0.8758 0.8757
2323.000000 0.8756 0.8755 0.8755 0.8754 0.8753
2328.000000 0.8752 0.8751 0.8749 0.8747 0.8745
2333.000000 0.8742 0.8740 0.8737 0.8735 0.8732
2338.000000 0.8730 0.8727 0.8725 0.8722 0.8720
2343.000000 0.8718 0.8715 0.8712 0.8710 0.8707
2348.000000 0.8706 0.8704 0.8704 0.8704 0.8705
2353.000000 0.8705 0.8705 0.8705 0.8705 0.8706
2358.000000 0.8706 0.8706 0.8706 0.8706 0.8706
2363.000000 0.8707 0.8707 0.8707 0.8707 0.8707
2368.000000 0.8708 0.8708 0.8708 0.8708 0.8709
2373.000000 0.8709 0.8709 0.8709 0.8709 0.8710
2378.000000 0.8710 0.8711 0.8712 0.8713 0.8714
2383.000000 0.8715 0.8716 0.8717 0.8718 0.8719
2388.000000 0.8720 0.8721 0.8721 0.8723 0.8724
2393.000000 0.8725 0.8726 0.8727 0.8728 0.8729
2398.000000 0.8729 0.8730 0.8731 0.8733 0.8733
2403.000000 0.8733 0.8732 0.8732 0.8731 0.8730
2408.000000 0.8729 0.8728 0.8727 0.8726 0.8725
2413.000000 0.8725 0.8724 0.8723 0.8722 0.8721
2418.000000 0.8720 0.8719 0.8719 0.8718 0.8717
2423.000000 0.8716 0.8715 0.8714 0.8714 0.8713
2428.000000 0.8711 0.8710 0.8708 0.8706 0.8703
2433.000000 0.8701 0.8699 0.8697 0.8695 0.8693
2438.000000 0.8691 0.8689 0.8686 0.8684 0.8682
2443.000000 0.8680 0.8678 0.8676 0.8674 0.8672
2448.000000 0.8670 0.8668 0.8666 0.8663 0.8661
2453.000000 0.8659 0.8657 0.8655 0.8653 0.8653
2458.000000 0.8652 0.8651 0.8650 0.8649 0.8649
2463.000000 0.8649 0.8648 0.8647 0.8646 0.8645
2468.000000 0.8644 0.8644 0.8643 0.8642 0.8642
2473.000000 0.8641 0.8641 0.8640 0.8639 0.8638
2478.000000 0.8637 0.8636 0.8636 0.8635 0.8634
2483.000000 0.8633 0.8633 0.8633 0.8632 0.8631
2488.000000 0.8630 0.8630 0.8630 0.8629 0.8629
2493.000000 0.8628 0.8628 0.8628 0.8627 0.8627
2498.000000 0.8626 0.8626 0.8626 0.8625 0.8625
2503.000000 0.8624 0.8624 0.8624 0.8623 0.8623
2508.000000 0.8622 0.8622 0.8622 0.8621 0.8621
2513.000000 0.8620 0.8620 0.8620 0.8619 0.8619
2518.000000 0.8618 0.8618 0.8618 0.8617 0.8617
2523.000000 0.8616 0.8616 0.8616 0.8615 0.8615
2528.000000 0.8614 0.8614 0.8614 0.8613 0.8613
2533.000000 0.8613 0.8613 0.8613 0.8613 0.8613
2538.000000 0.8613 0.8614 0.8614 0.8615 0.8615
2543.000000 0.8615 0.8616 0.8616 0.8617 0.8617
2548.000000 0.8617 0.8617 0.8617 0.8617 0.8618
2553.000000 0.8618 0.8619 0.8619 0.8619 0.8620
2558.000000 0.8620 0.8621 0.8621 0.8621 0.8621
2563.000000 0.8621 0.8621 0.8622 0.8622 0.8623
2568.000000 0.8623 0.8624 0.8625 0.8626 0.8626
2573.000000 0.8627 0.8628 0.8629 0.8630 0.8630
2578.000000 0.8631 0.8632 0.8633 0.8633 0.8634
2583.000000 0.8635 0.8636 0.8636 0.8637 0.8638
2588.000000 0.8639 0.8639 0.8640 0.8641 0.8641
2593.000000 0.8642 0.8643 0.8643 0.8643 0.8644
2598.000000 0.8645 0.8646 0.8646 0.8647 0.8648
2603.000000 0.8649 0.8649 0.8650 0.8650 0.8651
2608.000000 0.8651 0.8651 0.8651 0.8651 0.8651
2613.000000 0.8651 0.8651 0.8651 0.8652 0.8652
2618.000000 0.8652 0.8652 0.8652 0.8652 0.8652
2623.000000 0.8652 0.8653 0.8653 0.8653 0.8653
2628.000000 0.8653 0.8653 0.8653 0.8653 0.8654
2633.000000 0.8654 0.8654 0.8654 0.8654 0.8654
2638.000000 0.8654 0.8654 0.8655 0.8655 0.8655
2643.000000 0.8655 0.8655 0.8655 0.8655 0.8655
2648.000000 0.8655 0.8656 0.8656 0.8656 0.8655
2653.000000 0.8655 0.8654 0.8653 0.8652 0.8651
2658.000000 0.8650 0.8649 0.8648 0.8647 0.8646
2663.000000 0.8645 0.8644 0.8643 0.8642 0.8641
2668.000000 0.8640 0.8639 0.8637 0.8636 0.8635
2673.000000 0.8634 0.8633 0.8633 0.8632 0.8631
2678.000000 0.8630 0.8629 0.8628 0.8627 0.8626
2683.000000 0.8625 0.8624 0.8623 0.8622 0.8621
2688.000000 0.8620 0.8619 0.8618 0.8617 0.8616
2693.000000 0.8614 0.8613 0.8612 0.8611 0.8610
2698.000000 0.8609 0.8608 0.8607 0.8606 0.8605
