##TITLE=2-Bromobutane
##JCAMP-DX=4.24
$$ By DXEDIT 1.05 (RS McDonald)
##DATA TYPE=INFRARED SPECTRUM
##CLASS=COBLENTZ III
##ORIGIN=DOW CHEMICAL COMPANY
##OWNER=COPYRIGHT (C) 1988 by COBLENTZ SOCIETY INC.
Collection (C) 2018 copyright by the U.S. Secretary of Commerce
on behalf of the United States of America. All rights reserved.
##DATE=1960/01/14
##CAS REGISTRY NO=78-76-2
##MOLFORM=C4 H9 Br
##SOURCE REFERENCE=COBLENTZ NO. 5685
##$NIST SOURCE=COBLENTZ
##$NIST IMAGE=cob5685
##SPECTROMETER/DATA SYSTEM=DOW KBr FOREPRISM-GRATING
$$SPECTRAL CONTAMINATION DUE TO CS2 AROUND 850 AND CCl4 AROUND 1550 CM^-^1 HAVE BEEN SUBTRACTED
##INSTRUMENT PARAMETERS=BLAZED AT 3.5, 12.0, 20.0 MICRON AND CHANGED AT 5.0, 7.5, 14.9 MICRON
##STATE=SOLUTION (10% CCl4 FOR 3800-1340, 10% CS2 FOR 1340-430)
##PATH LENGTH=0.0116 CM, 0.0108 CM
##SAMPLING PROCEDURE=TRANSMISSION
##RESOLUTION=2
##DATA PROCESSING=DIGITIZED BY COBLENTZ SOCIETY (BATCH I) FROM HARD COPY
##XUNITS=1/CM
##YUNITS=TRANSMITTANCE
##XFACTOR=1
##YFACTOR=1
##DELTAX=1
##FIRSTX=423
##LASTX=3814
##FIRSTY=0.8475
##MAXX=3814
##MINX=423
##MAXY=0.9838
##MINY=0.038
##NPOINTS=3392
##XYDATA=(X++(Y..Y))
423.000000 0.8475 0.8474 0.8473 0.8472 0.8475
428.000000 0.8477 0.8479 0.8482 0.8484 0.8486
433.000000 0.8490 0.8492 0.8498 0.8504 0.8510
438.000000 0.8518 0.8525 0.8532 0.8539 0.8546
443.000000 0.8553 0.8560 0.8566 0.8573 0.8581
448.000000 0.8588 0.8595 0.8607 0.8618 0.8630
453.000000 0.8641 0.8653 0.8664 0.8675 0.8687
458.000000 0.8698 0.8703 0.8709 0.8715 0.8720
463.000000 0.8726 0.8730 0.8738 0.8743 0.8742
468.000000 0.8755 0.8736 0.8733 0.8730 0.8720
473.000000 0.8703 0.8686 0.8667 0.8652 0.8604
478.000000 0.8544 0.8487 0.8431 0.8396 0.8398
483.000000 0.8399 0.8400 0.8378 0.8546 0.8631
488.000000 0.8727 0.8863 0.8975 0.9068 0.9149
493.000000 0.9203 0.9259 0.9302 0.9327 0.9347
498.000000 0.9372 0.9386 0.9390 0.9395 0.9400
503.000000 0.9400 0.9400 0.9398 0.9396 0.9392
508.000000 0.9390 0.9387 0.9381 0.9370 0.9361
513.000000 0.9351 0.9340 0.9331 0.9318 0.9293
518.000000 0.9267 0.9240 0.9214 0.9188 0.9145
523.000000 0.9088 0.9032 0.8902 0.8706 0.8408
528.000000 0.8082 0.7758 0.7434 0.7110 0.6784
533.000000 0.6461 0.6130 0.5809 0.5562 0.5666
538.000000 0.6228 0.6781 0.7339 0.7902 0.8464
543.000000 0.8651 0.8770 0.8890 0.8989 0.9074
548.000000 0.9158 0.9244 0.9322 0.9391 0.9458
553.000000 0.9484 0.9491 0.9505 0.9521 0.9528
558.000000 0.9536 0.9557 0.9549 0.9538 0.9528
563.000000 0.9518 0.9520 0.9512 0.9473 0.9443
568.000000 0.9432 0.9407 0.9379 0.9350 0.9319
573.000000 0.9288 0.9255 0.9171 0.9097 0.9007
578.000000 0.8841 0.8503 0.8503 0.8502 0.8531
583.000000 0.8693 0.8839 0.8989 0.9149 0.9342
588.000000 0.9443 0.9446 0.9445 0.9444 0.9443
593.000000 0.9436 0.9428 0.9419 0.9407 0.9386
598.000000 0.9365 0.9331 0.9279 0.9227 0.9143
603.000000 0.9060 0.8916 0.8753 0.8656 0.8566
608.000000 0.8479 0.8098 0.8098 0.8098 0.8098
613.000000 0.8116 0.8215 0.8318 0.8425 0.8542
618.000000 0.8635 0.8707 0.8789 0.8873 0.8956
623.000000 0.9038 0.9134 0.9215 0.9266 0.9331
628.000000 0.9382 0.9421 0.9432 0.9447 0.9475
633.000000 0.9517 0.9508 0.9528 0.9531 0.9529
638.000000 0.9537 0.9545 0.9544 0.9554 0.9560
643.000000 0.9561 0.9574 0.9578 0.9575 0.9584
648.000000 0.9582 0.9579 0.9575 0.9567 0.9536
653.000000 0.9569 0.9594 0.9618 0.9641 0.9648
658.000000 0.9650 0.9661 0.9653 0.9641 0.9636
663.000000 0.9641 0.9646 0.9634 0.9639 0.9731
668.000000 0.9838 0.9810 0.9675 0.9661 0.9674
673.000000 0.9698 0.9714 0.9739 0.9730 0.9702
678.000000 0.9689 0.9660 0.9665 0.9653 0.9657
683.000000 0.9658 0.9649 0.9652 0.9657 0.9660
688.000000 0.9659 0.9650 0.9650 0.9650 0.9648
693.000000 0.9647 0.9645 0.9634 0.9627 0.9625
698.000000 0.9624 0.9623 0.9621 0.9607 0.9602
703.000000 0.9601 0.9586 0.9583 0.9582 0.9581
708.000000 0.9581 0.9580 0.9580 0.9579 0.9579
713.000000 0.9578 0.9573 0.9562 0.9566 0.9570
718.000000 0.9567 0.9575 0.9583 0.9581 0.9575
723.000000 0.9566 0.9560 0.9561 0.9551 0.9547
728.000000 0.9548 0.9549 0.9549 0.9536 0.9535
733.000000 0.9536 0.9537 0.9537 0.9537 0.9537
738.000000 0.9536 0.9537 0.9536 0.9535 0.9535
743.000000 0.9534 0.9534 0.9533 0.9532 0.9532
748.000000 0.9531 0.9531 0.9530 0.9525 0.9520
753.000000 0.9514 0.9496 0.9483 0.9475 0.9468
758.000000 0.9460 0.9450 0.9443 0.9436 0.9428
763.000000 0.9418 0.9406 0.9396 0.9396 0.9382
768.000000 0.9369 0.9362 0.9360 0.9332 0.9305
773.000000 0.9283 0.9254 0.9171 0.9089 0.9002
778.000000 0.8897 0.8786 0.8604 0.8258 0.7904
783.000000 0.7558 0.7213 0.6856 0.6498 0.6140
788.000000 0.5782 0.5634 0.5634 0.5637 0.6261
793.000000 0.6622 0.6986 0.7356 0.7716 0.8080
798.000000 0.8441 0.8802 0.8893 0.8968 0.9046
803.000000 0.9108 0.9150 0.9194 0.9204 0.9210
808.000000 0.9231 0.9235 0.9206 0.9192 0.9170
813.000000 0.9132 0.9099 0.9033 0.8920 0.8794
818.000000 0.8681 0.8571 0.8458 0.8350 0.8248
823.000000 0.8137 0.8140 0.8102 0.8499 0.8763
828.000000 0.9017 0.9030 0.9032 0.9033 0.9028
833.000000 0.9022 0.8960 0.8889 0.8816 0.8752
838.000000 0.8621 0.8498 0.8113 0.7640 0.7175
843.000000 0.6701 0.6384 0.6400 0.6514 0.7084
848.000000 0.7695 0.8309 0.8718 0.8786 0.8854
853.000000 0.8909 0.8952 0.8982 0.9006 0.9026
858.000000 0.9043 0.9072 0.9098 0.9112 0.9137
863.000000 0.9170 0.9189 0.9205 0.9233 0.9263
868.000000 0.9277 0.9304 0.9333 0.9362 0.9375
873.000000 0.9387 0.9399 0.9411 0.9422 0.9435
878.000000 0.9447 0.9461 0.9478 0.9488 0.9496
883.000000 0.9513 0.9520 0.9520 0.9530 0.9528
888.000000 0.9533 0.9531 0.9537 0.9545 0.9545
893.000000 0.9545 0.9558 0.9558 0.9572 0.9577
898.000000 0.9579 0.9583 0.9597 0.9592 0.9598
903.000000 0.9595 0.9603 0.9606 0.9583 0.9600
908.000000 0.9594 0.9586 0.9587 0.9588 0.9574
913.000000 0.9562 0.9557 0.9551 0.9546 0.9528
918.000000 0.9532 0.9516 0.9508 0.9503 0.9497
923.000000 0.9490 0.9483 0.9476 0.9469 0.9462
928.000000 0.9455 0.9448 0.9441 0.9434 0.9425
933.000000 0.9410 0.9393 0.9378 0.9362 0.9316
938.000000 0.9268 0.9220 0.9172 0.9108 0.9035
943.000000 0.8961 0.8875 0.8777 0.8441 0.8081
948.000000 0.7721 0.7360 0.7107 0.7085 0.7065
953.000000 0.7006 0.6929 0.6784 0.6790 0.6803
958.000000 0.7143 0.7320 0.7497 0.7673 0.7850
963.000000 0.8027 0.8203 0.8381 0.8557 0.8734
968.000000 0.8911 0.8922 0.8938 0.8913 0.8891
973.000000 0.8889 0.8787 0.8551 0.8369 0.8370
978.000000 0.8355 0.8520 0.8609 0.8698 0.8767
983.000000 0.8759 0.8746 0.8716 0.8426 0.8136
988.000000 0.7847 0.7559 0.7268 0.6980 0.6683
993.000000 0.6536 0.6548 0.6589 0.6919 0.7249
998.000000 0.7590 0.7925 0.8256 0.8520 0.8512
1003.000000 0.8498 0.8452 0.8411 0.8381 0.8379
1008.000000 0.8387 0.8462 0.8559 0.8726 0.8867
1013.000000 0.8973 0.9054 0.9047 0.9043 0.9038
1018.000000 0.9033 0.9046 0.9083 0.9125 0.9166
1023.000000 0.9207 0.9237 0.9259 0.9293 0.9319
1028.000000 0.9319 0.9304 0.9296 0.9303 0.9284
1033.000000 0.9264 0.9246 0.9229 0.9210 0.9189
1038.000000 0.9169 0.9149 0.9113 0.9075 0.9033
1043.000000 0.8964 0.8896 0.8800 0.8435 0.7963
1048.000000 0.7966 0.8271 0.8495 0.8708 0.8751
1053.000000 0.8751 0.8751 0.8748 0.8745 0.8785
1058.000000 0.8829 0.8858 0.8916 0.8989 0.9070
1063.000000 0.9141 0.9206 0.9254 0.9304 0.9349
1068.000000 0.9376 0.9403 0.9419 0.9429 0.9438
1073.000000 0.9440 0.9443 0.9452 0.9455 0.9465
1078.000000 0.9470 0.9482 0.9486 0.9486 0.9499
1083.000000 0.9500 0.9501 0.9501 0.9497 0.9492
1088.000000 0.9487 0.9482 0.9477 0.9471 0.9465
1093.000000 0.9453 0.9436 0.9419 0.9402 0.9385
1098.000000 0.9368 0.9352 0.9325 0.9290 0.9255
1103.000000 0.9220 0.9185 0.9142 0.9086 0.9041
1108.000000 0.9023 0.9030 0.9029 0.9025 0.9006
1113.000000 0.8924 0.8826 0.8590 0.8346 0.8092
1118.000000 0.7897 0.7890 0.8149 0.8377 0.8599
1123.000000 0.8817 0.8954 0.8954 0.8956 0.8931
1128.000000 0.8918 0.8857 0.8723 0.8636 0.8559
1133.000000 0.8486 0.8428 0.8363 0.8113 0.7798
1138.000000 0.7474 0.7149 0.6825 0.6514 0.6201
1143.000000 0.5881 0.5579 0.5266 0.4955 0.4932
1148.000000 0.4902 0.4825 0.4685 0.4606 0.4608
1153.000000 0.4596 0.4916 0.5684 0.6454 0.7223
1158.000000 0.7499 0.7969 0.8186 0.8418 0.8726
1163.000000 0.8827 0.8926 0.8975 0.9024 0.9074
1168.000000 0.9079 0.9100 0.9120 0.9159 0.9141
1173.000000 0.9140 0.9137 0.9130 0.9124 0.9112
1178.000000 0.9091 0.9066 0.9015 0.8962 0.8952
1183.000000 0.8953 0.8944 0.8890 0.8838 0.8774
1188.000000 0.8711 0.8628 0.8541 0.8433 0.8314
1193.000000 0.8193 0.7958 0.7736 0.7356 0.7001
1198.000000 0.6630 0.6129 0.5573 0.5016 0.4460
1203.000000 0.3904 0.3346 0.2790 0.2234 0.1737
1208.000000 0.1735 0.1722 0.2723 0.3367 0.4012
1213.000000 0.4651 0.5292 0.5935 0.6691 0.6990
1218.000000 0.7259 0.7929 0.8162 0.8356 0.8478
1223.000000 0.8600 0.8714 0.8795 0.8877 0.8948
1228.000000 0.8989 0.9031 0.9074 0.9115 0.9130
1233.000000 0.9138 0.9129 0.9129 0.9126 0.9123
1238.000000 0.9120 0.9107 0.9098 0.9094 0.9089
1243.000000 0.9083 0.9077 0.9081 0.9064 0.9046
1248.000000 0.9028 0.9011 0.8993 0.8975 0.8956
1253.000000 0.8933 0.8919 0.8894 0.8860 0.8810
1258.000000 0.8761 0.8714 0.8664 0.8602 0.8534
1263.000000 0.8467 0.8389 0.8298 0.8214 0.8121
1268.000000 0.7973 0.7353 0.6855 0.6355 0.5856
1273.000000 0.5356 0.4759 0.4786 0.4782 0.4867
1278.000000 0.5274 0.5681 0.6088 0.6495 0.6902
1283.000000 0.7308 0.7863 0.7800 0.7559 0.7319
1288.000000 0.7078 0.6838 0.6598 0.6481 0.6806
1293.000000 0.6454 0.7464 0.7795 0.8116 0.8442
1298.000000 0.8625 0.8690 0.8752 0.8770 0.8789
1303.000000 0.8810 0.8793 0.8796 0.8781 0.8766
1308.000000 0.8752 0.8737 0.8682 0.8610 0.8502
1313.000000 0.8394 0.8286 0.8178 0.8118 0.8126
1318.000000 0.8271 0.8417 0.8563 0.8697 0.8754
1323.000000 0.8820 0.8856 0.8888 0.8925 0.8936
1328.000000 0.8935 0.8933 0.8947 0.8945 0.8961
1333.000000 0.8935 0.8929 0.8922 0.8914 0.8905
1338.000000 0.8896 0.8886 0.8883 0.8879 0.8862
1343.000000 0.8854 0.8839 0.8824 0.8804 0.8789
1348.000000 0.8812 0.8848 0.8860 0.8871 0.8869
1353.000000 0.8853 0.8832 0.8807 0.8768 0.8738
1358.000000 0.8669 0.8589 0.8421 0.8425 0.8431
1363.000000 0.8528 0.8573 0.8572 0.8571 0.8539
1368.000000 0.8482 0.8397 0.8316 0.8234 0.8037
1373.000000 0.7811 0.7621 0.6504 0.5767 0.5025
1378.000000 0.4281 0.3536 0.3165 0.3170 0.3188
1383.000000 0.4357 0.5078 0.5783 0.6466 0.7146
1388.000000 0.7659 0.7788 0.8050 0.8233 0.8368
1393.000000 0.8464 0.8535 0.8566 0.8596 0.8627
1398.000000 0.8641 0.8665 0.8668 0.8667 0.8659
1403.000000 0.8653 0.8645 0.8630 0.8616 0.8601
1408.000000 0.8584 0.8564 0.8545 0.8525 0.8505
1413.000000 0.8483 0.8464 0.8444 0.8424 0.8415
1418.000000 0.8394 0.8373 0.8349 0.8324 0.8299
1423.000000 0.8275 0.8241 0.8183 0.8118 0.8047
1428.000000 0.7944 0.7722 0.7496 0.7270 0.7073
1433.000000 0.7015 0.6962 0.6922 0.6886 0.6825
1438.000000 0.6539 0.6195 0.5851 0.5515 0.5170
1443.000000 0.4825 0.4480 0.4224 0.4268 0.4385
1448.000000 0.4505 0.4621 0.4738 0.4762 0.4453
1453.000000 0.4163 0.3872 0.3586 0.3299 0.3010
1458.000000 0.2975 0.2966 0.3313 0.3495 0.3678
1463.000000 0.3866 0.3977 0.4052 0.4121 0.4818
1468.000000 0.5891 0.6196 0.6422 0.6714 0.7251
1473.000000 0.7469 0.7673 0.7853 0.7966 0.8082
1478.000000 0.8187 0.8280 0.8366 0.8416 0.8422
1483.000000 0.8425 0.8455 0.8446 0.8459 0.8468
1488.000000 0.8471 0.8479 0.8485 0.8495 0.8504
1493.000000 0.8512 0.8523 0.8531 0.8520 0.8523
1498.000000 0.8522 0.8527 0.8521 0.8513 0.8510
1503.000000 0.8517 0.8519 0.8515 0.8519 0.8527
1508.000000 0.8531 0.8537 0.8530 0.8525 0.8524
1513.000000 0.8511 0.8505 0.8492 0.8487 0.8483
1518.000000 0.8477 0.8482 0.8476 0.8470 0.8458
1523.000000 0.8421 0.8397 0.8360 0.8337 0.8302
1528.000000 0.8272 0.8241 0.8215 0.8202 0.8136
1533.000000 0.8068 0.8006 0.7955 0.7877 0.7823
1538.000000 0.7813 0.7763 0.7710 0.7676 0.7641
1543.000000 0.7607 0.7607 0.7595 0.7579 0.7535
1548.000000 0.7475 0.7505 0.7514 0.7428 0.7442
1553.000000 0.7404 0.7386 0.7375 0.7371 0.7608
1558.000000 0.7712 0.7793 0.7743 0.7643 0.7580
1563.000000 0.7532 0.7479 0.7496 0.7625 0.7854
1568.000000 0.8172 0.8184 0.8188 0.8213 0.8213
1573.000000 0.8245 0.8275 0.8270 0.8282 0.8310
1578.000000 0.8318 0.8325 0.8314 0.8306 0.8291
1583.000000 0.8292 0.8299 0.8317 0.8351 0.8387
1588.000000 0.8424 0.8437 0.8432 0.8452 0.8444
1593.000000 0.8450 0.8485 0.8553 0.8622 0.8676
1598.000000 0.8779 0.8874 0.8981 0.9064 0.9181
1603.000000 0.9175 0.9190 0.9172 0.9177 0.9154
1608.000000 0.9159 0.9151 0.9140 0.9146 0.9130
1613.000000 0.9123 0.9122 0.9106 0.9088 0.9072
1618.000000 0.9069 0.9067 0.9068 0.9077 0.9079
1623.000000 0.9066 0.9067 0.9058 0.9078 0.9091
1628.000000 0.9091 0.9102 0.9101 0.9112 0.9108
1633.000000 0.9111 0.9102 0.9107 0.9108 0.9101
1638.000000 0.9100 0.9096 0.9100 0.9103 0.9100
1643.000000 0.9096 0.9100 0.9106 0.9103 0.9103
1648.000000 0.9109 0.9115 0.9120 0.9125 0.9116
1653.000000 0.9132 0.9136 0.9138 0.9140 0.9142
1658.000000 0.9130 0.9133 0.9145 0.9133 0.9129
1663.000000 0.9126 0.9122 0.9119 0.9116 0.9113
1668.000000 0.9109 0.9106 0.9102 0.9102 0.9101
1673.000000 0.9092 0.9086 0.9086 0.9085 0.9086
1678.000000 0.9085 0.9085 0.9087 0.9090 0.9093
1683.000000 0.9096 0.9099 0.9103 0.9105 0.9108
1688.000000 0.9111 0.9115 0.9118 0.9117 0.9120
1693.000000 0.9122 0.9122 0.9124 0.9125 0.9126
1698.000000 0.9127 0.9129 0.9131 0.9131 0.9133
1703.000000 0.9134 0.9135 0.9136 0.9136 0.9135
1708.000000 0.9135 0.9134 0.9134 0.9134 0.9132
1713.000000 0.9132 0.9131 0.9131 0.9131 0.9130
1718.000000 0.9130 0.9130 0.9129 0.9129 0.9128
1723.000000 0.9128 0.9129 0.9129 0.9129 0.9130
1728.000000 0.9130 0.9131 0.9132 0.9131 0.9132
1733.000000 0.9133 0.9133 0.9133 0.9134 0.9134
1738.000000 0.9135 0.9136 0.9135 0.9136 0.9137
1743.000000 0.9137 0.9138 0.9137 0.9138 0.9138
1748.000000 0.9140 0.9141 0.9141 0.9141 0.9144
1753.000000 0.9145 0.9146 0.9146 0.9146 0.9148
1758.000000 0.9149 0.9137 0.9134 0.9136 0.9138
1763.000000 0.9138 0.9138 0.9138 0.9138 0.9138
1768.000000 0.9138 0.9138 0.9138 0.9138 0.9138
1773.000000 0.9137 0.9137 0.9137 0.9143 0.9151
1778.000000 0.9151 0.9151 0.9151 0.9151 0.9151
1783.000000 0.9151 0.9151 0.9151 0.9149 0.9149
1788.000000 0.9149 0.9148 0.9148 0.9146 0.9146
1793.000000 0.9146 0.9145 0.9145 0.9144 0.9144
1798.000000 0.9142 0.9142 0.9142 0.9142 0.9141
1803.000000 0.9139 0.9145 0.9154 0.9154 0.9153
1808.000000 0.9153 0.9161 0.9165 0.9165 0.9164
1813.000000 0.9164 0.9163 0.9163 0.9162 0.9161
1818.000000 0.9161 0.9160 0.9145 0.9144 0.9144
1823.000000 0.9143 0.9143 0.9142 0.9141 0.9141
1828.000000 0.9140 0.9140 0.9139 0.9139 0.9139
1833.000000 0.9139 0.9139 0.9139 0.9148 0.9154
1838.000000 0.9154 0.9154 0.9153 0.9153 0.9153
1843.000000 0.9153 0.9153 0.9153 0.9153 0.9153
1848.000000 0.9153 0.9153 0.9155 0.9156 0.9158
1853.000000 0.9159 0.9161 0.9164 0.9170 0.9176
1858.000000 0.9168 0.9169 0.9171 0.9172 0.9175
1863.000000 0.9176 0.9178 0.9179 0.9182 0.9183
1868.000000 0.9185 0.9186 0.9187 0.9188 0.9189
1873.000000 0.9190 0.9192 0.9192 0.9180 0.9181
1878.000000 0.9182 0.9183 0.9185 0.9186 0.9187
1883.000000 0.9188 0.9184 0.9176 0.9178 0.9179
1888.000000 0.9179 0.9179 0.9179 0.9188 0.9194
1893.000000 0.9193 0.9193 0.9193 0.9193 0.9192
1898.000000 0.9192 0.9192 0.9191 0.9191 0.9191
1903.000000 0.9191 0.9190 0.9190 0.9190 0.9186
1908.000000 0.9174 0.9174 0.9174 0.9174 0.9173
1913.000000 0.9173 0.9173 0.9173 0.9172 0.9172
1918.000000 0.9172 0.9172 0.9172 0.9171 0.9171
1923.000000 0.9171 0.9171 0.9170 0.9170 0.9170
1928.000000 0.9170 0.9170 0.9169 0.9169 0.9169
1933.000000 0.9169 0.9169 0.9168 0.9168 0.9166
1938.000000 0.9165 0.9163 0.9161 0.9160 0.9158
1943.000000 0.9157 0.9155 0.9154 0.9151 0.9151
1948.000000 0.9151 0.9150 0.9160 0.9163 0.9162
1953.000000 0.9162 0.9161 0.9173 0.9173 0.9173
1958.000000 0.9173 0.9173 0.9173 0.9173 0.9176
1963.000000 0.9171 0.9161 0.9166 0.9170 0.9161
1968.000000 0.9161 0.9162 0.9162 0.9162 0.9162
1973.000000 0.9162 0.9162 0.9162 0.9163 0.9163
1978.000000 0.9163 0.9176 0.9178 0.9178 0.9178
1983.000000 0.9178 0.9178 0.9178 0.9180 0.9188
1988.000000 0.9182 0.9176 0.9170 0.9163 0.9140
1993.000000 0.9109 0.9025 0.8865 0.8841 0.8872
1998.000000 0.8994 0.9116 0.9231 0.9269 0.9305
2003.000000 0.9313 0.9319 0.9320 0.9321 0.9322
2008.000000 0.9323 0.9325 0.9326 0.9327 0.9328
2013.000000 0.9329 0.9329 0.9329 0.9328 0.9326
2018.000000 0.9325 0.9323 0.9320 0.9318 0.9316
2023.000000 0.9313 0.9313 0.9302 0.9294 0.9301
2028.000000 0.9296 0.9289 0.9287 0.9285 0.9284
2033.000000 0.9282 0.9281 0.9279 0.9277 0.9275
2038.000000 0.9273 0.9271 0.9270 0.9270 0.9271
2043.000000 0.9273 0.9275 0.9278 0.9280 0.9282
2048.000000 0.9284 0.9293 0.9304 0.9298 0.9302
2053.000000 0.9309 0.9313 0.9314 0.9316 0.9305
2058.000000 0.9304 0.9305 0.9307 0.9308 0.9310
2063.000000 0.9311 0.9314 0.9315 0.9317 0.9318
2068.000000 0.9320 0.9321 0.9323 0.9324 0.9325
2073.000000 0.9325 0.9325 0.9325 0.9325 0.9325
2078.000000 0.9326 0.9326 0.9326 0.9326 0.9328
2083.000000 0.9328 0.9328 0.9328 0.9328 0.9328
2088.000000 0.9329 0.9329 0.9329 0.9329 0.9330
2093.000000 0.9329 0.9317 0.9330 0.9328 0.9316
2098.000000 0.9320 0.9330 0.9330 0.9330 0.9330
2103.000000 0.9329 0.9329 0.9329 0.9329 0.9328
2108.000000 0.9328 0.9328 0.9328 0.9327 0.9327
2113.000000 0.9327 0.9327 0.9326 0.9326 0.9325
2118.000000 0.9325 0.9325 0.9325 0.9322 0.9311
2123.000000 0.9324 0.9324 0.9323 0.9323 0.9323
2128.000000 0.9323 0.9322 0.9322 0.9322 0.9322
2133.000000 0.9321 0.9321 0.9320 0.9320 0.9320
2138.000000 0.9320 0.9319 0.9319 0.9319 0.9319
2143.000000 0.9318 0.9318 0.9318 0.9318 0.9317
2148.000000 0.9317 0.9317 0.9317 0.9316 0.9316
2153.000000 0.9315 0.9315 0.9315 0.9315 0.9314
2158.000000 0.9314 0.9314 0.9314 0.9313 0.9313
2163.000000 0.9313 0.9313 0.9313 0.9313 0.9313
2168.000000 0.9313 0.9326 0.9328 0.9328 0.9328
2173.000000 0.9328 0.9328 0.9328 0.9328 0.9328
2178.000000 0.9325 0.9313 0.9313 0.9312 0.9312
2183.000000 0.9318 0.9320 0.9312 0.9312 0.9312
2188.000000 0.9312 0.9312 0.9312 0.9310 0.9309
2193.000000 0.9318 0.9319 0.9305 0.9314 0.9311
2198.000000 0.9308 0.9305 0.9302 0.9299 0.9296
2203.000000 0.9291 0.9288 0.9285 0.9282 0.9278
2208.000000 0.9275 0.9272 0.9268 0.9263 0.9261
2213.000000 0.9258 0.9255 0.9251 0.9247 0.9244
2218.000000 0.9241 0.9237 0.9234 0.9231 0.9240
2223.000000 0.9240 0.9238 0.9235 0.9233 0.9229
2228.000000 0.9227 0.9224 0.9221 0.9220 0.9218
2233.000000 0.9215 0.9213 0.9214 0.9222 0.9219
2238.000000 0.9217 0.9215 0.9213 0.9210 0.9208
2243.000000 0.9204 0.9202 0.9210 0.9213 0.9210
2248.000000 0.9208 0.9204 0.9202 0.9211 0.9212
2253.000000 0.9210 0.9208 0.9219 0.9217 0.9214
2258.000000 0.9214 0.9224 0.9222 0.9223 0.9232
2263.000000 0.9228 0.9226 0.9229 0.9236 0.9233
2268.000000 0.9230 0.9235 0.9237 0.9232 0.9238
2273.000000 0.9239 0.9234 0.9230 0.9238 0.9236
2278.000000 0.9232 0.9242 0.9238 0.9234 0.9229
2283.000000 0.9226 0.9236 0.9232 0.9228 0.9223
2288.000000 0.9223 0.9229 0.9225 0.9222 0.9221
2293.000000 0.9222 0.9223 0.9224 0.9203 0.9227
2298.000000 0.9229 0.9220 0.9216 0.9217 0.9219
2303.000000 0.9220 0.9221 0.9222 0.9224 0.9227
2308.000000 0.9230 0.9234 0.9239 0.9243 0.9247
2313.000000 0.9253 0.9257 0.9261 0.9266 0.9270
2318.000000 0.9274 0.9279 0.9283 0.9287 0.9293
2323.000000 0.9297 0.9301 0.9296 0.9295 0.9288
2328.000000 0.9287 0.9290 0.9293 0.9282 0.9283
2333.000000 0.9286 0.9289 0.9277 0.9281 0.9297
2338.000000 0.9298 0.9290 0.9306 0.9309 0.9313
2343.000000 0.9315 0.9323 0.9335 0.9338 0.9334
2348.000000 0.9320 0.9315 0.9318 0.9329 0.9338
2353.000000 0.9341 0.9343 0.9345 0.9336 0.9323
2358.000000 0.9324 0.9312 0.9312 0.9301 0.9303
2363.000000 0.9304 0.9309 0.9309 0.9309 0.9309
2368.000000 0.9310 0.9314 0.9326 0.9326 0.9326
2373.000000 0.9326 0.9320 0.9312 0.9313 0.9305
2378.000000 0.9298 0.9286 0.9278 0.9275 0.9261
2383.000000 0.9253 0.9250 0.9234 0.9229 0.9225
2388.000000 0.9222 0.9219 0.9201 0.9197 0.9194
2393.000000 0.9191 0.9188 0.9184 0.9181 0.9178
2398.000000 0.9175 0.9175 0.9175 0.9178 0.9180
2403.000000 0.9182 0.9186 0.9188 0.9191 0.9185
2408.000000 0.9193 0.9189 0.9188 0.9191 0.9194
2413.000000 0.9197 0.9201 0.9202 0.9204 0.9205
2418.000000 0.9206 0.9209 0.9211 0.9212 0.9213
2423.000000 0.9216 0.9217 0.9219 0.9221 0.9222
2428.000000 0.9224 0.9226 0.9228 0.9229 0.9231
2433.000000 0.9233 0.9235 0.9236 0.9238 0.9239
