##TITLE=Butane, 2-methyl-
##JCAMP-DX=4.24
##DATA TYPE=INFRARED SPECTRUM
##CLASS=COBLENTZ
##ORIGIN=DOW CHEMICAL COMPANY
##OWNER=Copyright (C) 1987 by the Coblentz Society
Collection (C) 2018 copyright by the U.S. Secretary of Commerce
on behalf of the United States of America. All rights reserved.
##DATE=1964
##NAMES=isopentane
ISOPENTANE
##CAS REGISTRY NO=78-78-4
##MOLFORM=C5 H12
##SOURCE REFERENCE=COBLENTZ NO. 8874
##$NIST SOURCE=COBLENTZ
##$NIST IMAGE=cob8874
##SPECTROMETER/DATA SYSTEM=DOW KBr FOREPRISM-GRATING
##INSTRUMENT PARAMETERS=GRATING CHANGED AT 5.0, 7.5, 15.0 MICRON
##STATE=GAS (100 mmHg, N2 ADDED, TOTAL PRESSURE 600 mmHg)
##PATH LENGTH=5 CM
##SAMPLING PROCEDURE=TRANSMISSION
##RESOLUTION=2
##DATA PROCESSING=DIGITIZED BY COBLENTZ SOCIETY (BATCH II) FROM HARD COPY
##XUNITS=1/CM
##YUNITS=TRANSMITTANCE
##XFACTOR=1.0
##YFACTOR=1
##FIRSTX=460
##LASTX=3792
##FIRSTY=0.8534
##MAXX=3792
##MINX=460
##MAXY=0.8932
##MINY=0.0022
##NPOINTS=3333
##XYDATA=(X++(Y..Y))
460.000000 0.8534 0.8534 0.8534 0.8533 0.8532
465.000000 0.8531 0.8530 0.8529 0.8528 0.8527
470.000000 0.8527 0.8527 0.8526 0.8526 0.8525
475.000000 0.8523 0.8521 0.8519 0.8517 0.8515
480.000000 0.8515 0.8514 0.8513 0.8512 0.8512
485.000000 0.8511 0.8510 0.8510 0.8508 0.8506
490.000000 0.8504 0.8501 0.8499 0.8497 0.8495
495.000000 0.8493 0.8491 0.8489 0.8486 0.8482
500.000000 0.8479 0.8476 0.8473 0.8469 0.8466
505.000000 0.8463 0.8459 0.8456 0.8453 0.8450
510.000000 0.8446 0.8444 0.8441 0.8439 0.8436
515.000000 0.8434 0.8431 0.8428 0.8426 0.8423
520.000000 0.8421 0.8418 0.8416 0.8413 0.8411
525.000000 0.8408 0.8406 0.8405 0.8404 0.8403
530.000000 0.8402 0.8400 0.8399 0.8398 0.8397
535.000000 0.8395 0.8394 0.8393 0.8392 0.8392
540.000000 0.8393 0.8395 0.8396 0.8398 0.8399
545.000000 0.8401 0.8402 0.8403 0.8405 0.8410
550.000000 0.8416 0.8423 0.8429 0.8436 0.8443
555.000000 0.8454 0.8465 0.8476 0.8488 0.8498
560.000000 0.8504 0.8511 0.8518 0.8524 0.8529
565.000000 0.8533 0.8537 0.8541 0.8545 0.8549
570.000000 0.8553 0.8556 0.8560 0.8563 0.8566
575.000000 0.8570 0.8573 0.8576 0.8580 0.8583
580.000000 0.8582 0.8591 0.8594 0.8598 0.8601
585.000000 0.8605 0.8609 0.8612 0.8616 0.8620
590.000000 0.8624 0.8628 0.8631 0.8635 0.8639
595.000000 0.8643 0.8647 0.8651 0.8655 0.8657
600.000000 0.8657 0.8658 0.8659 0.8660 0.8661
605.000000 0.8662 0.8663 0.8664 0.8665 0.8665
610.000000 0.8666 0.8667 0.8667 0.8667 0.8667
615.000000 0.8668 0.8668 0.8668 0.8668 0.8669
620.000000 0.8669 0.8669 0.8669 0.8668 0.8667
625.000000 0.8666 0.8665 0.8664 0.8663 0.8662
630.000000 0.8662 0.8661 0.8660 0.8659 0.8658
635.000000 0.8657 0.8656 0.8655 0.8654 0.8653
640.000000 0.8652 0.8651 0.8650 0.8649 0.8648
645.000000 0.8647 0.8647 0.8646 0.8645 0.8644
650.000000 0.8643 0.8642 0.8641 0.8640 0.8639
655.000000 0.8638 0.8637 0.8636 0.8635 0.8634
660.000000 0.8633 0.8633 0.8644 0.8656 0.8667
665.000000 0.8678 0.8690 0.8701 0.8712 0.8724
670.000000 0.8755 0.8788 0.8832 0.8832 0.8825
675.000000 0.8817 0.8804 0.8790 0.8774 0.8767
680.000000 0.8763 0.8760 0.8756 0.8754 0.8758
685.000000 0.8760 0.8762 0.8764 0.8766 0.8768
690.000000 0.8771 0.8771 0.8774 0.8776 0.8779
695.000000 0.8781 0.8782 0.8784 0.8785 0.8786
700.000000 0.8788 0.8788 0.8788 0.8788 0.8787
705.000000 0.8787 0.8786 0.8786 0.8786 0.8785
710.000000 0.8785 0.8785 0.8784 0.8784 0.8783
715.000000 0.8782 0.8782 0.8781 0.8780 0.8779
720.000000 0.8778 0.8775 0.8771 0.8767 0.8763
725.000000 0.8759 0.8755 0.8751 0.8747 0.8743
730.000000 0.8740 0.8736 0.8732 0.8729 0.8725
735.000000 0.8714 0.8698 0.8682 0.8666 0.8649
740.000000 0.8627 0.8605 0.8584 0.8562 0.8541
745.000000 0.8519 0.8493 0.8468 0.8442 0.8416
750.000000 0.8391 0.8361 0.8327 0.8292 0.8258
755.000000 0.8224 0.8189 0.8152 0.8115 0.8077
760.000000 0.8040 0.8002 0.7963 0.7924 0.7885
765.000000 0.7852 0.7766 0.7793 0.7798 0.7801
770.000000 0.7813 0.7825 0.7837 0.7848 0.7867
775.000000 0.7887 0.7908 0.7928 0.7950 0.7972
780.000000 0.7996 0.8023 0.8055 0.8087 0.8124
785.000000 0.8163 0.8202 0.8236 0.8271 0.8297
790.000000 0.8313 0.8326 0.8340 0.8353 0.8366
795.000000 0.8378 0.8389 0.8401 0.8413 0.8424
800.000000 0.8434 0.8442 0.8449 0.8456 0.8464
805.000000 0.8473 0.8482 0.8492 0.8501 0.8513
810.000000 0.8527 0.8540 0.8553 0.8567 0.8579
815.000000 0.8592 0.8605 0.8618 0.8631 0.8647
820.000000 0.8664 0.8681 0.8684 0.8684 0.8686
825.000000 0.8687 0.8688 0.8689 0.8689 0.8688
830.000000 0.8686 0.8685 0.8683 0.8682 0.8683
835.000000 0.8683 0.8683 0.8683 0.8690 0.8702
840.000000 0.8714 0.8727 0.8739 0.8752 0.8765
845.000000 0.8778 0.8790 0.8790 0.8790 0.8791
850.000000 0.8810 0.8793 0.8794 0.8795 0.8795
855.000000 0.8796 0.8796 0.8796 0.8796 0.8796
860.000000 0.8795 0.8795 0.8794 0.8793 0.8792
865.000000 0.8792 0.8791 0.8789 0.8786 0.8783
870.000000 0.8780 0.8777 0.8774 0.8771 0.8768
875.000000 0.8765 0.8760 0.8755 0.8750 0.8746
880.000000 0.8741 0.8736 0.8729 0.8722 0.8715
885.000000 0.8708 0.8701 0.8694 0.8687 0.8679
890.000000 0.8672 0.8664 0.8652 0.8641 0.8630
895.000000 0.8619 0.8607 0.8590 0.8567 0.8544
900.000000 0.8521 0.8493 0.8465 0.8438 0.8410
905.000000 0.8382 0.8354 0.8325 0.8296 0.8267
910.000000 0.8238 0.8210 0.8178 0.8171 0.8177
915.000000 0.8187 0.8196 0.8204 0.8212 0.8221
920.000000 0.8233 0.8246 0.8260 0.8273 0.8286
925.000000 0.8297 0.8306 0.8315 0.8322 0.8330
930.000000 0.8337 0.8345 0.8358 0.8371 0.8385
935.000000 0.8411 0.8449 0.8503 0.8538 0.8569
940.000000 0.8583 0.8596 0.8604 0.8612 0.8613
945.000000 0.8617 0.8614 0.8609 0.8602 0.8596
950.000000 0.8577 0.8552 0.8526 0.8492 0.8453
955.000000 0.8409 0.8358 0.8295 0.8247 0.8207
960.000000 0.8167 0.8125 0.8082 0.8038 0.7994
965.000000 0.7947 0.7900 0.7853 0.7804 0.7752
970.000000 0.7701 0.7650 0.7584 0.7497 0.7422
975.000000 0.7358 0.7294 0.7243 0.7211 0.7183
980.000000 0.7217 0.7244 0.7278 0.7318 0.7367
985.000000 0.7405 0.7443 0.7488 0.7514 0.7539
990.000000 0.7566 0.7592 0.7619 0.7646 0.7678
995.000000 0.7717 0.7756 0.7794 0.7806 0.7823
1000.000000 0.7803 0.7800 0.7797 0.7792 0.7786
1005.000000 0.7778 0.7766 0.7753 0.7722 0.7694
1010.000000 0.7667 0.7634 0.7598 0.7555 0.7511
1015.000000 0.7472 0.7434 0.7396 0.7359 0.7323
1020.000000 0.7310 0.7305 0.7286 0.7301 0.7303
1025.000000 0.7312 0.7326 0.7348 0.7392 0.7438
1030.000000 0.7483 0.7529 0.7574 0.7618 0.7679
1035.000000 0.7745 0.7848 0.7956 0.8034 0.8102
1040.000000 0.8149 0.8196 0.8236 0.8273 0.8310
1045.000000 0.8345 0.8381 0.8416 0.8451 0.8485
1050.000000 0.8519 0.8553 0.8587 0.8620 0.8651
1055.000000 0.8680 0.8708 0.8736 0.8755 0.8775
1060.000000 0.8794 0.8809 0.8815 0.8821 0.8827
1065.000000 0.8824 0.8821 0.8818 0.8815 0.8811
1070.000000 0.8809 0.8807 0.8805 0.8803 0.8803
1075.000000 0.8803 0.8803 0.8806 0.8809 0.8812
1080.000000 0.8815 0.8818 0.8820 0.8823 0.8825
1085.000000 0.8828 0.8831 0.8867 0.8838 0.8841
1090.000000 0.8844 0.8848 0.8851 0.8854 0.8855
1095.000000 0.8857 0.8859 0.8860 0.8862 0.8862
1100.000000 0.8860 0.8858 0.8856 0.8854 0.8851
1105.000000 0.8846 0.8841 0.8836 0.8831 0.8824
1110.000000 0.8814 0.8804 0.8795 0.8785 0.8775
1115.000000 0.8761 0.8744 0.8728 0.8711 0.8691
1120.000000 0.8672 0.8652 0.8633 0.8608 0.8583
1125.000000 0.8557 0.8532 0.8506 0.8448 0.8387
1130.000000 0.8326 0.8265 0.8205 0.8144 0.8083
1135.000000 0.8022 0.7961 0.7900 0.7839 0.7778
1140.000000 0.7717 0.7661 0.7604 0.7499 0.7394
1145.000000 0.7334 0.7309 0.7284 0.7243 0.7204
1150.000000 0.7177 0.7175 0.7175 0.7357 0.7455
1155.000000 0.7507 0.7475 0.7405 0.7335 0.7266
1160.000000 0.7196 0.7185 0.7247 0.7360 0.7473
1165.000000 0.7586 0.7698 0.7780 0.7796 0.7788
1170.000000 0.7779 0.7769 0.7761 0.7753 0.7747
1175.000000 0.7756 0.7767 0.7778 0.7791 0.7804
1180.000000 0.7817 0.7835 0.7856 0.7876 0.7903
1185.000000 0.7937 0.7988 0.8043 0.8100 0.8157
1190.000000 0.8214 0.8266 0.8316 0.8361 0.8400
1195.000000 0.8438 0.8472 0.8506 0.8540 0.8577
1200.000000 0.8614 0.8648 0.8671 0.8694 0.8713
1205.000000 0.8732 0.8750 0.8766 0.8783 0.8796
1210.000000 0.8808 0.8818 0.8822 0.8826 0.8830
1215.000000 0.8834 0.8835 0.8836 0.8837 0.8838
1220.000000 0.8837 0.8800 0.8834 0.8833 0.8832
1225.000000 0.8828 0.8824 0.8820 0.8815 0.8811
1230.000000 0.8807 0.8803 0.8790 0.8778 0.8765
1235.000000 0.8753 0.8740 0.8728 0.8715 0.8702
1240.000000 0.8690 0.8677 0.8664 0.8646 0.8627
1245.000000 0.8608 0.8590 0.8571 0.8551 0.8529
1250.000000 0.8508 0.8486 0.8465 0.8440 0.8416
1255.000000 0.8391 0.8366 0.8341 0.8317 0.8292
1260.000000 0.8257 0.8222 0.8187 0.8151 0.8122
1265.000000 0.8093 0.8065 0.8036 0.8008 0.7974
1270.000000 0.7937 0.7900 0.7864 0.7841 0.7817
1275.000000 0.7793 0.7773 0.7754 0.7739 0.7725
1280.000000 0.7711 0.7697 0.7683 0.7670 0.7657
1285.000000 0.7644 0.7633 0.7621 0.7609 0.7598
1290.000000 0.7586 0.7574 0.7563 0.7561 0.7561
1295.000000 0.7569 0.7589 0.7628 0.7662 0.7673
1300.000000 0.7667 0.7569 0.7470 0.7397 0.7405
1305.000000 0.7748 0.7759 0.7752 0.7734 0.7663
1310.000000 0.7609 0.7594 0.7599 0.7628 0.7711
1315.000000 0.7837 0.7917 0.7995 0.8063 0.8094
1320.000000 0.8124 0.8130 0.8128 0.8106 0.8107
1325.000000 0.8092 0.8073 0.8053 0.8024 0.7984
1330.000000 0.7951 0.7919 0.7884 0.7847 0.7812
1335.000000 0.7784 0.7768 0.7753 0.7738 0.7730
1340.000000 0.7721 0.7709 0.7692 0.7662 0.7586
1345.000000 0.7480 0.7334 0.7166 0.7056 0.6953
1350.000000 0.6871 0.6794 0.6693 0.6524 0.6354
1355.000000 0.6184 0.6014 0.5843 0.5678 0.5543
1360.000000 0.5450 0.5283 0.5069 0.4856 0.4642
1365.000000 0.4428 0.4215 0.4001 0.3788 0.3574
1370.000000 0.3360 0.3200 0.3139 0.3100 0.3076
1375.000000 0.3070 0.3068 0.2798 0.2421 0.2044
1380.000000 0.1937 0.1925 0.1919 0.1915 0.1899
1385.000000 0.1883 0.1871 0.1862 0.2051 0.2141
1390.000000 0.2210 0.2180 0.1971 0.1967 0.2178
1395.000000 0.2513 0.2849 0.3077 0.3202 0.3318
1400.000000 0.3415 0.3552 0.3727 0.4021 0.4430
1405.000000 0.4839 0.5248 0.5657 0.6057 0.6352
1410.000000 0.6785 0.7022 0.7145 0.7269 0.7385
1415.000000 0.7496 0.7603 0.7705 0.7764 0.7808
1420.000000 0.7830 0.7847 0.7857 0.7869 0.7855
1425.000000 0.7849 0.7839 0.7819 0.7795 0.7769
1430.000000 0.7737 0.7681 0.7598 0.7483 0.7340
1435.000000 0.7220 0.7119 0.7018 0.6914 0.6794
1440.000000 0.6569 0.6322 0.6075 0.5828 0.5581
1445.000000 0.5335 0.5088 0.4841 0.4594 0.4347
1450.000000 0.4100 0.3854 0.3607 0.3360 0.3114
1455.000000 0.2935 0.2743 0.2525 0.2267 0.2056
1460.000000 0.1906 0.1765 0.1649 0.1576 0.1529
1465.000000 0.1493 0.1386 0.1305 0.1254 0.1251
1470.000000 0.1128 0.0989 0.0950 0.0937 0.0933
1475.000000 0.0979 0.1150 0.1215 0.1256 0.1277
1480.000000 0.1295 0.1468 0.1660 0.1851 0.2094
1485.000000 0.2268 0.2399 0.2567 0.2721 0.2854
1490.000000 0.2968 0.3594 0.3912 0.4096 0.4459
1495.000000 0.4745 0.5077 0.5409 0.5741 0.6040
1500.000000 0.6147 0.6367 0.6482 0.6586 0.6687
1505.000000 0.6788 0.7138 0.7408 0.7573 0.7857
1510.000000 0.7972 0.8064 0.8139 0.8191 0.8242
1515.000000 0.8278 0.8309 0.8340 0.8369 0.8395
1520.000000 0.8421 0.8443 0.8455 0.8467 0.8473
1525.000000 0.8480 0.8486 0.8492 0.8494 0.8495
1530.000000 0.8495 0.8495 0.8495 0.8494 0.8494
1535.000000 0.8493 0.8493 0.8492 0.8492 0.8491
1540.000000 0.8490 0.8490 0.8486 0.8482 0.8478
1545.000000 0.8474 0.8471 0.8467 0.8462 0.8458
1550.000000 0.8454 0.8447 0.8440 0.8434 0.8427
1555.000000 0.8423 0.8420 0.8418 0.8416 0.8413
1560.000000 0.8406 0.8399 0.8392 0.8379 0.8360
1565.000000 0.8341 0.8322 0.8318 0.8322 0.8326
1570.000000 0.8330 0.8334 0.8338 0.8342 0.8347
1575.000000 0.8351 0.8356 0.8361 0.8365 0.8371
1580.000000 0.8380 0.8389 0.8392 0.8396 0.8400
1585.000000 0.8404 0.8408 0.8411 0.8413 0.8417
1590.000000 0.8420 0.8423 0.8427 0.8431 0.8436
1595.000000 0.8440 0.8444 0.8449 0.8453 0.8460
1600.000000 0.8466 0.8473 0.8479 0.8482 0.8485
1605.000000 0.8488 0.8490 0.8492 0.8494 0.8496
1610.000000 0.8498 0.8500 0.8502 0.8504 0.8505
1615.000000 0.8506 0.8508 0.8509 0.8510 0.8511
1620.000000 0.8513 0.8514 0.8515 0.8516 0.8518
1625.000000 0.8515 0.8513 0.8510 0.8508 0.8505
1630.000000 0.8503 0.8500 0.8498 0.8496 0.8493
1635.000000 0.8491 0.8489 0.8487 0.8484 0.8482
1640.000000 0.8480 0.8477 0.8475 0.8473 0.8470
1645.000000 0.8466 0.8463 0.8460 0.8457 0.8454
1650.000000 0.8450 0.8445 0.8440 0.8435 0.8430
1655.000000 0.8425 0.8421 0.8416 0.8411 0.8407
1660.000000 0.8402 0.8397 0.8393 0.8388 0.8383
1665.000000 0.8379 0.8374 0.8369 0.8366 0.8364
1670.000000 0.8362 0.8360 0.8360 0.8362 0.8365
1675.000000 0.8369 0.8373 0.8377 0.8380 0.8384
1680.000000 0.8387 0.8391 0.8394 0.8397 0.8400
1685.000000 0.8403 0.8407 0.8410 0.8413 0.8416
1690.000000 0.8420 0.8424 0.8427 0.8429 0.8430
1695.000000 0.8432 0.8434 0.8435 0.8437 0.8439
1700.000000 0.8441 0.8442 0.8444 0.8446 0.8448
1705.000000 0.8449 0.8451 0.8453 0.8455 0.8456
1710.000000 0.8458 0.8460 0.8462 0.8463 0.8465
1715.000000 0.8467 0.8469 0.8470 0.8472 0.8474
1720.000000 0.8476 0.8477 0.8479 0.8480 0.8481
1725.000000 0.8483 0.8484 0.8486 0.8487 0.8488
1730.000000 0.8490 0.8491 0.8492 0.8494 0.8495
1735.000000 0.8497 0.8498 0.8499 0.8501 0.8502
1740.000000 0.8504 0.8505 0.8506 0.8508 0.8509
1745.000000 0.8511 0.8512 0.8513 0.8515 0.8516
1750.000000 0.8518 0.8519 0.8520 0.8522 0.8523
1755.000000 0.8523 0.8524 0.8525 0.8525 0.8526
1760.000000 0.8526 0.8527 0.8528 0.8528 0.8529
1765.000000 0.8531 0.8533 0.8535 0.8537 0.8542
1770.000000 0.8548 0.8555 0.8561 0.8568 0.8574
1775.000000 0.8580 0.8585 0.8582 0.8581 0.8580
1780.000000 0.8579 0.8578 0.8577 0.8575 0.8574
1785.000000 0.8573 0.8572 0.8570 0.8569 0.8567
1790.000000 0.8565 0.8564 0.8563 0.8563 0.8563
1795.000000 0.8563 0.8564 0.8567 0.8570 0.8573
1800.000000 0.8576 0.8579 0.8582 0.8586 0.8591
1805.000000 0.8595 0.8600 0.8601 0.8601 0.8601
1810.000000 0.8602 0.8602 0.8602 0.8601 0.8599
1815.000000 0.8598 0.8597 0.8595 0.8593 0.8591
1820.000000 0.8590 0.8588 0.8586 0.8584 0.8582
1825.000000 0.8580 0.8577 0.8574 0.8571 0.8568
1830.000000 0.8565 0.8562 0.8561 0.8562 0.8563
1835.000000 0.8564 0.8565 0.8566 0.8566 0.8567
1840.000000 0.8568 0.8569 0.8570 0.8571 0.8573
1845.000000 0.8575 0.8577 0.8580 0.8582 0.8584
1850.000000 0.8587 0.8589 0.8592 0.8594 0.8596
1855.000000 0.8599 0.8601 0.8604 0.8606 0.8608
1860.000000 0.8610 0.8612 0.8613 0.8614 0.8615
1865.000000 0.8616 0.8618 0.8619 0.8619 0.8619
1870.000000 0.8618 0.8618 0.8617 0.8616 0.8616
1875.000000 0.8615 0.8615 0.8614 0.8614 0.8614
1880.000000 0.8613 0.8613 0.8613 0.8612 0.8612
1885.000000 0.8613 0.8614 0.8615 0.8616 0.8616
1890.000000 0.8617 0.8618 0.8619 0.8620 0.8621
1895.000000 0.8622 0.8623 0.8624 0.8624 0.8625
1900.000000 0.8626 0.8627 0.8628 0.8626 0.8624
1905.000000 0.8622 0.8620 0.8618 0.8617 0.8615
1910.000000 0.8613 0.8611 0.8609 0.8607 0.8605
1915.000000 0.8603 0.8602 0.8599 0.8596 0.8593
1920.000000 0.8591 0.8588 0.8585 0.8582 0.8579
1925.000000 0.8576 0.8573 0.8571 0.8570 0.8569
1930.000000 0.8568 0.8567 0.8565 0.8564 0.8563
1935.000000 0.8565 0.8567 0.8570 0.8573 0.8575
1940.000000 0.8578 0.8580 0.8583 0.8585 0.8588
1945.000000 0.8590 0.8593 0.8595 0.8598 0.8601
1950.000000 0.8604 0.8607 0.8610 0.8613 0.8616
1955.000000 0.8618 0.8621 0.8624 0.8626 0.8629
1960.000000 0.8631 0.8634 0.8637 0.8639 0.8642
1965.000000 0.8644 0.8647 0.8650 0.8654 0.8657
1970.000000 0.8661 0.8664 0.8666 0.8668 0.8669
1975.000000 0.8671 0.8673 0.8675 0.8677 0.8680
1980.000000 0.8682 0.8683 0.8684 0.8686 0.8687
1985.000000 0.8698 0.8689 0.8689 0.8690 0.8691
1990.000000 0.8693 0.8696 0.8699 0.8702 0.8705
1995.000000 0.8708 0.8710 0.8713 0.8716 0.8722
2000.000000 0.8729 0.8735 0.8742 0.8745 0.8749
2005.000000 0.8752 0.8756 0.8759 0.8762 0.8765
2010.000000 0.8768 0.8771 0.8774 0.8775 0.8776
2015.000000 0.8776 0.8776 0.8775 0.8775 0.8775
2020.000000 0.8775 0.8774 0.8774 0.8772 0.8771
2025.000000 0.8769 0.8768 0.8767 0.8766 0.8764
2030.000000 0.8763 0.8762 0.8761 0.8759 0.8757
2035.000000 0.8755 0.8753 0.8751 0.8749 0.8747
2040.000000 0.8746 0.8744 0.8742 0.8740 0.8738
2045.000000 0.8736 0.8734 0.8732 0.8730 0.8728
2050.000000 0.8726 0.8723 0.8721 0.8718 0.8716
2055.000000 0.8713 0.8711 0.8709 0.8707 0.8704
2060.000000 0.8702 0.8699 0.8697 0.8694 0.8692
2065.000000 0.8690 0.8688 0.8686 0.8685 0.8683
2070.000000 0.8682 0.8680 0.8679 0.8677 0.8676
2075.000000 0.8674 0.8673 0.8672 0.8671 0.8669
2080.000000 0.8668 0.8667 0.8666 0.8665 0.8665
2085.000000 0.8665 0.8665 0.8665 0.8665 0.8664
2090.000000 0.8664 0.8664 0.8664 0.8664 0.8664
2095.000000 0.8664 0.8665 0.8665 0.8666 0.8666
2100.000000 0.8667 0.8667 0.8668 0.8668 0.8668
2105.000000 0.8667 0.8667 0.8667 0.8667 0.8666
2110.000000 0.8666 0.8665 0.8665 0.8664 0.8664
2115.000000 0.8663 0.8663 0.8663 0.8663 0.8663
2120.000000 0.8663 0.8663 0.8663 0.8662 0.8662
2125.000000 0.8662 0.8662 0.8662 0.8662 0.8662
2130.000000 0.8662 0.8662 0.8662 0.8662 0.8662
2135.000000 0.8662 0.8662 0.8662 0.8662 0.8662
2140.000000 0.8662 0.8662 0.8662 0.8662 0.8662
2145.000000 0.8662 0.8662 0.8662 0.8662 0.8662
2150.000000 0.8663 0.8663 0.8663 0.8664 0.8665
2155.000000 0.8666 0.8667 0.8668 0.8669 0.8670
2160.000000 0.8671 0.8672 0.8674 0.8675 0.8677
2165.000000 0.8678 0.8680 0.8681 0.8683 0.8684
2170.000000 0.8686 0.8687 0.8689 0.8689 0.8690
2175.000000 0.8690 0.8691 0.8691 0.8692 0.8692
2180.000000 0.8693 0.8694 0.8696 0.8697 0.8699
2185.000000 0.8701 0.8703 0.8705 0.8707 0.8708
2190.000000 0.8710 0.8712 0.8714 0.8716 0.8718
2195.000000 0.8719 0.8721 0.8723 0.8725 0.8727
2200.000000 0.8730 0.8733 0.8736 0.8739 0.8742
2205.000000 0.8741 0.8741 0.8740 0.8740 0.8739
2210.000000 0.8738 0.8737 0.8736 0.8735 0.8735
2215.000000 0.8734 0.8733 0.8732 0.8731 0.8729
2220.000000 0.8728 0.8726 0.8724 0.8722 0.8721
2225.000000 0.8719 0.8717 0.8715 0.8714 0.8712
2230.000000 0.8711 0.8709 0.8707 0.8705 0.8704
2235.000000 0.8701 0.8698 0.8695 0.8693 0.8690
2240.000000 0.8688 0.8685 0.8682 0.8679 0.8677
2245.000000 0.8674 0.8672 0.8668 0.8665 0.8662
2250.000000 0.8659 0.8655 0.8652 0.8649 0.8646
2255.000000 0.8642 0.8639 0.8635 0.8632 0.8629
2260.000000 0.8626 0.8622 0.8619 0.8617 0.8615
2265.000000 0.8613 0.8612 0.8610 0.8608 0.8606
2270.000000 0.8604 0.8602 0.8601 0.8599 0.8597
2275.000000 0.8595 0.8593 0.8591 0.8590 0.8589
2280.000000 0.8588 0.8587 0.8586 0.8585 0.8584
2285.000000 0.8583 0.8582 0.8581 0.8580 0.8580
2290.000000 0.8580 0.8580 0.8580 0.8582 0.8585
2295.000000 0.8588 0.8592 0.8595 0.8598 0.8601
2300.000000 0.8604 0.8607 0.8611 0.8614 0.8617
2305.000000 0.8619 0.8622 0.8625 0.8628 0.8631
2310.000000 0.8634 0.8637 0.8640 0.8643 0.8646
2315.000000 0.8648 0.8651 0.8655 0.8659 0.8662
2320.000000 0.8666 0.8670 0.8674 0.8678 0.8682
2325.000000 0.8684 0.8687 0.8689 0.8692 0.8694
2330.000000 0.8697 0.8699 0.8701 0.8703 0.8706
2335.000000 0.8708 0.8711 0.8713 0.8715 0.8714
2340.000000 0.8713 0.8710 0.8708 0.8705 0.8703
2345.000000 0.8700 0.8698 0.8693 0.8689 0.8685
2350.000000 0.8681 0.8677 0.8673 0.8668 0.8664
2355.000000 0.8660 0.8657 0.8653 0.8650 0.8646
2360.000000 0.8643 0.8639 0.8636 0.8632 0.8629
2365.000000 0.8626 0.8624 0.8621 0.8618 0.8615
2370.000000 0.8613 0.8610 0.8607 0.8604 0.8602
2375.000000 0.8599 0.8596 0.8593 0.8591 0.8587
2380.000000 0.8584 0.8580 0.8576 0.8572 0.8569
2385.000000 0.8565 0.8562 0.8560 0.8558 0.8556
2390.000000 0.8554 0.8551 0.8549 0.8547 0.8545
2395.000000 0.8543 0.8541 0.8539 0.8537 0.8536
2400.000000 0.8536 0.8536 0.8536 0.8536 0.8536
2405.000000 0.8536 0.8536 0.8536 0.8536 0.8536
2410.000000 0.8537 0.8537 0.8537 0.8537 0.8537
2415.000000 0.8537 0.8537 0.8537 0.8538 0.8538
2420.000000 0.8539 0.8541 0.8544 0.8546 0.8549
2425.000000 0.8551 0.8554 0.8556 0.8558 0.8560
2430.000000 0.8563 0.8565 0.8568 0.8570 0.8573
2435.000000 0.8575 0.8578 0.8583 0.8588 0.8593
2440.000000 0.8599 0.8604 0.8610 0.8616 0.8622
2445.000000 0.8627 0.8633 0.8636 0.8639 0.8640
2450.000000 0.8641 0.8642 0.8643 0.8644 0.8645
2455.000000 0.8646 0.8647 0.8648 0.8649 0.8649
2460.000000 0.8650 0.8649 0.8649 0.8648 0.8648
2465.000000 0.8647 0.8647 0.8646 0.8645 0.8644
2470.000000 0.8644 0.8642 0.8641 0.8640 0.8639
2475.000000 0.8637 0.8636 0.8634 0.8633 0.8632
2480.000000 0.8631 0.8629 0.8628 0.8627 0.8626
2485.000000 0.8625 0.8624 0.8623 0.8622 0.8621
2490.000000 0.8620 0.8619 0.8619 0.8618 0.8618
