##TITLE=1-Bromo-2-methylpropane
##JCAMP-DX=4.24
$$ By DXEDIT 1.05 (RS McDonald)
##DATA TYPE=INFRARED SPECTRUM
##CLASS=COBLENTZ III
##ORIGIN=DOW CHEMICAL COMPANY
##OWNER=COPYRIGHT (C) 1988 by COBLENTZ SOCIETY INC.
Collection (C) 2018 copyright by the U.S. Secretary of Commerce
on behalf of the United States of America. All rights reserved.
##DATE=1960/01/10
##CAS REGISTRY NO=78-77-3
##MOLFORM=C4 H9 Br
##SOURCE REFERENCE=COBLENTZ NO. 5684
##$NIST SOURCE=COBLENTZ
##$NIST IMAGE=cob5684
##SPECTROMETER/DATA SYSTEM=DOW KBr FOREPRISM-GRATING
$$SPECTRAL CONTAMINATION DUE TO CCl4 AROUND 1550 CM^-^1 HAS BEEN SUBTRACTED
##INSTRUMENT PARAMETERS=BLAZED AT 3.5, 12.0, 20.0 MICRON AND CHANGED AT 5.0, 7.5, 14.9 MICRON
##STATE=SOLUTION (10% CCl4 FOR 3800-1340, 10% CS2 FOR 1340-430)
##PATH LENGTH=0.0116 CM, 0.0112 CM
##SAMPLING PROCEDURE=TRANSMISSION
##RESOLUTION=2
##DATA PROCESSING=DIGITIZED BY COBLENTZ SOCIETY (BATCH I) FROM HARD COPY
##XUNITS=1/CM
##YUNITS=TRANSMITTANCE
##XFACTOR=1
##YFACTOR=1
##DELTAX=1
##FIRSTX=3770
##LASTX=422
##FIRSTY=0.7752
##MAXX=3770
##MINX=422
##MAXY=0.9981
##MINY=0.0278
##NPOINTS=3349
##XYDATA=(X++(Y..Y))
3770.000000 0.7752 0.7905 0.8057 0.8525 0.8994
3765.000000 0.9110 0.9229 0.9236 0.9244 0.9247
3760.000000 0.9259 0.9257 0.9249 0.9248 0.9247
3755.000000 0.9246 0.9245 0.9244 0.9243 0.9242
3750.000000 0.9241 0.9234 0.9228 0.9219 0.9212
3745.000000 0.9206 0.9199 0.9192 0.9186 0.9178
3740.000000 0.9170 0.9174 0.9186 0.9190 0.9193
3735.000000 0.9196 0.9193 0.9188 0.9199 0.9213
3730.000000 0.9220 0.9228 0.9238 0.9247 0.9256
3725.000000 0.9264 0.9273 0.9269 0.9264 0.9260
3720.000000 0.9256 0.9236 0.9233 0.9243 0.9240
3715.000000 0.9237 0.9234 0.9230 0.9231 0.9234
3710.000000 0.9226 0.9234 0.9232 0.9236 0.9240
3705.000000 0.9243 0.9248 0.9253 0.9257 0.9261
3700.000000 0.9266 0.9270 0.9275 0.9283 0.9278
3695.000000 0.9285 0.9294 0.9300 0.9299 0.9299
3690.000000 0.9290 0.9283 0.9276 0.9266 0.9246
3685.000000 0.9238 0.9231 0.9224 0.9217 0.9213
3680.000000 0.9209 0.9204 0.9200 0.9195 0.9191
3675.000000 0.9186 0.9182 0.9177 0.9173 0.9168
3670.000000 0.9177 0.9160 0.9155 0.9150 0.9146
3665.000000 0.9142 0.9142 0.9142 0.9145 0.9147
3660.000000 0.9150 0.9153 0.9156 0.9158 0.9161
3655.000000 0.9163 0.9166 0.9169 0.9173 0.9179
3650.000000 0.9185 0.9195 0.9205 0.9216 0.9226
3645.000000 0.9236 0.9246 0.9244 0.9243 0.9233
3640.000000 0.9221 0.9210 0.9201 0.9196 0.9192
3635.000000 0.9189 0.9187 0.9188 0.9200 0.9198
3630.000000 0.9191 0.9178 0.9183 0.9190 0.9189
3625.000000 0.9189 0.9190 0.9190 0.9191 0.9191
3620.000000 0.9191 0.9191 0.9192 0.9192 0.9193
3615.000000 0.9193 0.9194 0.9194 0.9194 0.9194
3610.000000 0.9195 0.9194 0.9182 0.9198 0.9201
3605.000000 0.9203 0.9205 0.9202 0.9198 0.9210
3600.000000 0.9206 0.9198 0.9208 0.9218 0.9220
3595.000000 0.9221 0.9224 0.9226 0.9228 0.9229
3590.000000 0.9232 0.9233 0.9235 0.9236 0.9239
3585.000000 0.9240 0.9242 0.9244 0.9246 0.9248
3580.000000 0.9250 0.9252 0.9254 0.9255 0.9252
3575.000000 0.9248 0.9261 0.9261 0.9255 0.9246
3570.000000 0.9246 0.9245 0.9245 0.9245 0.9245
3565.000000 0.9245 0.9245 0.9244 0.9244 0.9244
3560.000000 0.9244 0.9244 0.9244 0.9243 0.9243
3555.000000 0.9258 0.9243 0.9245 0.9259 0.9258
3550.000000 0.9254 0.9246 0.9258 0.9258 0.9258
3545.000000 0.9250 0.9248 0.9256 0.9256 0.9255
3540.000000 0.9246 0.9249 0.9243 0.9249 0.9253
3535.000000 0.9252 0.9252 0.9251 0.9251 0.9250
3530.000000 0.9250 0.9233 0.9233 0.9233 0.9233
3525.000000 0.9232 0.9232 0.9231 0.9231 0.9230
3520.000000 0.9230 0.9229 0.9229 0.9228 0.9228
3515.000000 0.9226 0.9226 0.9225 0.9225 0.9224
3510.000000 0.9224 0.9223 0.9223 0.9222 0.9222
3505.000000 0.9221 0.9221 0.9219 0.9219 0.9219
3500.000000 0.9219 0.9218 0.9218 0.9218 0.9219
3495.000000 0.9219 0.9219 0.9219 0.9221 0.9221
3490.000000 0.9222 0.9222 0.9222 0.9222 0.9223
3485.000000 0.9223 0.9224 0.9224 0.9225 0.9225
3480.000000 0.9226 0.9226 0.9227 0.9227 0.9228
3475.000000 0.9228 0.9228 0.9228 0.9229 0.9229
3470.000000 0.9230 0.9230 0.9231 0.9231 0.9232
3465.000000 0.9232 0.9233 0.9233 0.9234 0.9234
3460.000000 0.9234 0.9234 0.9235 0.9235 0.9235
3455.000000 0.9235 0.9235 0.9235 0.9235 0.9235
3450.000000 0.9236 0.9236 0.9236 0.9236 0.9236
3445.000000 0.9236 0.9236 0.9236 0.9236 0.9236
3440.000000 0.9237 0.9237 0.9237 0.9236 0.9236
3435.000000 0.9235 0.9234 0.9233 0.9232 0.9230
3430.000000 0.9230 0.9229 0.9228 0.9227 0.9226
3425.000000 0.9212 0.9222 0.9223 0.9222 0.9221
3420.000000 0.9221 0.9218 0.9218 0.9215 0.9215
3415.000000 0.9213 0.9212 0.9210 0.9209 0.9207
3410.000000 0.9207 0.9205 0.9204 0.9211 0.9209
3405.000000 0.9200 0.9199 0.9196 0.9195 0.9194
3400.000000 0.9193 0.9191 0.9190 0.9189 0.9188
3395.000000 0.9186 0.9185 0.9184 0.9183 0.9181
3390.000000 0.9179 0.9177 0.9176 0.9175 0.9175
3385.000000 0.9175 0.9175 0.9175 0.9175 0.9175
3380.000000 0.9175 0.9175 0.9175 0.9175 0.9175
3375.000000 0.9175 0.9175 0.9175 0.9175 0.9175
3370.000000 0.9189 0.9176 0.9175 0.9174 0.9174
3365.000000 0.9174 0.9174 0.9174 0.9174 0.9174
3360.000000 0.9174 0.9174 0.9174 0.9174 0.9174
3355.000000 0.9174 0.9174 0.9174 0.9174 0.9174
3350.000000 0.9174 0.9173 0.9173 0.9173 0.9174
3345.000000 0.9186 0.9190 0.9177 0.9189 0.9175
3340.000000 0.9176 0.9176 0.9192 0.9192 0.9191
3335.000000 0.9178 0.9179 0.9179 0.9180 0.9180
3330.000000 0.9181 0.9181 0.9182 0.9182 0.9183
3325.000000 0.9183 0.9184 0.9184 0.9185 0.9185
3320.000000 0.9186 0.9186 0.9187 0.9187 0.9188
3315.000000 0.9188 0.9189 0.9189 0.9206 0.9206
3310.000000 0.9207 0.9207 0.9205 0.9195 0.9209
3305.000000 0.9209 0.9205 0.9194 0.9195 0.9195
3300.000000 0.9196 0.9196 0.9197 0.9197 0.9197
3295.000000 0.9197 0.9198 0.9198 0.9198 0.9198
3290.000000 0.9198 0.9198 0.9199 0.9199 0.9199
3285.000000 0.9199 0.9201 0.9216 0.9214 0.9200
3280.000000 0.9203 0.9216 0.9212 0.9201 0.9206
3275.000000 0.9217 0.9218 0.9218 0.9218 0.9218
3270.000000 0.9219 0.9219 0.9220 0.9221 0.9221
3265.000000 0.9221 0.9223 0.9224 0.9224 0.9224
3260.000000 0.9226 0.9227 0.9228 0.9227 0.9213
3255.000000 0.9228 0.9228 0.9228 0.9230 0.9230
3250.000000 0.9230 0.9230 0.9231 0.9231 0.9231
3245.000000 0.9218 0.9213 0.9215 0.9210 0.9205
3240.000000 0.9199 0.9194 0.9189 0.9183 0.9178
3235.000000 0.9173 0.9168 0.9162 0.9157 0.9152
3230.000000 0.9147 0.9142 0.9139 0.9135 0.9119
3225.000000 0.9121 0.9131 0.9128 0.9125 0.9122
3220.000000 0.9121 0.9118 0.9117 0.9115 0.9113
3215.000000 0.9111 0.9108 0.9105 0.9103 0.9101
3210.000000 0.9099 0.9097 0.9082 0.9077 0.9075
3205.000000 0.9075 0.9075 0.9074 0.9074 0.9074
3200.000000 0.9076 0.9087 0.9077 0.9084 0.9077
3195.000000 0.9088 0.9088 0.9087 0.9087 0.9087
3190.000000 0.9079 0.9080 0.9087 0.9086 0.9076
3185.000000 0.9070 0.9070 0.9070 0.9070 0.9069
3180.000000 0.9069 0.9070 0.9072 0.9073 0.9076
3175.000000 0.9078 0.9080 0.9082 0.9084 0.9086
3170.000000 0.9088 0.9090 0.9092 0.9093 0.9095
3165.000000 0.9097 0.9106 0.9117 0.9111 0.9115
3160.000000 0.9123 0.9124 0.9117 0.9124 0.9119
3155.000000 0.9116 0.9131 0.9135 0.9136 0.9137
3150.000000 0.9138 0.9138 0.9123 0.9124 0.9125
3145.000000 0.9127 0.9128 0.9129 0.9130 0.9135
3140.000000 0.9146 0.9147 0.9148 0.9149 0.9150
3135.000000 0.9151 0.9153 0.9152 0.9154 0.9155
3130.000000 0.9156 0.9157 0.9157 0.9157 0.9157
3125.000000 0.9156 0.9154 0.9153 0.9153 0.9152
3120.000000 0.9151 0.9150 0.9150 0.9149 0.9149
3115.000000 0.9148 0.9147 0.9146 0.9146 0.9144
3110.000000 0.9143 0.9141 0.9138 0.9145 0.9151
3105.000000 0.9149 0.9148 0.9146 0.9145 0.9142
3100.000000 0.9152 0.9154 0.9152 0.9165 0.9179
3095.000000 0.9192 0.9190 0.9188 0.9184 0.9168
3090.000000 0.9163 0.9145 0.9131 0.9133 0.9137
3085.000000 0.9117 0.9105 0.9103 0.9101 0.9098
3080.000000 0.9096 0.9094 0.9101 0.9114 0.9117
3075.000000 0.9114 0.9125 0.9126 0.9109 0.9105
3070.000000 0.9103 0.9084 0.9131 0.9076 0.9073
3065.000000 0.9069 0.9063 0.9046 0.9042 0.9038
3060.000000 0.9038 0.9046 0.9041 0.9032 0.9020
3055.000000 0.9023 0.9019 0.9002 0.8992 0.8992
3050.000000 0.8989 0.8978 0.8969 0.8959 0.8962
3045.000000 0.8954 0.8957 0.8963 0.8968 0.8973
3040.000000 0.8978 0.8959 0.8941 0.8915 0.8876
3035.000000 0.8840 0.8813 0.8773 0.8738 0.8702
3030.000000 0.8663 0.8619 0.8584 0.8541 0.8499
3025.000000 0.8450 0.8404 0.8355 0.8308 0.8186
3020.000000 0.8064 0.7840 0.7609 0.7514 0.7408
3015.000000 0.7305 0.7204 0.7102 0.7000 0.6913
3010.000000 0.6826 0.6756 0.6683 0.6618 0.6565
3005.000000 0.6526 0.6480 0.6435 0.6388 0.6293
3000.000000 0.6202 0.5992 0.5778 0.5679 0.5581
2995.000000 0.5479 0.5378 0.5229 0.5073 0.4657
2990.000000 0.4238 0.3820 0.3403 0.2985 0.2567
2985.000000 0.2147 0.1731 0.1313 0.0895 0.0610
2980.000000 0.0324 0.0319 0.0315 0.0312 0.0311
2975.000000 0.0307 0.0278 0.0304 0.0304 0.0360
2970.000000 0.0417 0.0587 0.0758 0.0927 0.1098
2965.000000 0.1266 0.1437 0.1608 0.1777 0.1947
2960.000000 0.2118 0.2291 0.2461 0.2627 0.2797
2955.000000 0.2968 0.3139 0.3313 0.3484 0.3638
2950.000000 0.3809 0.3794 0.3794 0.3791 0.3787
2945.000000 0.3661 0.3538 0.3408 0.3283 0.3212
2940.000000 0.3145 0.3149 0.3175 0.3175 0.3175
2935.000000 0.3309 0.3448 0.3588 0.3727 0.3867
2930.000000 0.4007 0.4146 0.4286 0.4426 0.4565
2925.000000 0.4705 0.4845 0.4985 0.5121 0.5246
2920.000000 0.5378 0.5375 0.5373 0.5370 0.5368
2915.000000 0.5365 0.5363 0.5359 0.5357 0.5354
2910.000000 0.5352 0.5348 0.5353 0.5349 0.5337
2905.000000 0.5333 0.5330 0.5340 0.5351 0.5442
2900.000000 0.5533 0.5622 0.5713 0.5803 0.5894
2895.000000 0.5984 0.6074 0.6164 0.6255 0.6261
2890.000000 0.6269 0.6269 0.6269 0.6268 0.6268
2885.000000 0.6138 0.6276 0.5508 0.5006 0.4504
2880.000000 0.4003 0.3583 0.3114 0.3157 0.3160
2875.000000 0.3179 0.3199 0.3503 0.3807 0.4111
2870.000000 0.4416 0.4720 0.5024 0.5328 0.5634
2865.000000 0.5938 0.6242 0.6546 0.6851 0.7028
2860.000000 0.7205 0.7241 0.7276 0.7311 0.7346
2855.000000 0.7403 0.7449 0.7522 0.7597 0.7777
2850.000000 0.7959 0.8008 0.8058 0.8109 0.8172
2845.000000 0.8220 0.8265 0.8294 0.8340 0.8372
2840.000000 0.8403 0.8434 0.8477 0.8489 0.8492
2835.000000 0.8497 0.8509 0.8521 0.8533 0.8542
2830.000000 0.8554 0.8575 0.8573 0.8593 0.8605
2825.000000 0.8599 0.8606 0.8628 0.8625 0.8648
2820.000000 0.8657 0.8663 0.8659 0.8668 0.8676
2815.000000 0.8691 0.8705 0.8718 0.8733 0.8748
2810.000000 0.8763 0.8777 0.8801 0.8821 0.8836
2805.000000 0.8849 0.8865 0.8880 0.8895 0.8908
2800.000000 0.8923 0.8932 0.8941 0.8947 0.8957
2795.000000 0.8964 0.8972 0.8978 0.8982 0.8975
2790.000000 0.8988 0.8980 0.8984 0.8987 0.8991
2785.000000 0.9001 0.9014 0.9009 0.9006 0.9018
2780.000000 0.9029 0.9032 0.9036 0.9039 0.9043
2775.000000 0.9046 0.9050 0.9053 0.9057 0.9060
2770.000000 0.9064 0.9067 0.9071 0.9074 0.9040
2765.000000 0.9080 0.9084 0.9086 0.9090 0.9092
2760.000000 0.9094 0.9096 0.9098 0.9099 0.9101
2755.000000 0.9102 0.9105 0.9107 0.9109 0.9109
2750.000000 0.9109 0.9105 0.9102 0.9087 0.9071
2745.000000 0.9051 0.9032 0.9013 0.8994 0.8973
2740.000000 0.8953 0.8942 0.8932 0.8938 0.8946
2735.000000 0.8951 0.8959 0.8966 0.8973 0.8978
2730.000000 0.8983 0.8987 0.8991 0.8994 0.8998
2725.000000 0.9001 0.9006 0.9009 0.9013 0.9017
2720.000000 0.9021 0.9031 0.9040 0.9059 0.9081
2715.000000 0.9098 0.9115 0.9118 0.9122 0.9125
2710.000000 0.9128 0.9131 0.9134 0.9137 0.9140
2705.000000 0.9144 0.9147 0.9150 0.9153 0.9154
2700.000000 0.9154 0.9154 0.9154 0.9153 0.9153
2695.000000 0.9153 0.9153 0.9152 0.9152 0.9151
2690.000000 0.9151 0.9151 0.9151 0.9148 0.9145
2685.000000 0.9141 0.9138 0.9135 0.9132 0.9127
2680.000000 0.9124 0.9121 0.9118 0.9115 0.9112
2675.000000 0.9107 0.9104 0.9101 0.9098 0.9095
2670.000000 0.9091 0.9088 0.9085 0.9082 0.9080
2665.000000 0.9077 0.9073 0.9070 0.9069 0.9068
2660.000000 0.9069 0.9074 0.9082 0.9104 0.9112
2655.000000 0.9119 0.9127 0.9136 0.9145 0.9147
2650.000000 0.9145 0.9150 0.9164 0.9174 0.9176
2645.000000 0.9170 0.9166 0.9168 0.9182 0.9178
2640.000000 0.9175 0.9177 0.9181 0.9183 0.9185
2635.000000 0.9187 0.9205 0.9205 0.9204 0.9188
2630.000000 0.9188 0.9198 0.9195 0.9192 0.9189
2625.000000 0.9184 0.9178 0.9167 0.9155 0.9143
2620.000000 0.9132 0.9119 0.9108 0.9102 0.9096
2615.000000 0.9092 0.9090 0.9087 0.9085 0.9082
2610.000000 0.9080 0.9076 0.9073 0.9072 0.9072
2605.000000 0.9072 0.9073 0.9073 0.9073 0.9073
2600.000000 0.9073 0.9075 0.9077 0.9084 0.9090
2595.000000 0.9096 0.9103 0.9109 0.9115 0.9122
2590.000000 0.9128 0.9134 0.9141 0.9147 0.9153
2585.000000 0.9160 0.9166 0.9171 0.9179 0.9184
2580.000000 0.9190 0.9191 0.9193 0.9195 0.9198
2575.000000 0.9199 0.9201 0.9203 0.9205 0.9207
2570.000000 0.9209 0.9210 0.9212 0.9214 0.9216
2565.000000 0.9218 0.9220 0.9221 0.9224 0.9224
2560.000000 0.9227 0.9228 0.9231 0.9233 0.9235
2555.000000 0.9236 0.9239 0.9241 0.9243 0.9244
2550.000000 0.9246 0.9248 0.9250 0.9252 0.9254
2545.000000 0.9255 0.9257 0.9259 0.9262 0.9263
2540.000000 0.9264 0.9264 0.9264 0.9264 0.9265
2535.000000 0.9265 0.9266 0.9266 0.9266 0.9266
2530.000000 0.9267 0.9267 0.9267 0.9267 0.9268
2525.000000 0.9268 0.9268 0.9268 0.9269 0.9269
2520.000000 0.9270 0.9270 0.9270 0.9270 0.9271
2515.000000 0.9271 0.9271 0.9271 0.9272 0.9272
2510.000000 0.9272 0.9272 0.9273 0.9273 0.9273
2505.000000 0.9273 0.9273 0.9273 0.9275 0.9275
2500.000000 0.9275 0.9275 0.9276 0.9276 0.9276
2495.000000 0.9276 0.9276 0.9276 0.9276 0.9276
2490.000000 0.9278 0.9278 0.9279 0.9279 0.9279
2485.000000 0.9278 0.9278 0.9278 0.9278 0.9285
2480.000000 0.9291 0.9291 0.9291 0.9291 0.9291
2475.000000 0.9291 0.9291 0.9290 0.9290 0.9290
2470.000000 0.9290 0.9288 0.9288 0.9288 0.9288
2465.000000 0.9288 0.9288 0.9288 0.9288 0.9287
2460.000000 0.9287 0.9287 0.9279 0.9278 0.9277
2455.000000 0.9269 0.9269 0.9279 0.9285 0.9284
2450.000000 0.9271 0.9280 0.9283 0.9282 0.9282
2445.000000 0.9282 0.9282 0.9281 0.9281 0.9281
2440.000000 0.9281 0.9280 0.9280 0.9280 0.9280
2435.000000 0.9279 0.9279 0.9278 0.9278 0.9277
2430.000000 0.9276 0.9275 0.9274 0.9273 0.9271
2425.000000 0.9270 0.9269 0.9268 0.9267 0.9266
2420.000000 0.9265 0.9264 0.9263 0.9262 0.9261
2415.000000 0.9260 0.9259 0.9258 0.9256 0.9255
2410.000000 0.9254 0.9258 0.9263 0.9257 0.9266
2405.000000 0.9265 0.9265 0.9264 0.9263 0.9260
2400.000000 0.9260 0.9260 0.9259 0.9257 0.9257
2395.000000 0.9257 0.9257 0.9256 0.9255 0.9253
2390.000000 0.9253 0.9269 0.9268 0.9266 0.9266
2385.000000 0.9268 0.9281 0.9285 0.9293 0.9308
2380.000000 0.9314 0.9325 0.9339 0.9350 0.9365
2375.000000 0.9369 0.9382 0.9394 0.9399 0.9404
2370.000000 0.9410 0.9405 0.9407 0.9414 0.9421
2365.000000 0.9428 0.9434 0.9439 0.9447 0.9455
2360.000000 0.9477 0.9485 0.9507 0.9513 0.9534
2355.000000 0.9550 0.9553 0.9555 0.9558 0.9555
2350.000000 0.9548 0.9551 0.9563 0.9579 0.9585
2345.000000 0.9584 0.9571 0.9566 0.9564 0.9562
2340.000000 0.9562 0.9547 0.9558 0.9551 0.9528
2335.000000 0.9512 0.9515 0.9501 0.9489 0.9478
2330.000000 0.9479 0.9466 0.9453 0.9445 0.9444
2325.000000 0.9437 0.9434 0.9421 0.9408 0.9395
2320.000000 0.9382 0.9368 0.9355 0.9341 0.9328
2315.000000 0.9314 0.9300 0.9285 0.9272 0.9261
2310.000000 0.9249 0.9239 0.9228 0.9219 0.9210
2305.000000 0.9200 0.9190 0.9180 0.9170 0.9170
2300.000000 0.9173 0.9178 0.9190 0.9189 0.9189
2295.000000 0.9189 0.9189 0.9192 0.9193 0.9193
2290.000000 0.9194 0.9194 0.9182 0.9181 0.9186
2285.000000 0.9192 0.9198 0.9189 0.9193 0.9199
2280.000000 0.9204 0.9207 0.9200 0.9205 0.9208
2275.000000 0.9200 0.9206 0.9211 0.9212 0.9207
2270.000000 0.9213 0.9211 0.9209 0.9215 0.9221
2265.000000 0.9217 0.9217 0.9222 0.9229 0.9224
2260.000000 0.9226 0.9231 0.9224 0.9227 0.9233
2255.000000 0.9239 0.9228 0.9231 0.9236 0.9237
2250.000000 0.9226 0.9229 0.9234 0.9237 0.9242
2245.000000 0.9240 0.9234 0.9237 0.9241 0.9244
2240.000000 0.9247 0.9251 0.9255 0.9258 0.9262
2235.000000 0.9255 0.9254 0.9255 0.9258 0.9262
2230.000000 0.9265 0.9267 0.9271 0.9273 0.9276
2225.000000 0.9278 0.9281 0.9284 0.9285 0.9274
2220.000000 0.9277 0.9279 0.9282 0.9284 0.9287
2215.000000 0.9289 0.9292 0.9292 0.9294 0.9294
2210.000000 0.9294 0.9294 0.9294 0.9294 0.9294
2205.000000 0.9294 0.9294 0.9294 0.9293 0.9293
2200.000000 0.9293 0.9291 0.9291 0.9291 0.9289
2195.000000 0.9277 0.9289 0.9283 0.9271 0.9271
2190.000000 0.9270 0.9268 0.9268 0.9268 0.9267
2185.000000 0.9266 0.9275 0.9271 0.9264 0.9262
2180.000000 0.9262 0.9261 0.9273 0.9276 0.9277
2175.000000 0.9277 0.9278 0.9278 0.9279 0.9279
2170.000000 0.9280 0.9278 0.9265 0.9265 0.9266
2165.000000 0.9266 0.9267 0.9267 0.9267 0.9267
2160.000000 0.9270 0.9270 0.9271 0.9271 0.9271
2155.000000 0.9271 0.9271 0.9270 0.9273 0.9273
2150.000000 0.9274 0.9274 0.9275 0.9275 0.9275
2145.000000 0.9275 0.9277 0.9277 0.9278 0.9278
2140.000000 0.9278 0.9278 0.9280 0.9280 0.9281
2135.000000 0.9282 0.9283 0.9283 0.9284 0.9285
2130.000000 0.9286 0.9286 0.9287 0.9288 0.9289
2125.000000 0.9289 0.9290 0.9291 0.9279 0.9290
2120.000000 0.9293 0.9294 0.9295 0.9295 0.9296
2115.000000 0.9297 0.9298 0.9298 0.9299 0.9301
2110.000000 0.9302 0.9303 0.9304 0.9305 0.9306
2105.000000 0.9307 0.9308 0.9309 0.9310 0.9311
2100.000000 0.9313 0.9314 0.9303 0.9300 0.9314
2095.000000 0.9318 0.9305 0.9318 0.9322 0.9322
2090.000000 0.9325 0.9326 0.9327 0.9327 0.9329
2085.000000 0.9330 0.9330 0.9330 0.9330 0.9330
2080.000000 0.9330 0.9330 0.9330 0.9330 0.9330
2075.000000 0.9330 0.9330 0.9330 0.9330 0.9329
2070.000000 0.9329 0.9329 0.9329 0.9329 0.9329
2065.000000 0.9328 0.9328 0.9326 0.9326 0.9324
2060.000000 0.9322 0.9322 0.9321 0.9323 0.9334
2055.000000 0.9333 0.9331 0.9329 0.9322 0.9319
2050.000000 0.9326 0.9315 0.9307 0.9306 0.9305
2045.000000 0.9302 0.9299 0.9297 0.9295 0.9292
2040.000000 0.9290 0.9288 0.9286 0.9282 0.9280
2035.000000 0.9278 0.9276 0.9273 0.9271 0.9269
2030.000000 0.9265 0.9263 0.9266 0.9269 0.9257
2025.000000 0.9260 0.9267 0.9264 0.9262 0.9259
2020.000000 0.9257 0.9254 0.9252 0.9248 0.9245
2015.000000 0.9243 0.9241 0.9239 0.9238 0.9236
2010.000000 0.9234 0.9231 0.9231 0.9230 0.9228
2005.000000 0.9227 0.9226 0.9224 0.9223 0.9220
2000.000000 0.9217 0.9214 0.9205 0.9192 0.9190
1995.000000 0.9190 0.9191 0.9192 0.9192 0.9193
1990.000000 0.9194 0.9195 0.9195 0.9196 0.9183
1985.000000 0.9180 0.9180 0.9181 0.9181 0.9181
1980.000000 0.9181 0.9180 0.9166 0.9167 0.9167
1975.000000 0.9167 0.9168 0.9168 0.9169 0.9169
1970.000000 0.9170 0.9170 0.9168 0.9167 0.9175
1965.000000 0.9170 0.9163 0.9173 0.9177 0.9177
1960.000000 0.9177 0.9177 0.9178 0.9178 0.9178
1955.000000 0.9178 0.9162 0.9162 0.9163 0.9163
1950.000000 0.9160 0.9147 0.9148 0.9150 0.9151
1945.000000 0.9152 0.9154 0.9155 0.9156 0.9157
1940.000000 0.9158 0.9159 0.9161 0.9161 0.9159
1935.000000 0.9157 0.9154 0.9151 0.9149 0.9148
1930.000000 0.9147 0.9147 0.9146 0.9145 0.9144
1925.000000 0.9143 0.9142 0.9141 0.9141 0.9140
1920.000000 0.9139 0.9138 0.9136 0.9135 0.9134
1915.000000 0.9134 0.9133 0.9132 0.9131 0.9130
1910.000000 0.9129 0.9128 0.9128 0.9139 0.9142
1905.000000 0.9142 0.9143 0.9143 0.9143 0.9143
1900.000000 0.9143 0.9143 0.9143 0.9143 0.9144
1895.000000 0.9144 0.9144 0.9144 0.9144 0.9139
1890.000000 0.9128 0.9128 0.9127 0.9127 0.9125
1885.000000 0.9125 0.9135 0.9140 0.9140 0.9139
1880.000000 0.9137 0.9137 0.9136 0.9134 0.9133
1875.000000 0.9146 0.9145 0.9144 0.9142 0.9142
1870.000000 0.9141 0.9140 0.9138 0.9136 0.9135
1865.000000 0.9134 0.9133 0.9131 0.9130 0.9129
1860.000000 0.9128 0.9127 0.9127 0.9136 0.9133
1855.000000 0.9130 0.9131 0.9133 0.9135 0.9136
1850.000000 0.9138 0.9139 0.9141 0.9141 0.9145
1845.000000 0.9145 0.9148 0.9149 0.9151 0.9152
1840.000000 0.9154 0.9154 0.9154 0.9154 0.9148
1835.000000 0.9139 0.9139 0.9139 0.9139 0.9139
1830.000000 0.9139 0.9140 0.9140 0.9140 0.9140
1825.000000 0.9140 0.9141 0.9141 0.9141 0.9141
1820.000000 0.9141 0.9158 0.9158 0.9158 0.9158
1815.000000 0.9158 0.9159 0.9159 0.9159 0.9159
1810.000000 0.9160 0.9154 0.9144 0.9144 0.9144
1805.000000 0.9145 0.9136 0.9130 0.9130 0.9131
1800.000000 0.9131 0.9131 0.9131 0.9130 0.9132
1795.000000 0.9132 0.9131 0.9131 0.9131 0.9133
1790.000000 0.9132 0.9132 0.9132 0.9132 0.9132
1785.000000 0.9133 0.9133 0.9133 0.9133 0.9133
1780.000000 0.9133 0.9134 0.9134 0.9134 0.9125
1775.000000 0.9119 0.9119 0.9120 0.9120 0.9120
1770.000000 0.9120 0.9120 0.9120 0.9121 0.9121
