##TITLE=PROPANE, 1,2-DIBROMO-
##JCAMP-DX=4.24
$$ By DXEDIT 1.05 (RS McDonald)
##DATA TYPE=INFRARED SPECTRUM
##CLASS=COBLENTZ III
##ORIGIN=DOW CHEMICAL COMPANY
##OWNER=COBLENTZ SOC.
Collection (C) 2018 copyright by the U.S. Secretary of Commerce
on behalf of the United States of America. All rights reserved.
##DATE=1966/02/23
##NAMES=1,2-dibromopropane
##CAS REGISTRY NO=78-75-1
##MOLFORM=C3 H6 Br2
##SOURCE REFERENCE=COBLENTZ NO. 05651
##$NIST SOURCE=COBLENTZ
##$NIST IMAGE=cob5651
##SPECTROMETER/DATA SYSTEM=DOW KBr FOREPRISM-GRATING
##INSTRUMENT PARAMETERS=BLAZED AT 3.5, 12.0, 20.0 AND CHANGED AT 5.0, 7.5, 14.9 MICRON
##STATE=LIQUID (NEAT) FOR 2.6-26 MICRON
##PATH LENGTH=0.003 CM
##SAMPLING PROCEDURE=TRANSMISSION
##RESOLUTION=2
##DATA PROCESSING=DIGITIZED BY COBLENTZ SOCIETY (BATCH I) FROM HARD COPY
##XUNITS=1/CM
##YUNITS=TRANSMITTANCE
##XLABEL=Wavenumbers (cm-1)
##YLABEL=% Transmission
##XFACTOR=1
##YFACTOR=1
##DELTAX=1
##FIRSTX=3800
##LASTX=381
##FIRSTY=0.8933
##MAXX=3800
##MINX=381
##MAXY=0.9167
##MINY=0.0006
##NPOINTS=3420
##XYDATA=(X++(Y..Y))
3800.000000 0.8933 0.8932 0.8932 0.8931 0.8931
3795.000000 0.8930 0.8930 0.8928 0.8928 0.8928
3790.000000 0.8928 0.8928 0.8928 0.8927 0.8927
3785.000000 0.8925 0.8925 0.8925 0.8925 0.8925
3780.000000 0.8925 0.8924 0.8924 0.8923 0.8923
3775.000000 0.8923 0.8924 0.8925 0.8925 0.8925
3770.000000 0.8927 0.8928 0.8928 0.8928 0.8930
3765.000000 0.8931 0.8932 0.8932 0.8933 0.8934
3760.000000 0.8935 0.8936 0.8937 0.8938 0.8939
3755.000000 0.8940 0.8942 0.8943 0.8944 0.8945
3750.000000 0.8947 0.8948 0.8950 0.8951 0.8952
3745.000000 0.8953 0.8955 0.8956 0.8957 0.8958
3740.000000 0.8960 0.8961 0.8962 0.8962 0.8962
3735.000000 0.8961 0.8961 0.8960 0.8960 0.8959
3730.000000 0.8959 0.8958 0.8958 0.8957 0.8957
3725.000000 0.8956 0.8956 0.8955 0.8955 0.8954
3720.000000 0.8954 0.8953 0.8952 0.8950 0.8949
3715.000000 0.8947 0.8945 0.8943 0.8941 0.8939
3710.000000 0.8938 0.8936 0.8934 0.8932 0.8931
3705.000000 0.8928 0.8927 0.8924 0.8921 0.8917
3700.000000 0.8914 0.8910 0.8907 0.8903 0.8900
3695.000000 0.8896 0.8893 0.8889 0.8886 0.8882
3690.000000 0.8878 0.8875 0.8871 0.8868 0.8864
3685.000000 0.8860 0.8857 0.8853 0.8849 0.8845
3680.000000 0.8842 0.8838 0.8834 0.8830 0.8827
3675.000000 0.8825 0.8825 0.8825 0.8828 0.8834
3670.000000 0.8841 0.8848 0.8856 0.8863 0.8870
3665.000000 0.8877 0.8885 0.8892 0.8899 0.8906
3660.000000 0.8914 0.8921 0.8928 0.8931 0.8934
3655.000000 0.8937 0.8940 0.8942 0.8945 0.8947
3650.000000 0.8947 0.8947 0.8944 0.8941 0.8939
3645.000000 0.8936 0.8933 0.8930 0.8928 0.8925
3640.000000 0.8921 0.8918 0.8914 0.8909 0.8904
3635.000000 0.8899 0.8894 0.8889 0.8884 0.8878
3630.000000 0.8874 0.8868 0.8864 0.8859 0.8855
3625.000000 0.8851 0.8847 0.8843 0.8839 0.8835
3620.000000 0.8831 0.8828 0.8828 0.8828 0.8830
3615.000000 0.8834 0.8839 0.8847 0.8856 0.8864
3610.000000 0.8873 0.8880 0.8887 0.8891 0.8896
3605.000000 0.8900 0.8905 0.8909 0.8914 0.8918
3600.000000 0.8923 0.8925 0.8928 0.8928 0.8928
3595.000000 0.8928 0.8928 0.8928 0.8925 0.8924
3590.000000 0.8921 0.8920 0.8918 0.8916 0.8914
3585.000000 0.8911 0.8909 0.8906 0.8904 0.8901
3580.000000 0.8899 0.8896 0.8894 0.8891 0.8889
3575.000000 0.8886 0.8884 0.8881 0.8878 0.8877
3570.000000 0.8875 0.8871 0.8870 0.8867 0.8865
3565.000000 0.8862 0.8860 0.8858 0.8856 0.8853
3560.000000 0.8851 0.8848 0.8846 0.8843 0.8841
3555.000000 0.8839 0.8837 0.8836 0.8835 0.8835
3550.000000 0.8835 0.8835 0.8835 0.8835 0.8835
3545.000000 0.8835 0.8835 0.8834 0.8834 0.8834
3540.000000 0.8834 0.8834 0.8834 0.8834 0.8834
3535.000000 0.8834 0.8834 0.8833 0.8833 0.8833
3530.000000 0.8834 0.8834 0.8834 0.8834 0.8834
3525.000000 0.8834 0.8835 0.8835 0.8835 0.8835
3520.000000 0.8835 0.8835 0.8836 0.8836 0.8836
3515.000000 0.8836 0.8836 0.8836 0.8837 0.8837
3510.000000 0.8837 0.8837 0.8837 0.8837 0.8838
3505.000000 0.8838 0.8838 0.8837 0.8836 0.8834
3500.000000 0.8833 0.8832 0.8831 0.8830 0.8828
3495.000000 0.8828 0.8827 0.8825 0.8825 0.8824
3490.000000 0.8823 0.8821 0.8821 0.8818 0.8818
3485.000000 0.8817 0.8816 0.8815 0.8814 0.8813
3480.000000 0.8812 0.8811 0.8810 0.8809 0.8808
3475.000000 0.8807 0.8806 0.8804 0.8803 0.8802
3470.000000 0.8801 0.8800 0.8799 0.8798 0.8798
3465.000000 0.8797 0.8797 0.8796 0.8796 0.8796
3460.000000 0.8796 0.8795 0.8795 0.8794 0.8794
3455.000000 0.8794 0.8794 0.8793 0.8793 0.8792
3450.000000 0.8792 0.8792 0.8792 0.8791 0.8791
3445.000000 0.8790 0.8790 0.8790 0.8790 0.8789
3440.000000 0.8789 0.8788 0.8788 0.8788 0.8788
3435.000000 0.8788 0.8788 0.8788 0.8788 0.8788
3430.000000 0.8788 0.8788 0.8788 0.8788 0.8788
3425.000000 0.8788 0.8789 0.8789 0.8789 0.8789
3420.000000 0.8789 0.8789 0.8789 0.8789 0.8790
3415.000000 0.8790 0.8790 0.8790 0.8791 0.8791
3410.000000 0.8791 0.8791 0.8791 0.8791 0.8791
3405.000000 0.8788 0.8785 0.8782 0.8780 0.8777
3400.000000 0.8775 0.8771 0.8770 0.8767 0.8764
3395.000000 0.8761 0.8759 0.8755 0.8752 0.8749
3390.000000 0.8746 0.8743 0.8740 0.8736 0.8733
3385.000000 0.8730 0.8727 0.8725 0.8724 0.8724
3380.000000 0.8724 0.8724 0.8724 0.8724 0.8724
3375.000000 0.8725 0.8727 0.8730 0.8733 0.8736
3370.000000 0.8739 0.8742 0.8745 0.8747 0.8750
3365.000000 0.8753 0.8756 0.8759 0.8762 0.8764
3360.000000 0.8767 0.8770 0.8773 0.8775 0.8778
3355.000000 0.8781 0.8784 0.8787 0.8790 0.8792
3350.000000 0.8795 0.8798 0.8801 0.8801 0.8801
3345.000000 0.8801 0.8802 0.8802 0.8803 0.8803
3340.000000 0.8804 0.8804 0.8805 0.8805 0.8805
3335.000000 0.8805 0.8804 0.8804 0.8802 0.8799
3330.000000 0.8796 0.8793 0.8790 0.8787 0.8784
3325.000000 0.8781 0.8778 0.8775 0.8771 0.8768
3320.000000 0.8767 0.8764 0.8762 0.8759 0.8756
3315.000000 0.8753 0.8751 0.8748 0.8746 0.8743
3310.000000 0.8740 0.8737 0.8735 0.8732 0.8730
3305.000000 0.8728 0.8725 0.8724 0.8721 0.8720
3300.000000 0.8718 0.8716 0.8714 0.8711 0.8709
3295.000000 0.8707 0.8705 0.8703 0.8701 0.8699
3290.000000 0.8697 0.8695 0.8693 0.8691 0.8689
3285.000000 0.8687 0.8686 0.8686 0.8686 0.8686
3280.000000 0.8686 0.8686 0.8686 0.8686 0.8686
3275.000000 0.8686 0.8687 0.8687 0.8687 0.8687
3270.000000 0.8687 0.8687 0.8687 0.8687 0.8688
3265.000000 0.8689 0.8690 0.8691 0.8692 0.8693
3260.000000 0.8694 0.8695 0.8696 0.8697 0.8699
3255.000000 0.8700 0.8701 0.8702 0.8703 0.8704
3250.000000 0.8705 0.8706 0.8707 0.8708 0.8709
3245.000000 0.8710 0.8711 0.8712 0.8713 0.8714
3240.000000 0.8715 0.8716 0.8717 0.8718 0.8718
3235.000000 0.8718 0.8718 0.8718 0.8717 0.8716
3230.000000 0.8715 0.8714 0.8713 0.8709 0.8705
3225.000000 0.8698 0.8691 0.8684 0.8678 0.8671
3220.000000 0.8664 0.8657 0.8651 0.8646 0.8642
3215.000000 0.8638 0.8635 0.8631 0.8628 0.8624
3210.000000 0.8621 0.8617 0.8614 0.8614 0.8615
3205.000000 0.8617 0.8618 0.8621 0.8623 0.8624
3200.000000 0.8625 0.8628 0.8630 0.8631 0.8633
3195.000000 0.8635 0.8637 0.8638 0.8640 0.8642
3190.000000 0.8644 0.8645 0.8647 0.8648 0.8650
3185.000000 0.8651 0.8653 0.8655 0.8657 0.8658
3180.000000 0.8660 0.8661 0.8663 0.8663 0.8663
3175.000000 0.8663 0.8663 0.8662 0.8662 0.8662
3170.000000 0.8662 0.8661 0.8661 0.8660 0.8660
3165.000000 0.8660 0.8660 0.8659 0.8659 0.8658
3160.000000 0.8658 0.8658 0.8658 0.8657 0.8657
3155.000000 0.8657 0.8657 0.8656 0.8656 0.8655
3150.000000 0.8655 0.8655 0.8655 0.8654 0.8654
3145.000000 0.8653 0.8653 0.8653 0.8653 0.8652
3140.000000 0.8652 0.8652 0.8652 0.8651 0.8651
3135.000000 0.8651 0.8651 0.8650 0.8650 0.8650
3130.000000 0.8650 0.8649 0.8649 0.8649 0.8649
3125.000000 0.8648 0.8648 0.8648 0.8648 0.8647
3120.000000 0.8647 0.8647 0.8647 0.8647 0.8647
3115.000000 0.8647 0.8647 0.8647 0.8647 0.8646
3110.000000 0.8646 0.8646 0.8646 0.8646 0.8646
3105.000000 0.8646 0.8646 0.8646 0.8646 0.8645
3100.000000 0.8645 0.8642 0.8663 0.8637 0.8635
3095.000000 0.8632 0.8628 0.8625 0.8624 0.8621
3090.000000 0.8618 0.8615 0.8612 0.8609 0.8607
3085.000000 0.8604 0.8601 0.8598 0.8595 0.8591
3080.000000 0.8588 0.8584 0.8581 0.8578 0.8575
3075.000000 0.8571 0.8568 0.8564 0.8561 0.8558
3070.000000 0.8555 0.8551 0.8548 0.8544 0.8541
3065.000000 0.8536 0.8532 0.8523 0.8514 0.8505
3060.000000 0.8497 0.8488 0.8480 0.8471 0.8463
3055.000000 0.8454 0.8445 0.8433 0.8421 0.8409
3050.000000 0.8397 0.8385 0.8374 0.8362 0.8350
3045.000000 0.8328 0.8309 0.8287 0.8265 0.8233
3040.000000 0.8202 0.8165 0.8128 0.8093 0.8057
3035.000000 0.8025 0.7995 0.7962 0.7931 0.7891
3030.000000 0.7851 0.7814 0.7778 0.7738 0.7671
3025.000000 0.7669 0.7668 0.7669 0.7671 0.7672
3020.000000 0.7675 0.7678 0.7682 0.7686 0.7739
3015.000000 0.7705 0.7719 0.7726 0.7728 0.7728
3010.000000 0.7725 0.7686 0.7648 0.7591 0.7535
3005.000000 0.7467 0.7400 0.7315 0.7232 0.7119
3000.000000 0.7008 0.6908 0.6810 0.6635 0.6460
2995.000000 0.6135 0.5810 0.5540 0.5270 0.4999
2990.000000 0.4729 0.4458 0.4188 0.3916 0.3646
2985.000000 0.3375 0.3105 0.3022 0.2940 0.2888
2980.000000 0.2835 0.2650 0.2465 0.2416 0.2331
2975.000000 0.2371 0.2374 0.2385 0.2399 0.2453
2970.000000 0.2508 0.2585 0.2664 0.2790 0.2916
2965.000000 0.3031 0.3146 0.3255 0.3364 0.3480
2960.000000 0.3596 0.3766 0.3937 0.4107 0.4278
2955.000000 0.4448 0.4618 0.4788 0.4959 0.5129
2950.000000 0.5300 0.5470 0.5641 0.5734 0.5827
2945.000000 0.5826 0.5825 0.5865 0.5905 0.5969
2940.000000 0.6033 0.6082 0.6132 0.6133 0.6164
2935.000000 0.6127 0.6120 0.6106 0.6093 0.5830
2930.000000 0.5567 0.4982 0.4397 0.4050 0.3718
2925.000000 0.3707 0.3708 0.3784 0.3862 0.4059
2920.000000 0.4256 0.4452 0.4649 0.4846 0.5043
2915.000000 0.5239 0.5436 0.5633 0.5830 0.6026
2910.000000 0.6223 0.6419 0.6617 0.6711 0.6806
2905.000000 0.6887 0.6968 0.7015 0.7062 0.7099
2900.000000 0.7136 0.7154 0.7172 0.7190 0.7208
2895.000000 0.7221 0.7235 0.7248 0.7261 0.7280
2890.000000 0.7298 0.7315 0.7334 0.7354 0.7374
2885.000000 0.7392 0.7410 0.7418 0.7425 0.7425
2880.000000 0.7425 0.7425 0.7426 0.7426 0.7428
2875.000000 0.7421 0.7414 0.7399 0.7384 0.7362
2870.000000 0.7342 0.7293 0.7245 0.7167 0.7090
2865.000000 0.6998 0.6907 0.6815 0.6619 0.6675
2860.000000 0.6626 0.6650 0.6672 0.6800 0.6926
2855.000000 0.7053 0.7180 0.7307 0.7434 0.7506
2850.000000 0.7578 0.7611 0.7644 0.7672 0.7701
2845.000000 0.7728 0.7756 0.7780 0.7805 0.7828
2840.000000 0.7854 0.7882 0.7910 0.7956 0.8001
2835.000000 0.8054 0.8107 0.8136 0.8165 0.8189
2830.000000 0.8224 0.8223 0.8221 0.8224 0.8224
2825.000000 0.8225 0.8224 0.8212 0.8201 0.8184
2820.000000 0.8168 0.8149 0.8131 0.8126 0.8124
2815.000000 0.8122 0.8135 0.8130 0.8138 0.8147
2810.000000 0.8157 0.8174 0.8191 0.8208 0.8225
2805.000000 0.8248 0.8271 0.8304 0.8336 0.8361
2800.000000 0.8386 0.8402 0.8418 0.8435 0.8452
2795.000000 0.8468 0.8484 0.8498 0.8513 0.8527
2790.000000 0.8542 0.8555 0.8568 0.8574 0.8578
2785.000000 0.8583 0.8588 0.8593 0.8598 0.8603
2780.000000 0.8608 0.8613 0.8618 0.8620 0.8621
2775.000000 0.8624 0.8627 0.8628 0.8632 0.8634
2770.000000 0.8637 0.8639 0.8642 0.8644 0.8647
2765.000000 0.8649 0.8652 0.8655 0.8658 0.8661
2760.000000 0.8665 0.8668 0.8671 0.8673 0.8675
2755.000000 0.8677 0.8678 0.8678 0.8678 0.8678
2750.000000 0.8680 0.8680 0.8681 0.8681 0.8680
2745.000000 0.8678 0.8677 0.8675 0.8673 0.8671
2740.000000 0.8668 0.8659 0.8650 0.8631 0.8612
2735.000000 0.8583 0.8555 0.8528 0.8504 0.8461
2730.000000 0.8418 0.8411 0.8405 0.8404 0.8403
2725.000000 0.8409 0.8368 0.8446 0.8477 0.8498
2720.000000 0.8520 0.8535 0.8551 0.8561 0.8571
2715.000000 0.8577 0.8583 0.8588 0.8593 0.8598
2710.000000 0.8603 0.8608 0.8614 0.8618 0.8624
2705.000000 0.8625 0.8628 0.8630 0.8633 0.8635
2700.000000 0.8637 0.8639 0.8642 0.8643 0.8644
2695.000000 0.8645 0.8646 0.8647 0.8648 0.8649
2690.000000 0.8650 0.8651 0.8652 0.8653 0.8653
2685.000000 0.8653 0.8652 0.8650 0.8648 0.8646
2680.000000 0.8644 0.8642 0.8640 0.8638 0.8636
2675.000000 0.8634 0.8632 0.8628 0.8624 0.8620
2670.000000 0.8616 0.8611 0.8607 0.8602 0.8598
2665.000000 0.8593 0.8589 0.8583 0.8577 0.8571
2660.000000 0.8565 0.8558 0.8551 0.8542 0.8533
2655.000000 0.8525 0.8517 0.8511 0.8505 0.8506
2650.000000 0.8508 0.8516 0.8524 0.8532 0.8540
2645.000000 0.8548 0.8557 0.8561 0.8566 0.8568
2640.000000 0.8571 0.8573 0.8575 0.8578 0.8580
2635.000000 0.8582 0.8585 0.8587 0.8590 0.8592
2630.000000 0.8594 0.8596 0.8599 0.8601 0.8604
2625.000000 0.8606 0.8608 0.8608 0.8608 0.8608
2620.000000 0.8608 0.8607 0.8607 0.8607 0.8607
2615.000000 0.8606 0.8606 0.8606 0.8606 0.8606
2610.000000 0.8606 0.8605 0.8605 0.8605 0.8605
2605.000000 0.8604 0.8604 0.8604 0.8604 0.8603
2600.000000 0.8603 0.8603 0.8603 0.8602 0.8602
2595.000000 0.8603 0.8604 0.8605 0.8607 0.8608
2590.000000 0.8609 0.8610 0.8612 0.8613 0.8615
2585.000000 0.8616 0.8618 0.8618 0.8620 0.8621
2580.000000 0.8623 0.8625 0.8627 0.8628 0.8630
2575.000000 0.8631 0.8633 0.8634 0.8636 0.8637
2570.000000 0.8639 0.8640 0.8642 0.8644 0.8646
2565.000000 0.8647 0.8649 0.8650 0.8651 0.8651
2560.000000 0.8651 0.8650 0.8649 0.8647 0.8646
2555.000000 0.8644 0.8643 0.8641 0.8640 0.8639
2550.000000 0.8638 0.8636 0.8634 0.8632 0.8630
2545.000000 0.8628 0.8625 0.8624 0.8621 0.8620
2540.000000 0.8618 0.8617 0.8617 0.8617 0.8617
2535.000000 0.8616 0.8616 0.8615 0.8615 0.8614
2530.000000 0.8614 0.8615 0.8616 0.8617 0.8618
2525.000000 0.8618 0.8621 0.8621 0.8623 0.8624
2520.000000 0.8625 0.8625 0.8628 0.8628 0.8630
2515.000000 0.8631 0.8633 0.8635 0.8637 0.8639
2510.000000 0.8641 0.8642 0.8644 0.8644 0.8644
2505.000000 0.8644 0.8642 0.8640 0.8638 0.8635
2500.000000 0.8633 0.8624 0.8616 0.8607 0.8598
2495.000000 0.8589 0.8580 0.8573 0.8566 0.8560
2490.000000 0.8554 0.8548 0.8542 0.8536 0.8531
2485.000000 0.8525 0.8521 0.8518 0.8515 0.8513
2480.000000 0.8512 0.8512 0.8513 0.8514 0.8515
2475.000000 0.8517 0.8518 0.8518 0.8518 0.8516
2470.000000 0.8514 0.8511 0.8508 0.8505 0.8502
2465.000000 0.8497 0.8492 0.8484 0.8477 0.8468
2460.000000 0.8461 0.8454 0.8447 0.8440 0.8434
2455.000000 0.8427 0.8421 0.8417 0.8414 0.8414
2450.000000 0.8415 0.8415 0.8415 0.8415 0.8415
2445.000000 0.8415 0.8416 0.8416 0.8416 0.8416
2440.000000 0.8417 0.8421 0.8427 0.8432 0.8438
2435.000000 0.8443 0.8449 0.8454 0.8460 0.8465
2430.000000 0.8471 0.8475 0.8481 0.8485 0.8490
2425.000000 0.8493 0.8496 0.8499 0.8503 0.8506
2420.000000 0.8509 0.8512 0.8515 0.8518 0.8521
2415.000000 0.8524 0.8527 0.8527 0.8527 0.8527
2410.000000 0.8525 0.8525 0.8524 0.8523 0.8521
2405.000000 0.8520 0.8518 0.8518 0.8517 0.8516
2400.000000 0.8515 0.8514 0.8513 0.8511 0.8510
2395.000000 0.8509 0.8508 0.8507 0.8506 0.8505
2390.000000 0.8504 0.8503 0.8502 0.8501 0.8500
2385.000000 0.8499 0.8499 0.8499 0.8500 0.8500
2380.000000 0.8501 0.8502 0.8503 0.8503 0.8504
2375.000000 0.8505 0.8506 0.8506 0.8507 0.8508
2370.000000 0.8509 0.8510 0.8511 0.8511 0.8512
2365.000000 0.8513 0.8514 0.8517 0.8520 0.8523
2360.000000 0.8525 0.8528 0.8533 0.8536 0.8539
2355.000000 0.8542 0.8545 0.8548 0.8552 0.8555
2350.000000 0.8559 0.8563 0.8567 0.8570 0.8574
2345.000000 0.8577 0.8581 0.8585 0.8589 0.8592
2340.000000 0.8596 0.8601 0.8606 0.8611 0.8616
2335.000000 0.8621 0.8625 0.8631 0.8636 0.8641
2330.000000 0.8646 0.8651 0.8656 0.8661 0.8666
2325.000000 0.8671 0.8675 0.8681 0.8687 0.8694
2320.000000 0.8702 0.8710 0.8718 0.8725 0.8734
2315.000000 0.8745 0.8757 0.8770 0.8783 0.8800
2310.000000 0.8817 0.8833 0.8850 0.8857 0.8834
2305.000000 0.8861 0.8859 0.8856 0.8853 0.8850
2300.000000 0.8847 0.8844 0.8841 0.8824 0.8807
2295.000000 0.8763 0.8718 0.8714 0.8710 0.8705
2290.000000 0.8700 0.8692 0.8684 0.8675 0.8666
2285.000000 0.8657 0.8648 0.8631 0.8615 0.8596
2280.000000 0.8577 0.8554 0.8532 0.8508 0.8484
2275.000000 0.8455 0.8425 0.8397 0.8368 0.8347
2270.000000 0.8325 0.8303 0.8281 0.8258 0.8214
2265.000000 0.8227 0.8218 0.8216 0.8214 0.8213
2260.000000 0.8213 0.8214 0.8218 0.8238 0.8259
2255.000000 0.8278 0.8300 0.8320 0.8341 0.8362
2250.000000 0.8384 0.8406 0.8428 0.8449 0.8471
2245.000000 0.8493 0.8515 0.8525 0.8536 0.8537
2240.000000 0.8538 0.8538 0.8539 0.8538 0.8537
2235.000000 0.8534 0.8532 0.8528 0.8525 0.8523
2230.000000 0.8521 0.8518 0.8540 0.8512 0.8510
2225.000000 0.8509 0.8508 0.8506 0.8505 0.8503
2220.000000 0.8502 0.8502 0.8501 0.8502 0.8505
2215.000000 0.8507 0.8510 0.8512 0.8515 0.8527
2210.000000 0.8539 0.8555 0.8571 0.8584 0.8598
2205.000000 0.8609 0.8620 0.8631 0.8642 0.8653
2200.000000 0.8664 0.8666 0.8668 0.8668 0.8670
2195.000000 0.8670 0.8671 0.8671 0.8671 0.8671
2190.000000 0.8673 0.8673 0.8674 0.8674 0.8675
2185.000000 0.8675 0.8675 0.8675 0.8677 0.8677
2180.000000 0.8678 0.8678 0.8678 0.8678 0.8678
2175.000000 0.8678 0.8680 0.8680 0.8681 0.8681
2170.000000 0.8682 0.8682 0.8682 0.8682 0.8682
2165.000000 0.8682 0.8682 0.8682 0.8682 0.8680
2160.000000 0.8678 0.8674 0.8670 0.8665 0.8661
2155.000000 0.8655 0.8650 0.8644 0.8638 0.8642
2150.000000 0.8646 0.8650 0.8654 0.8658 0.8663
2145.000000 0.8667 0.8671 0.8674 0.8678 0.8681
2140.000000 0.8685 0.8688 0.8692 0.8695 0.8699
2135.000000 0.8702 0.8705 0.8705 0.8705 0.8705
2130.000000 0.8706 0.8706 0.8706 0.8706 0.8707
2125.000000 0.8707 0.8707 0.8707 0.8708 0.8708
2120.000000 0.8709 0.8709 0.8709 0.8709 0.8710
2115.000000 0.8710 0.8711 0.8711 0.8712 0.8712
2110.000000 0.8713 0.8714 0.8715 0.8715 0.8716
2105.000000 0.8716 0.8717 0.8717 0.8718 0.8718
2100.000000 0.8720 0.8720 0.8721 0.8721 0.8721
2095.000000 0.8723 0.8724 0.8724 0.8725 0.8725
2090.000000 0.8725 0.8727 0.8728 0.8728 0.8728
2085.000000 0.8728 0.8727 0.8725 0.8725 0.8725
2080.000000 0.8725 0.8724 0.8723 0.8721 0.8721
2075.000000 0.8721 0.8721 0.8720 0.8720 0.8718
2070.000000 0.8718 0.8717 0.8717 0.8716 0.8715
2065.000000 0.8713 0.8712 0.8710 0.8709 0.8707
2060.000000 0.8706 0.8704 0.8703 0.8701 0.8700
2055.000000 0.8698 0.8697 0.8695 0.8694 0.8692
2050.000000 0.8691 0.8690 0.8689 0.8688 0.8688
2045.000000 0.8688 0.8688 0.8688 0.8688 0.8688
2040.000000 0.8688 0.8688 0.8688 0.8687 0.8687
2035.000000 0.8687 0.8687 0.8687 0.8687 0.8687
2030.000000 0.8687 0.8687 0.8687 0.8687 0.8688
2025.000000 0.8689 0.8690 0.8690 0.8691 0.8692
2020.000000 0.8693 0.8693 0.8694 0.8695 0.8696
2015.000000 0.8696 0.8697 0.8698 0.8699 0.8699
2010.000000 0.8700 0.8701 0.8702 0.8703 0.8704
2005.000000 0.8704 0.8705 0.8706 0.8707 0.8708
2000.000000 0.8710 0.8711 0.8712 0.8712 0.8713
1995.000000 0.8728 0.8748 0.8757 0.8764 0.8770
1990.000000 0.8771 0.8771 0.8771 0.8771 0.8771
1985.000000 0.8768 0.8764 0.8764 0.8764 0.8764
1980.000000 0.8765 0.8765 0.8765 0.8765 0.8765
1975.000000 0.8765 0.8763 0.8761 0.8759 0.8757
1970.000000 0.8755 0.8753 0.8746 0.8739 0.8733
1965.000000 0.8727 0.8723 0.8720 0.8716 0.8717
1960.000000 0.8718 0.8720 0.8721 0.8724 0.8733
1955.000000 0.8742 0.8751 0.8760 0.8768 0.8775
1950.000000 0.8778 0.8784 0.8788 0.8792 0.8797
1945.000000 0.8801 0.8806 0.8810 0.8814 0.8818
1940.000000 0.8821 0.8825 0.8828 0.8833 0.8835
1935.000000 0.8836 0.8837 0.8838 0.8839 0.8840
1930.000000 0.8841 0.8841 0.8842 0.8841 0.8839
1925.000000 0.8836 0.8834 0.8831 0.8828 0.8827
1920.000000 0.8824 0.8821 0.8820 0.8818 0.8817
1915.000000 0.8815 0.8814 0.8813 0.8811 0.8810
1910.000000 0.8808 0.8807 0.8805 0.8802 0.8800
1905.000000 0.8798 0.8795 0.8793 0.8790 0.8788
1900.000000 0.8785 0.8783 0.8782 0.8782 0.8781
1895.000000 0.8781 0.8780 0.8778 0.8778 0.8778
1890.000000 0.8777 0.8775 0.8774 0.8771 0.8771
1885.000000 0.8768 0.8767 0.8765 0.8763 0.8761
1880.000000 0.8759 0.8757 0.8755 0.8755 0.8761
1875.000000 0.8767 0.8773 0.8778 0.8786 0.8793
1870.000000 0.8802 0.8811 0.8820 0.8828 0.8838
1865.000000 0.8837 0.8835 0.8834 0.8833 0.8832
1860.000000 0.8830 0.8828 0.8825 0.8821 0.8817
1855.000000 0.8814 0.8810 0.8806 0.8801 0.8796
1850.000000 0.8792 0.8787 0.8782 0.8777 0.8771
1845.000000 0.8768 0.8765 0.8762 0.8760 0.8757
1840.000000 0.8754 0.8753 0.8752 0.8753 0.8757
1835.000000 0.8760 0.8763 0.8766 0.8770 0.8778
1830.000000 0.8788 0.8797 0.8806 0.8815 0.8824
1825.000000 0.8834 0.8837 0.8838 0.8839 0.8839
1820.000000 0.8840 0.8841 0.8842 0.8842 0.8842
1815.000000 0.8842 0.8842 0.8842 0.8842 0.8841
1810.000000 0.8841 0.8840 0.8836 0.8833 0.8828
1805.000000 0.8825 0.8821 0.8817 0.8811 0.8804
1800.000000 0.8797 0.8790 0.8783 0.8778 0.8775
1795.000000 0.8771 0.8768 0.8768 0.8768 0.8773
