##TITLE=1-PROPENE, 2,3-DICHLORO-
##JCAMP-DX=4.24
##DATA TYPE=INFRARED SPECTRUM
##CLASS=COBLENTZ III
##ORIGIN=STANDARD OIL OF OHIO
##OWNER=COBLENTZ SOCIETY
Collection (C) 2018 copyright by the U.S. Secretary of Commerce
on behalf of the United States of America. All rights reserved.
##DATE=1968/07/31
##NAMES=2,3-dichloro-1-propene
##CAS REGISTRY NO=78-88-6
##MOLFORM=C3 H4 Cl2
##SOURCE REFERENCE=COBLENTZ NO. 10037
##$NIST SOURCE=COBLENTZ
##$NIST IMAGE=cob10037
##SPECTROMETER/DATA SYSTEM=PERKIN-ELMER 521 (GRATING)
##INSTRUMENT PARAMETERS=FILTERS AT 3150, 2500, 2000, 1150, 700, 410 AND GRATING CHANGES AT 2000, 630 CM^-^1
##STATE=LIQUID (NEAT)
##PATH LENGTH=0.0021 CM KBr CELL
##SAMPLING PROCEDURE=TRANSMISSION
##RESOLUTION=4
##DATA PROCESSING=DIGITIZED BY NIST FROM HARD COPY (FROM TWO SEGMENTS)
##XUNITS=1/CM
##YUNITS=TRANSMITTANCE
##XFACTOR=1.000000
##YFACTOR=1
##DELTAX=1.001880
##FIRSTX=332.874
##LASTX=3905.58
##FIRSTY=0.308
##MAXX=3905.58
##MINX=332.874
##MAXY=0.891
##MINY=0.046
##NPOINTS=3567
##XYDATA=(X++(Y..Y))
332.874000 0.3080 0.3080 0.3100 0.3130 0.3160
337.883399 0.3210 0.3260 0.3320 0.3350 0.3370
342.892798 0.3380 0.3400 0.3400 0.3380 0.3380
347.902196 0.3370 0.3360 0.3350 0.3330 0.3310
352.911595 0.3300 0.3280 0.3280 0.3300 0.3330
357.920994 0.3370 0.3430 0.3500 0.3629 0.3859
362.930393 0.4000 0.4150 0.4320 0.4600 0.4770
367.939792 0.4880 0.4960 0.5050 0.5150 0.5250
372.949190 0.5270 0.5350 0.5380 0.5430 0.5450
377.958589 0.5460 0.5470 0.5480 0.5480 0.5500
382.967988 0.5500 0.5500 0.5500 0.5510 0.5530
387.977387 0.5600 0.5620 0.5680 0.5819 0.5999
392.986786 0.6110 0.6200 0.6280 0.6280 0.6360
397.996185 0.6370 0.6380 0.6380 0.6370 0.6360
403.005583 0.6350 0.6320 0.6300 0.6270 0.6210
408.014982 0.6120 0.6010 0.5910 0.5820 0.5681
413.024381 0.5620 0.5560 0.5530 0.5530 0.5550
418.033780 0.5610 0.5630 0.5809 0.6079 0.6369
423.043179 0.6610 0.6720 0.6800 0.6880 0.7030
428.052577 0.7150 0.7250 0.7370 0.7470 0.7560
433.061976 0.7620 0.7700 0.7750 0.7800 0.7830
438.071375 0.7880 0.7930 0.7970 0.8020 0.8080
443.080774 0.8110 0.8130 0.8160 0.8180 0.8200
448.090173 0.8210 0.8210 0.8220 0.8270 0.8310
453.099571 0.8330 0.8350 0.8380 0.8410 0.8450
458.108970 0.8480 0.8500 0.8510 0.8520 0.8550
463.118369 0.8570 0.8580 0.8580 0.8600 0.8610
468.127768 0.8620 0.8630 0.8650 0.8660 0.8680
473.137167 0.8710 0.8720 0.8730 0.8750 0.8760
478.146565 0.8770 0.8780 0.8780 0.8800 0.8800
483.155964 0.8810 0.8810 0.8810 0.8820 0.8810
488.165363 0.8810 0.8800 0.8800 0.8780 0.8780
493.174762 0.8770 0.8770 0.8760 0.8750 0.8750
498.184161 0.8720 0.8700 0.8680 0.8670 0.8630
503.193560 0.8600 0.8520 0.8430 0.8260 0.8100
508.202958 0.8000 0.7920 0.7781 0.7402 0.7012
513.212357 0.6820 0.6530 0.5881 0.5371 0.5021
518.221756 0.4671 0.4630 0.4650 0.5008 0.5756
523.231155 0.6100 0.6570 0.7000 0.7359 0.7699
528.240554 0.8029 0.8209 0.8280 0.8419 0.8510
533.249952 0.8560 0.8580 0.8620 0.8670 0.8710
538.259351 0.8720 0.8750 0.8780 0.8820 0.8850
543.268750 0.8870 0.8880 0.8880 0.8880 0.8880
548.278149 0.8880 0.8880 0.8900 0.8900 0.8900
553.287548 0.8900 0.8900 0.8900 0.8900 0.8910
558.296946 0.8910 0.8910 0.8910 0.8910 0.8910
563.306345 0.8910 0.8910 0.8910 0.8910 0.8910
568.315744 0.8910 0.8900 0.8900 0.8880 0.8860
573.325143 0.8830 0.8820 0.8810 0.8810 0.8810
578.334542 0.8810 0.8810 0.8810 0.8810 0.8810
583.343940 0.8810 0.8810 0.8800 0.8800 0.8780
588.353339 0.8770 0.8760 0.8760 0.8750 0.8730
593.362738 0.8720 0.8710 0.8700 0.8680 0.8660
598.372137 0.8660 0.8650 0.8620 0.8600 0.8570
603.381536 0.8560 0.8530 0.8510 0.8480 0.8430
608.390935 0.8410 0.8350 0.8320 0.8250 0.8160
613.400333 0.8120 0.8080 0.8020 0.7950 0.7900
618.409732 0.7880 0.7860 0.7053 0.6582 0.6321
623.419131 0.5910 0.5520 0.5031 0.4501 0.3782
628.428530 0.3202 0.2682 0.1704 0.1421 0.1002
633.437929 0.0980 0.0970 0.1000 0.1160 0.1270
638.447327 0.1400 0.1809 0.2368 0.2927 0.3348
643.456726 0.3810 0.4160 0.4680 0.5130 0.5509
648.466125 0.5829 0.6099 0.6319 0.6519 0.6679
653.475524 0.6830 0.6900 0.6960 0.6980 0.7000
658.484923 0.6980 0.6970 0.6930 0.6880 0.6780
663.494321 0.6710 0.6530 0.6160 0.5860 0.5730
668.503720 0.5570 0.5331 0.4722 0.4222 0.3872
673.513119 0.3210 0.2710 0.2071 0.1780 0.1421
678.522518 0.1370 0.1370 0.1380 0.1450 0.1510
683.531917 0.1580 0.1620 0.1630 0.1630 0.1630
688.541315 0.1630 0.1650 0.1670 0.1700 0.1770
693.550714 0.1910 0.2000 0.2550 0.2850 0.3319
698.560113 0.3679 0.4079 0.4479 0.4958 0.5308
703.569512 0.5600 0.5810 0.6020 0.6220 0.6360
708.578911 0.6520 0.6610 0.6700 0.6770 0.6860
713.588310 0.6920 0.6930 0.6950 0.6960 0.6960
718.597708 0.6930 0.6930 0.6910 0.6900 0.6830
723.607107 0.6800 0.6730 0.6650 0.6530 0.6370
728.616506 0.6230 0.6061 0.5662 0.5212 0.4971
733.625905 0.4650 0.4110 0.3431 0.2951 0.2352
738.635304 0.1762 0.1232 0.1061 0.0881 0.0771
743.644702 0.0670 0.0630 0.0630 0.0650 0.0710
748.654101 0.0730 0.0820 0.1179 0.1300 0.1380
753.663500 0.1510 0.1620 0.1780 0.1960 0.2100
758.672899 0.2449 0.2899 0.3398 0.3948 0.4249
763.682298 0.4670 0.5100 0.5520 0.5899 0.6219
768.691696 0.6449 0.6609 0.6849 0.7029 0.7149
773.701095 0.7310 0.7430 0.7560 0.7660 0.7750
778.710494 0.7820 0.7880 0.7950 0.8020 0.8100
783.719893 0.8170 0.8250 0.8280 0.8330 0.8380
788.729292 0.8410 0.8430 0.8460 0.8480 0.8480
793.738690 0.8500 0.8510 0.8510 0.8520 0.8550
798.748089 0.8550 0.8560 0.8580 0.8580 0.8580
803.757488 0.8570 0.8570 0.8570 0.8570 0.8570
808.766887 0.8570 0.8580 0.8570 0.8570 0.8570
813.776286 0.8570 0.8570 0.8570 0.8570 0.8560
818.785685 0.8560 0.8560 0.8560 0.8560 0.8560
823.795083 0.8560 0.8570 0.8570 0.8570 0.8580
828.804482 0.8580 0.8600 0.8600 0.8600 0.8610
833.813881 0.8600 0.8600 0.8600 0.8600 0.8600
838.823280 0.8600 0.8600 0.8580 0.8580 0.8580
843.832679 0.8570 0.8560 0.8550 0.8520 0.8480
848.842077 0.8460 0.8450 0.8420 0.8380 0.8360
853.851476 0.8320 0.8280 0.8260 0.8180 0.8130
858.860875 0.8080 0.7970 0.7920 0.7850 0.7780
863.870274 0.7730 0.7620 0.7530 0.7410 0.7270
868.879673 0.7200 0.7080 0.6980 0.6821 0.6571
873.889071 0.6370 0.6200 0.6010 0.5810 0.5551
878.898470 0.5231 0.4811 0.4272 0.3852 0.3333
883.907869 0.2800 0.2250 0.1750 0.1300 0.1050
888.917268 0.0930 0.0820 0.0661 0.0550 0.0510
893.926667 0.0470 0.0460 0.0460 0.0460 0.0460
898.936066 0.0460 0.0470 0.0560 0.0630 0.0700
903.945464 0.0780 0.0870 0.1120 0.1300 0.1510
908.954863 0.1550 0.1670 0.1730 0.1830 0.2148
913.964262 0.2560 0.3210 0.3530 0.3830 0.4129
918.973661 0.4409 0.4659 0.4849 0.5079 0.5478
923.983060 0.5710 0.5900 0.6050 0.6150 0.6270
928.992458 0.6350 0.6370 0.6370 0.6350 0.6260
934.001857 0.6050 0.5760 0.5070 0.4021 0.3930
939.011256 0.3930 0.4030 0.4897 0.5428 0.5918
944.020655 0.6380 0.6910 0.7130 0.7310 0.7530
949.030054 0.7650 0.7710 0.7830 0.7969 0.8030
954.039452 0.8110 0.8150 0.8210 0.8260 0.8310
959.048851 0.8350 0.8380 0.8410 0.8430 0.8450
964.058250 0.8470 0.8480 0.8500 0.8500 0.8510
969.067649 0.8510 0.8520 0.8520 0.8530 0.8530
974.077048 0.8530 0.8530 0.8530 0.8530 0.8530
979.086446 0.8530 0.8530 0.8530 0.8530 0.8550
984.095845 0.8550 0.8560 0.8560 0.8570 0.8570
989.105244 0.8570 0.8580 0.8580 0.8580 0.8580
994.114643 0.8580 0.8580 0.8580 0.8580 0.8580
999.124042 0.8600 0.8600 0.8610 0.8610 0.8610
1004.133441 0.8610 0.8610 0.8610 0.8610 0.8600
1009.142839 0.8600 0.8600 0.8580 0.8570 0.8570
1014.152238 0.8570 0.8560 0.8560 0.8550 0.8550
1019.161637 0.8530 0.8520 0.8510 0.8510 0.8510
1024.171036 0.8510 0.8510 0.8510 0.8520 0.8520
1029.180435 0.8520 0.8520 0.8530 0.8560 0.8570
1034.189833 0.8580 0.8600 0.8600 0.8600 0.8610
1039.199232 0.8610 0.8610 0.8610 0.8610 0.8610
1044.208631 0.8610 0.8610 0.8610 0.8610 0.8610
1049.218030 0.8610 0.8610 0.8610 0.8610 0.8610
1054.227429 0.8600 0.8600 0.8600 0.8580 0.8570
1059.236827 0.8570 0.8560 0.8560 0.8550 0.8530
1064.246226 0.8520 0.8500 0.8480 0.8450 0.8420
1069.255625 0.8410 0.8400 0.8370 0.8350 0.8320
1074.265024 0.8300 0.8230 0.8180 0.8120 0.8050
1079.274423 0.7980 0.7910 0.7830 0.7770 0.7700
1084.283821 0.7610 0.7520 0.7420 0.7260 0.7120
1089.293220 0.7030 0.6900 0.6780 0.6670 0.6600
1094.302619 0.6520 0.6480 0.6460 0.6430 0.6410
1099.312018 0.6400 0.6380 0.6360 0.6320 0.6300
1104.321417 0.6230 0.6220 0.6170 0.6110 0.6000
1109.330816 0.5870 0.5750 0.5601 0.5411 0.5301
1114.340214 0.5050 0.4710 0.4270 0.3770 0.3221
1119.349613 0.2651 0.2051 0.1452 0.1081 0.0931
1124.359012 0.0770 0.0660 0.0660 0.0730 0.1060
1129.368411 0.1369 0.1659 0.2029 0.2598 0.3207
1134.377810 0.3650 0.4120 0.4580 0.5020 0.5419
1139.387208 0.5699 0.6059 0.6299 0.6469 0.6659
1144.396607 0.6850 0.6980 0.7100 0.7170 0.7250
1149.406006 0.7320 0.7420 0.7500 0.7560 0.7620
1154.415405 0.7700 0.7730 0.7750 0.7760 0.7770
1159.424804 0.7780 0.7780 0.7800 0.7780 0.7760
1164.434202 0.7730 0.7710 0.7700 0.7660 0.7620
1169.443601 0.7570 0.7500 0.7420 0.7360 0.7270
1174.453000 0.7200 0.7150 0.7130 0.7130 0.7130
1179.462399 0.7130 0.7150 0.7150 0.7120 0.7070
1184.471798 0.7010 0.6880 0.6770 0.6630 0.6520
1189.481196 0.6350 0.6170 0.5931 0.5820 0.5681
1194.490595 0.5580 0.5460 0.5280 0.5070 0.4012
1199.499994 0.3870 0.3681 0.3361 0.2553 0.1853
1204.509393 0.1460 0.1220 0.1210 0.1250 0.1470
1209.518792 0.1750 0.2329 0.3297 0.3719 0.4168
1214.528191 0.4751 0.5270 0.5670 0.5980 0.6260
1219.537589 0.6470 0.6749 0.6929 0.7060 0.7150
1224.546988 0.7230 0.7280 0.7330 0.7380 0.7410
1229.556387 0.7420 0.7430 0.7420 0.7410 0.7400
1234.565786 0.7380 0.7370 0.7350 0.7320 0.7310
1239.575185 0.7260 0.7180 0.7130 0.7070 0.6970
1244.584583 0.6830 0.6710 0.6610 0.6430 0.6230
1249.593982 0.5901 0.5551 0.5171 0.4782 0.4372
1254.603381 0.3949 0.3480 0.2920 0.2480 0.2200
1259.612780 0.1701 0.1371 0.1360 0.1400 0.1559
1264.622179 0.1870 0.2260 0.2760 0.3330 0.3670
1269.631577 0.4019 0.4509 0.4969 0.5179 0.5548
1274.640976 0.5820 0.6020 0.6210 0.6320 0.6460
1279.650375 0.6560 0.6660 0.6720 0.6720 0.6730
1284.659774 0.6730 0.6750 0.6800 0.6920 0.7020
1289.669173 0.7100 0.7250 0.7380 0.7460 0.7560
1294.678571 0.7650 0.7680 0.7730 0.7750 0.7760
1299.687970 0.7770 0.7780 0.7800 0.7810 0.7810
1304.697369 0.7830 0.7860 0.7880 0.7900 0.7920
1309.706768 0.7930 0.7960 0.7970 0.7980 0.8010
1314.716167 0.8020 0.8020 0.8030 0.8030 0.8030
1319.725566 0.8030 0.8030 0.8030 0.8020 0.8010
1324.734964 0.8010 0.8000 0.7970 0.7930 0.7920
1329.744363 0.7900 0.7900 0.7910 0.7920 0.7930
1334.753762 0.7950 0.7960 0.7970 0.7970 0.7960
1339.763161 0.7950 0.7910 0.7870 0.7830 0.7810
1344.772560 0.7770 0.7730 0.7660 0.7600 0.7560
1349.781958 0.7470 0.7400 0.7260 0.7170 0.7100
1354.791357 0.7060 0.6980 0.6960 0.6870 0.6780
1359.800756 0.6760 0.6710 0.6670 0.6620 0.6610
1364.810155 0.6610 0.6610 0.6600 0.6600 0.6570
1369.819554 0.6560 0.6470 0.6350 0.6260 0.6101
1374.828952 0.5880 0.5660 0.5450 0.5170 0.4870
1379.838351 0.4481 0.4261 0.4130 0.4100 0.4100
1384.847750 0.4160 0.4400 0.4560 0.4820 0.5060
1389.857149 0.5429 0.5949 0.6119 0.6279 0.6429
1394.866548 0.6530 0.6580 0.6650 0.6680 0.6700
1399.875946 0.6710 0.6710 0.6710 0.6700 0.6700
1404.885345 0.6670 0.6660 0.6650 0.6630 0.6620
1409.894744 0.6600 0.6520 0.6331 0.6081 0.5801
1414.904143 0.5600 0.5480 0.5360 0.4980 0.4421
1419.913542 0.3861 0.3222 0.2821 0.2820 0.2959
1424.922941 0.2980 0.3000 0.3000 0.3000 0.3010
1429.932339 0.3210 0.4028 0.4419 0.4669 0.4969
1434.941738 0.5321 0.5751 0.6230 0.6550 0.6820
1439.951137 0.7000 0.7180 0.7330 0.7470 0.7570
1444.960536 0.7630 0.7680 0.7730 0.7800 0.7880
1449.969935 0.8010 0.8150 0.8200 0.8220 0.8220
1454.979333 0.8230 0.8250 0.8300 0.8350 0.8410
1459.988732 0.8450 0.8470 0.8480 0.8480 0.8500
1464.998131 0.8500 0.8510 0.8510 0.8510 0.8520
1470.007530 0.8530 0.8530 0.8560 0.8560 0.8570
1475.016929 0.8570 0.8570 0.8570 0.8570 0.8570
1480.026327 0.8570 0.8570 0.8570 0.8570 0.8580
1485.035726 0.8580 0.8580 0.8600 0.8600 0.8600
1490.045125 0.8600 0.8600 0.8600 0.8610 0.8610
1495.054524 0.8620 0.8630 0.8630 0.8630 0.8630
1500.063923 0.8630 0.8630 0.8630 0.8630 0.8630
1505.073321 0.8630 0.8630 0.8620 0.8620 0.8630
1510.082720 0.8630 0.8630 0.8630 0.8630 0.8620
1515.092119 0.8620 0.8620 0.8620 0.8620 0.8620
1520.101518 0.8620 0.8620 0.8610 0.8610 0.8620
1525.110917 0.8620 0.8630 0.8630 0.8630 0.8620
1530.120316 0.8620 0.8620 0.8610 0.8600 0.8600
1535.129714 0.8600 0.8600 0.8610 0.8610 0.8620
1540.139113 0.8620 0.8630 0.8630 0.8630 0.8630
1545.148512 0.8630 0.8620 0.8620 0.8610 0.8610
1550.157911 0.8600 0.8570 0.8570 0.8570 0.8570
1555.167310 0.8570 0.8570 0.8570 0.8570 0.8560
1560.176708 0.8520 0.8510 0.8500 0.8450 0.8380
1565.186107 0.8350 0.8320 0.8310 0.8280 0.8250
1570.195506 0.8130 0.8030 0.8000 0.8000 0.7980
1575.204905 0.7970 0.7950 0.7920 0.7880 0.7860
1580.214304 0.7830 0.7820 0.7810 0.7810 0.7800
1585.223702 0.7780 0.7760 0.7720 0.7700 0.7680
1590.233101 0.7630 0.7580 0.7560 0.7510 0.7450
1595.242500 0.7410 0.7380 0.7330 0.7270 0.7210
1600.251899 0.7160 0.7120 0.7100 0.7070 0.7050
1605.261298 0.7030 0.7030 0.7010 0.6970 0.6930
1610.270696 0.6850 0.6521 0.6281 0.6160 0.6080
1615.280095 0.5920 0.5710 0.5280 0.4810 0.3981
1620.289494 0.3780 0.3531 0.2962 0.2073 0.1622
1625.298893 0.1160 0.0970 0.0780 0.0630 0.1050
1630.308292 0.2279 0.2550 0.2849 0.3169 0.3429
1635.317691 0.3730 0.3820 0.3820 0.3750 0.3480
1640.327089 0.3011 0.2421 0.2181 0.2110 0.2110
1645.336488 0.2181 0.2931 0.4280 0.5330 0.5959
1650.345887 0.6309 0.6430 0.6600 0.6650 0.6849
1655.355286 0.7060 0.7230 0.7460 0.7610 0.7670
1660.364685 0.7710 0.7800 0.7920 0.8030 0.8159
1665.374083 0.8210 0.8220 0.8270 0.8310 0.8320
1670.383482 0.8350 0.8360 0.8370 0.8380 0.8420
1675.392881 0.8430 0.8480 0.8500 0.8500 0.8500
1680.402280 0.8500 0.8510 0.8510 0.8510 0.8520
1685.411679 0.8520 0.8530 0.8530 0.8550 0.8560
1690.421077 0.8560 0.8560 0.8560 0.8560 0.8560
1695.430476 0.8560 0.8560 0.8560 0.8560 0.8560
1700.439875 0.8560 0.8560 0.8550 0.8550 0.8550
1705.449274 0.8530 0.8530 0.8530 0.8520 0.8520
1710.458673 0.8510 0.8510 0.8510 0.8510 0.8510
1715.468071 0.8510 0.8510 0.8510 0.8510 0.8500
1720.477470 0.8500 0.8500 0.8500 0.8500 0.8510
1725.486869 0.8520 0.8520 0.8530 0.8530 0.8550
1730.496268 0.8550 0.8550 0.8550 0.8560 0.8560
1735.505667 0.8560 0.8560 0.8570 0.8570 0.8570
1740.515066 0.8570 0.8570 0.8570 0.8580 0.8580
1745.524464 0.8580 0.8600 0.8600 0.8580 0.8580
1750.533863 0.8580 0.8580 0.8570 0.8570 0.8560
1755.543262 0.8550 0.8530 0.8520 0.8520 0.8510
1760.552661 0.8500 0.8460 0.8450 0.8450 0.8430
1765.562060 0.8430 0.8430 0.8420 0.8410 0.8400
1770.571458 0.8380 0.8380 0.8370 0.8360 0.8350
1775.580857 0.8310 0.8260 0.8230 0.8210 0.8160
1780.590256 0.8130 0.8080 0.8050 0.8000 0.7950
1785.599655 0.7920 0.7860 0.7780 0.7730 0.7700
1790.609054 0.7670 0.7650 0.7620 0.7600 0.7570
1795.618452 0.7550 0.7520 0.7510 0.7500 0.7480
1800.627851 0.7470 0.7460 0.7470 0.7470 0.7480
1805.637250 0.7480 0.7500 0.7510 0.7520 0.7550
1810.646649 0.7560 0.7570 0.7580 0.7600 0.7620
1815.656048 0.7650 0.7680 0.7710 0.7730 0.7760
1820.665446 0.7770 0.7810 0.7900 0.7920 0.8010
1825.674845 0.8110 0.8130 0.8170 0.8210 0.8250
1830.684244 0.8300 0.8320 0.8350 0.8370 0.8380
1835.693643 0.8400 0.8450 0.8470 0.8480 0.8510
1840.703042 0.8510 0.8520 0.8530 0.8530 0.8530
1845.712441 0.8550 0.8560 0.8560 0.8570 0.8580
1850.721839 0.8610 0.8620 0.8630 0.8630 0.8650
1855.731238 0.8660 0.8670 0.8670 0.8670 0.8670
1860.740637 0.8680 0.8680 0.8680 0.8680 0.8680
1865.750036 0.8680 0.8680 0.8680 0.8680 0.8680
1870.759435 0.8680 0.8680 0.8680 0.8680 0.8680
1875.768833 0.8680 0.8680 0.8680 0.8700 0.8700
1880.778232 0.8700 0.8700 0.8700 0.8700 0.8700
1885.787631 0.8700 0.8700 0.8700 0.8700 0.8710
1890.797030 0.8710 0.8710 0.8710 0.8710 0.8720
1895.806429 0.8720 0.8720 0.8710 0.8720 0.8720
1900.815827 0.8720 0.8720 0.8720 0.8720 0.8720
1905.825226 0.8720 0.8720 0.8730 0.8730 0.8750
1910.834625 0.8750 0.8750 0.8750 0.8750 0.8750
1915.844024 0.8750 0.8750 0.8750 0.8750 0.8750
1920.853423 0.8750 0.8750 0.8750 0.8750 0.8730
1925.862821 0.8730 0.8730 0.8730 0.8730 0.8730
1930.872220 0.8730 0.8730 0.8730 0.8730 0.8730
1935.881619 0.8730 0.8730 0.8730 0.8730 0.8730
1940.891018 0.8730 0.8730 0.8730 0.8730 0.8730
1945.900417 0.8730 0.8730 0.8730 0.8730 0.8730
1950.909816 0.8720 0.8730 0.8730 0.8730 0.8730
1955.919214 0.8730 0.8730 0.8730 0.8730 0.8730
1960.928613 0.8730 0.8730 0.8730 0.8730 0.8730
1965.938012 0.8730 0.8730 0.8730 0.8730 0.8720
1970.947411 0.8720 0.8720 0.8720 0.8720 0.8720
1975.956810 0.8720 0.8710 0.8710 0.8710 0.8710
1980.966208 0.8710 0.8710 0.8710 0.8710 0.8710
1985.975607 0.8710 0.8710 0.8710 0.8710 0.8710
1990.985006 0.8710 0.8710 0.8710 0.8710 0.8700
1995.994405 0.8700 0.8700 0.8700 0.8700 0.8680
2001.003804 0.8675 0.8670 0.8675 0.8680 0.8675
2006.013202 0.8670 0.8670 0.8670 0.8670 0.8670
2011.022601 0.8670 0.8670 0.8670 0.8670 0.8670
2016.032000 0.8670 0.8665 0.8660 0.8660 0.8660
2021.041399 0.8660 0.8660 0.8660 0.8660 0.8660
2026.050798 0.8660 0.8660 0.8660 0.8660 0.8660
2031.060197 0.8655 0.8650 0.8650 0.8650 0.8650
2036.069595 0.8650 0.8650 0.8650 0.8650 0.8650
2041.078994 0.8650 0.8650 0.8650 0.8650 0.8650
2046.088393 0.8650 0.8650 0.8650 0.8650 0.8650
2051.097792 0.8655 0.8660 0.8660 0.8660 0.8660
2056.107191 0.8660 0.8660 0.8660 0.8660 0.8660
2061.116589 0.8660 0.8660 0.8660 0.8660 0.8660
2066.125988 0.8660 0.8660 0.8660 0.8660 0.8660
2071.135387 0.8660 0.8660 0.8660 0.8660 0.8665
2076.144786 0.8670 0.8670 0.8670 0.8670 0.8670
2081.154185 0.8670 0.8670 0.8670 0.8670 0.8665
2086.163583 0.8661 0.8660 0.8660 0.8660 0.8660
2091.172982 0.8660 0.8660 0.8660 0.8660 0.8656
2096.182381 0.8651 0.8650 0.8650 0.8650 0.8650
2101.191780 0.8650 0.8650 0.8650 0.8650 0.8650
2106.201179 0.8650 0.8650 0.8650 0.8641 0.8631
2111.210577 0.8630 0.8630 0.8639 0.8649 0.8650
2116.219976 0.8650 0.8650 0.8650 0.8650 0.8650
2121.229375 0.8650 0.8650 0.8650 0.8650 0.8650
2126.238774 0.8650 0.8650 0.8650 0.8650 0.8650
2131.248173 0.8650 0.8650 0.8650 0.8650 0.8650
2136.257572 0.8650 0.8650 0.8650 0.8650 0.8650
2141.266970 0.8650 0.8650 0.8650 0.8650 0.8650
2146.276369 0.8650 0.8654 0.8659 0.8660 0.8660
2151.285768 0.8660 0.8660 0.8656 0.8651 0.8650
2156.295167 0.8650 0.8650 0.8650 0.8650 0.8650
2161.304566 0.8650 0.8650 0.8650 0.8650 0.8650
2166.313964 0.8650 0.8650 0.8650 0.8650 0.8650
2171.323363 0.8650 0.8650 0.8650 0.8650 0.8650
2176.332762 0.8650 0.8650 0.8650 0.8650 0.8650
2181.342161 0.8642 0.8632 0.8630 0.8630 0.8630
2186.351560 0.8630 0.8630 0.8630 0.8630 0.8630
2191.360958 0.8630 0.8630 0.8630 0.8630 0.8630
2196.370357 0.8630 0.8630 0.8630 0.8630 0.8630
2201.379756 0.8630 0.8630 0.8630 0.8630 0.8630
2206.389155 0.8630 0.8630 0.8630 0.8630 0.8630
2211.398554 0.8630 0.8630 0.8630 0.8630 0.8630
2216.407952 0.8630 0.8630 0.8630 0.8630 0.8630
2221.417351 0.8630 0.8630 0.8630 0.8630 0.8630
2226.426750 0.8630 0.8626 0.8621 0.8620 0.8620
2231.436149 0.8620 0.8620 0.8620 0.8620 0.8616
2236.445548 0.8611 0.8610 0.8610 0.8610 0.8610
2241.454947 0.8606 0.8601 0.8600 0.8600 0.8600
2246.464345 0.8600 0.8600 0.8600 0.8600 0.8600
2251.473744 0.8600 0.8600 0.8600 0.8600 0.8600
2256.483143 0.8600 0.8593 0.8583 0.8580 0.8580
2261.492542 0.8580 0.8580 0.8580 0.8580 0.8577
2266.501941 0.8572 0.8570 0.8570 0.8567 0.8562
2271.511339 0.8560 0.8560 0.8560 0.8560 0.8560
2276.520738 0.8560 0.8560 0.8560 0.8560 0.8560
2281.530137 0.8560 0.8560 0.8557 0.8552 0.8543
2286.539536 0.8533 0.8530 0.8530 0.8527 0.8522
2291.548935 0.8520 0.8520 0.8520 0.8520 0.8520
2296.558333 0.8520 0.8517 0.8512 0.8500 0.8485
2301.567732 0.8477 0.8472 0.8457 0.8437 0.8423
2306.577131 0.8413 0.8400 0.8385 0.8374 0.8364
2311.586530 0.8357 0.8352 0.8344 0.8334 0.8327
2316.595929 0.8322 0.8317 0.8312 0.8307 0.8302
2321.605327 0.8294 0.8284 0.8280 0.8280 0.8280
2326.614726 0.8280 0.8280 0.8280 0.8286 0.8296
2331.624125 0.8306 0.8316 0.8332 0.8352 0.8375
2336.633524 0.8400 0.8422 0.8442 0.8456 0.8466
2341.642923 0.8479 0.8494 0.8506 0.8516 0.8523
2346.652322 0.8528 0.8536 0.8546 0.8550 0.8550
2351.661720 0.8550 0.8550 0.8550 0.8550 0.8550
2356.671119 0.8550 0.8550 0.8550 0.8550 0.8550
2361.680518 0.8544 0.8534 0.8530 0.8530 0.8536
