##TITLE=Propane, 1,2-dichloro-,
##JCAMP-DX=4.24
##DATA TYPE=INFRARED SPECTRUM
##CLASS=COBLENTZ III
##ORIGIN=WYANDOTTE CHEMICALS CORP.
##OWNER=Copyright (C) 1987 by the Coblentz Society
Collection (C) 2018 copyright by the U.S. Secretary of Commerce
on behalf of the United States of America. All rights reserved.
##DATE=Not specified, most likely prior to 1970
##NAMES=1,2-dichloropropane
##CAS REGISTRY NO=78-87-5
##MOLFORM=C3 H6 Cl2
##BP=96.8 C
##SOURCE REFERENCE=COBLENTZ NO. 5994
##$NIST SOURCE=COBLENTZ
##$NIST IMAGE=cob5994
##SPECTROMETER/DATA SYSTEM=BAIRD (GRATING)
##INSTRUMENT PARAMETERS=NaCl PRISM
##STATE=LIQUID (NEAT)
##PATH LENGTH=0.003 CM
##RESOLUTION=2
##XUNITS=1/CM
##YUNITS=TRANSMITTANCE
##XFACTOR=1.0
##YFACTOR=1
##FIRSTX=625
##LASTX=4000
##FIRSTY=0.7431
##MAXX=4000
##MINX=625
##MAXY=0.9509
##MINY=0.1097
##NPOINTS=3376
##XYDATA=(X++(Y..Y))
625.000000 0.7431 0.7503 0.7573 0.7635 0.7688
630.000000 0.7745 0.7807 0.7864 0.7899 0.7878
635.000000 0.7857 0.7859 0.7836 0.7815 0.7789
640.000000 0.7718 0.7618 0.7492 0.7343 0.7162
645.000000 0.6865 0.6548 0.6231 0.5915 0.5601
650.000000 0.5287 0.4973 0.4662 0.4351 0.4041
655.000000 0.3732 0.3461 0.3134 0.2838 0.2628
660.000000 0.2544 0.2589 0.2664 0.2711 0.2700
665.000000 0.2650 0.2556 0.2380 0.2237 0.2177
670.000000 0.2156 0.2211 0.2330 0.2494 0.2742
675.000000 0.3162 0.3581 0.4000 0.4316 0.4724
680.000000 0.5079 0.5393 0.5669 0.5926 0.6183
685.000000 0.6418 0.6625 0.6797 0.6928 0.6992
690.000000 0.7045 0.7084 0.7108 0.7083 0.7103
695.000000 0.7089 0.7063 0.7037 0.6988 0.6933
700.000000 0.6847 0.6721 0.6554 0.6333 0.6077
705.000000 0.5821 0.5565 0.5311 0.5057 0.4834
710.000000 0.4638 0.4435 0.4321 0.4271 0.4238
715.000000 0.4210 0.4164 0.4031 0.3835 0.3465
720.000000 0.3130 0.2794 0.2517 0.2155 0.1895
725.000000 0.1881 0.1895 0.1918 0.1943 0.1949
730.000000 0.1951 0.1852 0.1753 0.1632 0.1496
735.000000 0.1375 0.1266 0.1193 0.1148 0.1139
740.000000 0.1137 0.1158 0.1154 0.1165 0.1176
745.000000 0.1193 0.1222 0.1280 0.1359 0.1450
750.000000 0.1543 0.1734 0.1955 0.2371 0.2897
755.000000 0.3576 0.4265 0.4806 0.5107 0.5450
760.000000 0.6352 0.6594 0.6750 0.6972 0.7159
765.000000 0.7345 0.7516 0.7664 0.7798 0.7911
770.000000 0.8025 0.8161 0.8297 0.8426 0.8547
775.000000 0.8668 0.8767 0.8864 0.8935 0.8995
780.000000 0.9055 0.9096 0.9133 0.9168 0.9185
785.000000 0.9203 0.9220 0.9230 0.9237 0.9243
790.000000 0.9249 0.9255 0.9263 0.9276 0.9288
795.000000 0.9302 0.9331 0.9361 0.9388 0.9410
800.000000 0.9427 0.9441 0.9457 0.9472 0.9483
805.000000 0.9489 0.9496 0.9502 0.9504 0.9509
810.000000 0.9506 0.9499 0.9491 0.9483 0.9457
815.000000 0.9432 0.9408 0.9383 0.9364 0.9346
820.000000 0.9336 0.9335 0.9332 0.9333 0.9339
825.000000 0.9345 0.9348 0.9349 0.9333 0.9315
830.000000 0.9289 0.9262 0.9236 0.9210 0.9186
835.000000 0.9169 0.9164 0.9167 0.9175 0.9184
840.000000 0.9197 0.9210 0.9215 0.9220 0.9224
845.000000 0.9200 0.9161 0.9116 0.9064 0.9012
850.000000 0.8952 0.8904 0.8856 0.8818 0.8789
855.000000 0.8767 0.8725 0.8597 0.8509 0.8434
860.000000 0.8373 0.8315 0.8265 0.8217 0.8183
865.000000 0.8154 0.8126 0.8107 0.8089 0.8071
870.000000 0.8053 0.8033 0.7982 0.7903 0.7801
875.000000 0.7677 0.7449 0.7270 0.7126 0.7032
880.000000 0.6986 0.6977 0.7019 0.7059 0.7155
885.000000 0.7269 0.7395 0.7447 0.7457 0.7492
890.000000 0.7592 0.7733 0.7857 0.7904 0.7919
895.000000 0.7923 0.7886 0.7821 0.7728 0.7539
900.000000 0.7292 0.6949 0.6671 0.6144 0.5555
905.000000 0.4967 0.4381 0.3930 0.3662 0.3601
910.000000 0.3575 0.3897 0.3983 0.3984 0.3822
915.000000 0.3739 0.3678 0.3649 0.4148 0.5040
920.000000 0.5930 0.6686 0.7058 0.7251 0.7447
925.000000 0.7668 0.7857 0.8009 0.8129 0.8195
930.000000 0.8257 0.8300 0.8323 0.8347 0.8351
935.000000 0.8352 0.8351 0.8337 0.8319 0.8305
940.000000 0.8291 0.8285 0.8291 0.8299 0.8314
945.000000 0.8333 0.8376 0.8422 0.8484 0.8558
950.000000 0.8643 0.8727 0.8760 0.8785 0.8795
955.000000 0.8805 0.8810 0.8812 0.8814 0.8814
960.000000 0.8814 0.8814 0.8813 0.8812 0.8811
965.000000 0.8827 0.8863 0.8883 0.8898 0.8904
970.000000 0.8909 0.8912 0.8909 0.8892 0.8902
975.000000 0.8895 0.8885 0.8865 0.8846 0.8821
980.000000 0.8792 0.8750 0.8706 0.8662 0.8611
985.000000 0.8555 0.8499 0.8435 0.8365 0.8295
990.000000 0.8209 0.8115 0.7992 0.7853 0.7703
995.000000 0.7546 0.7369 0.7157 0.6970 0.6753
1000.000000 0.6076 0.5392 0.4709 0.4028 0.3585
1005.000000 0.3474 0.3399 0.3337 0.3269 0.3191
1010.000000 0.3088 0.2849 0.2597 0.2346 0.2094
1015.000000 0.1844 0.1604 0.1430 0.1250 0.1182
1020.000000 0.1128 0.1097 0.1099 0.1180 0.1663
1025.000000 0.2251 0.2836 0.3421 0.4005 0.4587
1030.000000 0.5190 0.5397 0.5650 0.5894 0.6157
1035.000000 0.6441 0.6706 0.6862 0.6967 0.7070
1040.000000 0.7161 0.7252 0.7326 0.7382 0.7436
1045.000000 0.7473 0.7508 0.7542 0.7570 0.7595
1050.000000 0.7620 0.7643 0.7664 0.7684 0.7702
1055.000000 0.7694 0.7700 0.7688 0.7656 0.7599
1060.000000 0.7507 0.7377 0.7267 0.7139 0.6924
1065.000000 0.6621 0.6216 0.5812 0.5409 0.5007
1070.000000 0.4605 0.4204 0.3931 0.3882 0.3911
1075.000000 0.3983 0.4272 0.4607 0.4941 0.5275
1080.000000 0.5607 0.5939 0.6270 0.6601 0.6909
1085.000000 0.7167 0.7348 0.7498 0.7623 0.7734
1090.000000 0.7837 0.7970 0.8153 0.8292 0.8394
1095.000000 0.8450 0.8498 0.8510 0.8521 0.8527
1100.000000 0.8521 0.8514 0.8497 0.8477 0.8454
1105.000000 0.8431 0.8407 0.8379 0.8346 0.8312
1110.000000 0.8266 0.8215 0.8143 0.7998 0.7817
1115.000000 0.7623 0.7355 0.7083 0.6811 0.6540
1120.000000 0.6270 0.6000 0.5731 0.5461 0.5420
1125.000000 0.5435 0.5398 0.5655 0.5900 0.6104
1130.000000 0.6289 0.6393 0.6469 0.6526 0.6574
1135.000000 0.6636 0.6717 0.6857 0.7230 0.7507
1140.000000 0.7739 0.7928 0.8077 0.8193 0.8285
1145.000000 0.8352 0.8413 0.8455 0.8496 0.8524
1150.000000 0.8543 0.8562 0.8581 0.8589 0.8598
1155.000000 0.8605 0.8606 0.8587 0.8601 0.8593
1160.000000 0.8583 0.8573 0.8555 0.8534 0.8514
1165.000000 0.8495 0.8472 0.8449 0.8426 0.8392
1170.000000 0.8354 0.8310 0.8257 0.8203 0.8136
1175.000000 0.8056 0.7957 0.7855 0.7755 0.7626
1180.000000 0.7413 0.7177 0.6711 0.6556 0.6495
1185.000000 0.6457 0.6426 0.6388 0.6338 0.6269
1190.000000 0.6187 0.5980 0.5447 0.4677 0.3895
1195.000000 0.3116 0.2395 0.2169 0.2056 0.1800
1200.000000 0.1672 0.1659 0.1660 0.1983 0.2460
1205.000000 0.2936 0.3411 0.3886 0.4360 0.4833
1210.000000 0.5305 0.5776 0.6247 0.6716 0.6969
1215.000000 0.7162 0.7280 0.7349 0.7386 0.7395
1220.000000 0.7402 0.7399 0.7395 0.7382 0.7365
1225.000000 0.7342 0.7318 0.7277 0.7233 0.7152
1230.000000 0.7030 0.6887 0.6739 0.6594 0.6447
1235.000000 0.6288 0.5971 0.5381 0.4792 0.4204
1240.000000 0.3616 0.3030 0.2445 0.1956 0.1898
1245.000000 0.1906 0.1902 0.2549 0.2996 0.3441
1250.000000 0.3887 0.4330 0.4743 0.4828 0.4815
1255.000000 0.4709 0.4542 0.4374 0.4206 0.4039
1260.000000 0.3872 0.3705 0.3540 0.3423 0.3404
1265.000000 0.3400 0.3405 0.3419 0.3436 0.3442
1270.000000 0.3438 0.3429 0.3419 0.3476 0.3538
1275.000000 0.3582 0.3610 0.3627 0.3624 0.3629
1280.000000 0.3525 0.3455 0.3371 0.3278 0.3178
1285.000000 0.3075 0.3050 0.3106 0.3071 0.3124
1290.000000 0.3197 0.3276 0.3368 0.3476 0.3565
1295.000000 0.3925 0.4551 0.5052 0.5551 0.6051
1300.000000 0.6549 0.6848 0.7257 0.7506 0.7707
1305.000000 0.7784 0.7849 0.7886 0.7915 0.7943
1310.000000 0.7961 0.7970 0.7980 0.7989 0.7995
1315.000000 0.7995 0.7967 0.7993 0.7985 0.7964
1320.000000 0.7943 0.7913 0.7884 0.7848 0.7784
1325.000000 0.7715 0.7646 0.7571 0.7460 0.7347
1330.000000 0.7196 0.6944 0.6554 0.6155 0.5757
1335.000000 0.5360 0.5006 0.4896 0.4871 0.4860
1340.000000 0.4870 0.4885 0.5005 0.5149 0.5292
1345.000000 0.5436 0.5579 0.5721 0.5864 0.6006
1350.000000 0.6149 0.6290 0.6433 0.6574 0.6729
1355.000000 0.6958 0.7097 0.7224 0.7368 0.7514
1360.000000 0.7659 0.7851 0.7951 0.7989 0.7998
1365.000000 0.8001 0.7997 0.7999 0.7975 0.7959
1370.000000 0.7943 0.7921 0.7897 0.7862 0.7807
1375.000000 0.7746 0.7681 0.7607 0.7520 0.7427
1380.000000 0.7296 0.7115 0.6730 0.6444 0.6258
1385.000000 0.6059 0.5605 0.5009 0.4413 0.3818
1390.000000 0.3224 0.2631 0.2040 0.1636 0.1617
1395.000000 0.1618 0.1620 0.2062 0.2667 0.3271
1400.000000 0.3874 0.4477 0.5078 0.5679 0.6221
1405.000000 0.6478 0.6632 0.6807 0.6962 0.7135
1410.000000 0.7305 0.7420 0.7487 0.7535 0.7556
1415.000000 0.7569 0.7573 0.7575 0.7572 0.7572
1420.000000 0.7560 0.7551 0.7540 0.7527 0.7512
1425.000000 0.7483 0.7432 0.7374 0.7312 0.7245
1430.000000 0.7170 0.6894 0.6569 0.6242 0.5918
1435.000000 0.5592 0.5268 0.4945 0.4621 0.4298
1440.000000 0.3975 0.3653 0.3300 0.2984 0.2905
1445.000000 0.2877 0.2855 0.2841 0.2830 0.2814
1450.000000 0.2796 0.2765 0.2723 0.2644 0.2531
1455.000000 0.2396 0.2295 0.2209 0.2135 0.2067
1460.000000 0.2006 0.1949 0.1894 0.1833 0.1777
1465.000000 0.1737 0.1707 0.1683 0.1670 0.1669
1470.000000 0.1672 0.1661 0.1804 0.2085 0.2395
1475.000000 0.2704 0.3013 0.3321 0.3629 0.3936
1480.000000 0.4244 0.4550 0.4857 0.5163 0.5468
1485.000000 0.5774 0.6078 0.6383 0.6687 0.6997
1490.000000 0.7250 0.7418 0.7532 0.7627 0.7683
1495.000000 0.7725 0.7767 0.7809 0.7846 0.7884
1500.000000 0.7919 0.7953 0.8003 0.8067 0.8143
1505.000000 0.8236 0.8342 0.8455 0.8503 0.8553
1510.000000 0.8596 0.8628 0.8658 0.8689 0.8719
1515.000000 0.8742 0.8764 0.8786 0.8808 0.8830
1520.000000 0.8852 0.8874 0.8896 0.8918 0.8939
1525.000000 0.8961 0.8983 0.9004 0.9021 0.9039
1530.000000 0.9056 0.9073 0.9090 0.9106 0.9120
1535.000000 0.9131 0.9142 0.9154 0.9165 0.9176
1540.000000 0.9187 0.9195 0.9203 0.9211 0.9218
1545.000000 0.9226 0.9234 0.9241 0.9248 0.9251
1550.000000 0.9254 0.9257 0.9260 0.9263 0.9266
1555.000000 0.9270 0.9273 0.9277 0.9280 0.9283
1560.000000 0.9286 0.9289 0.9292 0.9296 0.9299
1565.000000 0.9302 0.9305 0.9307 0.9310 0.9313
1570.000000 0.9315 0.9318 0.9321 0.9324 0.9327
1575.000000 0.9329 0.9332 0.9335 0.9338 0.9337
1580.000000 0.9335 0.9332 0.9330 0.9328 0.9326
1585.000000 0.9324 0.9322 0.9320 0.9318 0.9316
1590.000000 0.9314 0.9312 0.9310 0.9308 0.9307
1595.000000 0.9305 0.9303 0.9302 0.9300 0.9299
1600.000000 0.9298 0.9296 0.9294 0.9293 0.9291
1605.000000 0.9290 0.9288 0.9286 0.9285 0.9283
1610.000000 0.9282 0.9283 0.9283 0.9283 0.9284
1615.000000 0.9284 0.9284 0.9285 0.9285 0.9285
1620.000000 0.9286 0.9286 0.9287 0.9288 0.9289
1625.000000 0.9290 0.9291 0.9291 0.9292 0.9293
1630.000000 0.9294 0.9295 0.9296 0.9297 0.9297
1635.000000 0.9297 0.9298 0.9299 0.9300 0.9301
1640.000000 0.9302 0.9302 0.9302 0.9302 0.9303
1645.000000 0.9303 0.9303 0.9303 0.9304 0.9304
1650.000000 0.9304 0.9304 0.9304 0.9304 0.9305
1655.000000 0.9305 0.9305 0.9305 0.9306 0.9306
1660.000000 0.9306 0.9306 0.9306 0.9306 0.9306
1665.000000 0.9305 0.9305 0.9305 0.9304 0.9304
1670.000000 0.9304 0.9304 0.9303 0.9303 0.9303
1675.000000 0.9302 0.9302 0.9302 0.9302 0.9301
1680.000000 0.9301 0.9301 0.9301 0.9300 0.9299
1685.000000 0.9297 0.9295 0.9292 0.9290 0.9287
1690.000000 0.9285 0.9283 0.9280 0.9278 0.9275
1695.000000 0.9273 0.9271 0.9268 0.9265 0.9263
1700.000000 0.9261 0.9259 0.9256 0.9253 0.9252
1705.000000 0.9251 0.9249 0.9248 0.9246 0.9244
1710.000000 0.9243 0.9242 0.9240 0.9238 0.9237
1715.000000 0.9236 0.9233 0.9231 0.9228 0.9226
1720.000000 0.9223 0.9220 0.9218 0.9215 0.9213
1725.000000 0.9210 0.9208 0.9206 0.9205 0.9207
1730.000000 0.9209 0.9212 0.9214 0.9217 0.9219
1735.000000 0.9222 0.9224 0.9227 0.9230 0.9234
1740.000000 0.9239 0.9244 0.9249 0.9254 0.9259
1745.000000 0.9264 0.9268 0.9273 0.9278 0.9284
1750.000000 0.9291 0.9297 0.9303 0.9309 0.9315
1755.000000 0.9321 0.9327 0.9332 0.9338 0.9343
1760.000000 0.9348 0.9354 0.9359 0.9364 0.9370
1765.000000 0.9375 0.9380 0.9386 0.9391 0.9396
1770.000000 0.9400 0.9404 0.9408 0.9412 0.9416
1775.000000 0.9420 0.9425 0.9429 0.9433 0.9437
1780.000000 0.9441 0.9445 0.9449 0.9454 0.9458
1785.000000 0.9463 0.9467 0.9472 0.9476 0.9479
1790.000000 0.9480 0.9481 0.9482 0.9484 0.9485
1795.000000 0.9487 0.9488 0.9489 0.9490 0.9490
1800.000000 0.9491 0.9491 0.9492 0.9493 0.9494
1805.000000 0.9494 0.9495 0.9496 0.9497 0.9497
1810.000000 0.9497 0.9497 0.9498 0.9498 0.9498
1815.000000 0.9498 0.9499 0.9499 0.9499 0.9499
1820.000000 0.9500 0.9500 0.9500 0.9500 0.9501
1825.000000 0.9501 0.9501 0.9501 0.9501 0.9500
1830.000000 0.9500 0.9500 0.9500 0.9500 0.9500
1835.000000 0.9500 0.9500 0.9500 0.9500 0.9499
1840.000000 0.9499 0.9499 0.9499 0.9499 0.9499
1845.000000 0.9499 0.9499 0.9499 0.9498 0.9498
1850.000000 0.9498 0.9497 0.9496 0.9496 0.9496
1855.000000 0.9495 0.9494 0.9494 0.9494 0.9493
1860.000000 0.9493 0.9492 0.9492 0.9491 0.9491
1865.000000 0.9490 0.9490 0.9490 0.9489 0.9488
1870.000000 0.9487 0.9487 0.9487 0.9486 0.9486
1875.000000 0.9485 0.9485 0.9484 0.9484 0.9484
1880.000000 0.9483 0.9483 0.9483 0.9483 0.9482
1885.000000 0.9482 0.9482 0.9481 0.9481 0.9481
1890.000000 0.9480 0.9480 0.9480 0.9479 0.9479
1895.000000 0.9479 0.9479 0.9478 0.9478 0.9478
1900.000000 0.9477 0.9477 0.9477 0.9476 0.9476
1905.000000 0.9476 0.9476 0.9475 0.9475 0.9475
1910.000000 0.9490 0.9474 0.9474 0.9474 0.9474
1915.000000 0.9474 0.9473 0.9473 0.9473 0.9473
1920.000000 0.9473 0.9472 0.9472 0.9472 0.9472
1925.000000 0.9471 0.9471 0.9471 0.9471 0.9471
1930.000000 0.9470 0.9470 0.9470 0.9470 0.9469
1935.000000 0.9469 0.9469 0.9469 0.9468 0.9468
1940.000000 0.9468 0.9467 0.9467 0.9467 0.9467
1945.000000 0.9467 0.9466 0.9466 0.9466 0.9465
1950.000000 0.9465 0.9465 0.9464 0.9464 0.9464
1955.000000 0.9463 0.9463 0.9463 0.9462 0.9462
1960.000000 0.9460 0.9458 0.9455 0.9452 0.9449
1965.000000 0.9446 0.9443 0.9439 0.9436 0.9433
1970.000000 0.9430 0.9426 0.9422 0.9419 0.9416
1975.000000 0.9412 0.9409 0.9405 0.9402 0.9399
1980.000000 0.9395 0.9391 0.9388 0.9385 0.9382
1985.000000 0.9378 0.9375 0.9371 0.9369 0.9367
1990.000000 0.9367 0.9366 0.9366 0.9365 0.9364
1995.000000 0.9363 0.9362 0.9361 0.9361 0.9360
2000.000000 0.9360 0.9359 0.9359 0.9359 0.9359
2005.000000 0.9360 0.9360 0.9360 0.9360 0.9361
2010.000000 0.9361 0.9361 0.9361 0.9362 0.9362
2015.000000 0.9362 0.9362 0.9362 0.9363 0.9363
2020.000000 0.9364 0.9364 0.9365 0.9366 0.9366
2025.000000 0.9367 0.9368 0.9368 0.9369 0.9369
2030.000000 0.9370 0.9371 0.9371 0.9372 0.9372
2035.000000 0.9373 0.9374 0.9374 0.9373 0.9373
2040.000000 0.9373 0.9373 0.9373 0.9372 0.9372
2045.000000 0.9372 0.9371 0.9371 0.9371 0.9371
2050.000000 0.9371 0.9370 0.9370 0.9370 0.9370
2055.000000 0.9369 0.9369 0.9369 0.9369 0.9369
2060.000000 0.9368 0.9368 0.9368 0.9368 0.9368
2065.000000 0.9368 0.9368 0.9369 0.9369 0.9369
2070.000000 0.9370 0.9370 0.9370 0.9371 0.9371
2075.000000 0.9371 0.9371 0.9372 0.9372 0.9372
2080.000000 0.9373 0.9373 0.9373 0.9373 0.9374
2085.000000 0.9374 0.9374 0.9375 0.9375 0.9375
2090.000000 0.9375 0.9376 0.9376 0.9374 0.9372
2095.000000 0.9371 0.9370 0.9368 0.9367 0.9366
2100.000000 0.9364 0.9363 0.9362 0.9360 0.9359
2105.000000 0.9357 0.9356 0.9355 0.9353 0.9352
2110.000000 0.9351 0.9349 0.9348 0.9347 0.9346
2115.000000 0.9345 0.9341 0.9338 0.9335 0.9332
2120.000000 0.9329 0.9326 0.9322 0.9319 0.9317
2125.000000 0.9313 0.9310 0.9307 0.9305 0.9305
2130.000000 0.9305 0.9305 0.9305 0.9305 0.9305
2135.000000 0.9305 0.9305 0.9305 0.9308 0.9311
2140.000000 0.9314 0.9317 0.9320 0.9323 0.9326
2145.000000 0.9329 0.9333 0.9335 0.9337 0.9337
2150.000000 0.9337 0.9337 0.9336 0.9336 0.9336
2155.000000 0.9336 0.9335 0.9335 0.9335 0.9334
2160.000000 0.9332 0.9330 0.9327 0.9324 0.9321
2165.000000 0.9318 0.9315 0.9312 0.9309 0.9306
2170.000000 0.9303 0.9299 0.9296 0.9292 0.9289
2175.000000 0.9286 0.9283 0.9280 0.9276 0.9273
2180.000000 0.9269 0.9266 0.9263 0.9259 0.9255
2185.000000 0.9250 0.9246 0.9241 0.9237 0.9233
2190.000000 0.9229 0.9225 0.9221 0.9217 0.9213
2195.000000 0.9209 0.9206 0.9202 0.9198 0.9195
2200.000000 0.9190 0.9186 0.9183 0.9179 0.9175
2205.000000 0.9171 0.9167 0.9163 0.9158 0.9154
2210.000000 0.9149 0.9145 0.9141 0.9137 0.9133
2215.000000 0.9129 0.9125 0.9120 0.9116 0.9112
2220.000000 0.9108 0.9103 0.9099 0.9095 0.9090
2225.000000 0.9087 0.9083 0.9081 0.9080 0.9078
2230.000000 0.9077 0.9076 0.9075 0.9073 0.9072
2235.000000 0.9071 0.9070 0.9068 0.9067 0.9065
2240.000000 0.9064 0.9063 0.9062 0.9060 0.9059
2245.000000 0.9057 0.9056 0.9054 0.9053 0.9051
2250.000000 0.9050 0.9048 0.9047 0.9045 0.9044
2255.000000 0.9040 0.9035 0.9030 0.9024 0.9019
2260.000000 0.9014 0.9009 0.9004 0.8999 0.8994
2265.000000 0.8989 0.8984 0.8979 0.8974 0.8969
2270.000000 0.8964 0.8959 0.8956 0.8953 0.8949
2275.000000 0.8946 0.8942 0.8939 0.8938 0.8938
2280.000000 0.8940 0.8942 0.8944 0.8946 0.8949
2285.000000 0.8951 0.8953 0.8956 0.8958 0.8960
2290.000000 0.8962 0.8964 0.8967 0.8969 0.8971
2295.000000 0.8973 0.8976 0.8979 0.8983 0.8987
2300.000000 0.8991 0.8995 0.8998 0.9002 0.9006
2305.000000 0.9010 0.9013 0.9018 0.9022 0.9025
2310.000000 0.9029 0.9032 0.9035 0.9038 0.9038
2315.000000 0.9038 0.9035 0.9032 0.9030 0.9027
2320.000000 0.9024 0.9021 0.9018 0.9016 0.9013
2325.000000 0.9010 0.9008 0.9006 0.9004 0.9002
2330.000000 0.9000 0.8998 0.8996 0.8994 0.8992
2335.000000 0.8990 0.8988 0.8985 0.8984 0.8982
2340.000000 0.8980 0.8978 0.8976 0.8974 0.8972
2345.000000 0.8970 0.8968 0.8967 0.8966 0.8966
2350.000000 0.8966 0.8966 0.8965 0.8965 0.8965
2355.000000 0.8965 0.8965 0.8965 0.8965 0.8964
2360.000000 0.8964 0.8964 0.8964 0.8964 0.8964
2365.000000 0.8964 0.8967 0.8969 0.8972 0.8975
2370.000000 0.8977 0.8979 0.8982 0.8984 0.8987
2375.000000 0.8990 0.8992 0.8995 0.8998 0.9000
2380.000000 0.9002 0.9005 0.9007 0.9010 0.9014
2385.000000 0.9018 0.9022 0.9026 0.9030 0.9033
2390.000000 0.9036 0.9039 0.9042 0.9044 0.9047
2395.000000 0.9049 0.9052 0.9055 0.9057 0.9060
2400.000000 0.9060 0.9059 0.9058 0.9057 0.9055
2405.000000 0.9054 0.9053 0.9051 0.9050 0.9049
2410.000000 0.9048 0.9046 0.9041 0.9037 0.9033
2415.000000 0.9029 0.9025 0.9021 0.9017 0.9013
2420.000000 0.9009 0.9005 0.9001 0.8997 0.8993
2425.000000 0.8989 0.8985 0.8981 0.8977 0.8973
2430.000000 0.8969 0.8964 0.8960 0.8956 0.8952
2435.000000 0.8947 0.8943 0.8939 0.8935 0.8931
2440.000000 0.8926 0.8922 0.8920 0.8918 0.8917
2445.000000 0.8917 0.8917 0.8916 0.8916 0.8915
2450.000000 0.8915 0.8915 0.8915 0.8915 0.8916
2455.000000 0.8918 0.8919 0.8920 0.8922 0.8923
2460.000000 0.8925 0.8926 0.8927 0.8928 0.8930
2465.000000 0.8932 0.8933 0.8934 0.8936 0.8937
2470.000000 0.8939 0.8940 0.8942 0.8943 0.8944
2475.000000 0.8945 0.8947 0.8948 0.8950 0.8951
2480.000000 0.8952 0.8954 0.8955 0.8957 0.8958
2485.000000 0.8959 0.8960 0.8961 0.8962 0.8962
2490.000000 0.8962 0.8961 0.8961 0.8960 0.8960
2495.000000 0.8960 0.8960 0.8960 0.8959 0.8959
2500.000000 0.8959 0.8959 0.8959 0.8958 0.8958
2505.000000 0.8958 0.8957 0.8957 0.8957 0.8957
2510.000000 0.8957 0.8956 0.8956 0.8955 0.8955
2515.000000 0.8955 0.8954 0.8953 0.8952 0.8951
2520.000000 0.8950 0.8949 0.8948 0.8947 0.8946
2525.000000 0.8946 0.8945 0.8944 0.8943 0.8942
2530.000000 0.8941 0.8940 0.8939 0.8938 0.8938
2535.000000 0.8937 0.8936 0.8935 0.8935 0.8933
2540.000000 0.8932 0.8931 0.8930 0.8930 0.8929
2545.000000 0.8928 0.8927 0.8926 0.8925 0.8924
2550.000000 0.8923 0.8922 0.8920 0.8919 0.8918
2555.000000 0.8917 0.8916 0.8915 0.8913 0.8912
2560.000000 0.8911 0.8910 0.8909 0.8908 0.8907
2565.000000 0.8905 0.8904 0.8903 0.8902 0.8900
2570.000000 0.8899 0.8898 0.8897 0.8895 0.8894
2575.000000 0.8893 0.8892 0.8892 0.8892 0.8893
2580.000000 0.8894 0.8894 0.8895 0.8896 0.8896
2585.000000 0.8896 0.8897 0.8898 0.8899 0.8899
2590.000000 0.8900 0.8901 0.8901 0.8902 0.8904
2595.000000 0.8906 0.8907 0.8910 0.8912 0.8914
2600.000000 0.8917 0.8919 0.8922 0.8924 0.8926
2605.000000 0.8929 0.8931 0.8934 0.8936 0.8938
2610.000000 0.8941 0.8943 0.8946 0.8947 0.8949
2615.000000 0.8950 0.8951 0.8952 0.8953 0.8954
2620.000000 0.8955 0.8956 0.8957 0.8957 0.8957
2625.000000 0.8956 0.8956 0.8955 0.8955 0.8954
2630.000000 0.8954 0.8953 0.8952 0.8951 0.8951
2635.000000 0.8950 0.8949 0.8949 0.8948 0.8947
2640.000000 0.8946 0.8946 0.8946 0.8945 0.8945
2645.000000 0.8944 0.8943 0.8941 0.8940 0.8939
2650.000000 0.8938 0.8937 0.8935 0.8934 0.8932
2655.000000 0.8931 0.8930 0.8928 0.8927 0.8926
2660.000000 0.8925 0.8923 0.8922 0.8921 0.8920
