##TITLE=2-PROPANOL, 1-AMINO-
##JCAMP-DX=4.24
$$ By DXEDIT 1.05 (RS McDonald)
##DATA TYPE=INFRARED SPECTRUM
##CLASS=COBLENTZ III
##ORIGIN=WYANDOTTE CHEMICALS CORP.
##OWNER=COBLENTZ SOC.
Collection (C) 2018 copyright by the U.S. Secretary of Commerce
on behalf of the United States of America. All rights reserved.
##DATE=Not specified, most likely prior to 1970
##NAMES=1-amino-2-propanol
##CAS REGISTRY NO=78-96-6
##MOLFORM=C3 H9 N O
##SOURCE REFERENCE=COBLENTZ NO. 05980
##$NIST SOURCE=COBLENTZ
##$NIST IMAGE=cob5980
##SPECTROMETER/DATA SYSTEM=BAIRD (GRATING)
##INSTRUMENT PARAMETERS=NaCl PRISM
##STATE=LIQUID (NEAT)
##PATH LENGTH=CAPILLARY
##SAMPLING PROCEDURE=TRANSMISSION
##RESOLUTION=2
##DATA PROCESSING=DIGITIZED BY COBLENTZ SOCIETY (BATCH I) FROM HARD COPY
##XUNITS=1/CM
##YUNITS=TRANSMITTANCE
##XLABEL=Wavenumbers (cm-1)
##YLABEL=Transmittance
##XFACTOR=1
##YFACTOR=1
##DELTAX=1
##FIRSTX=4000
##LASTX=626
##FIRSTY=1.0001
##MAXX=4000
##MINX=626
##MAXY=1.0005
##MINY=0.0839
##NPOINTS=3375
##XYDATA=(X++(Y..Y))
4000.000000 1.0001 1.0001 1.0001 1.0001 1.0001
3995.000000 1.0001 1.0001 1.0001 1.0001 1.0001
3990.000000 1.0001 1.0001 1.0001 1.0002 1.0002
3985.000000 1.0002 1.0002 1.0002 1.0002 1.0002
3980.000000 1.0002 1.0002 1.0002 1.0002 1.0002
3975.000000 1.0002 1.0003 1.0003 1.0003 1.0003
3970.000000 1.0003 1.0003 1.0003 1.0003 1.0003
3965.000000 1.0003 1.0003 1.0003 1.0003 1.0004
3960.000000 1.0004 1.0004 1.0004 1.0004 1.0004
3955.000000 1.0004 1.0004 1.0004 1.0004 1.0004
3950.000000 1.0004 1.0005 1.0005 1.0005 1.0005
3945.000000 1.0005 1.0005 1.0005 1.0005 1.0005
3940.000000 1.0005 1.0005 1.0005 1.0005 1.0005
3935.000000 1.0005 1.0005 1.0005 1.0005 1.0005
3930.000000 1.0004 1.0004 1.0004 1.0004 1.0004
3925.000000 1.0004 1.0004 1.0004 1.0004 1.0004
3920.000000 1.0004 1.0004 1.0004 1.0004 1.0004
3915.000000 1.0004 1.0004 1.0004 1.0004 1.0004
3910.000000 1.0004 1.0004 1.0004 1.0004 1.0003
3905.000000 1.0003 1.0003 1.0003 1.0003 1.0003
3900.000000 1.0003 1.0003 1.0003 1.0003 1.0003
3895.000000 1.0003 1.0003 1.0003 1.0003 1.0003
3890.000000 1.0003 1.0003 1.0003 1.0003 1.0003
3885.000000 1.0003 1.0003 1.0003 1.0003 1.0003
3880.000000 1.0003 1.0003 1.0003 1.0003 1.0003
3875.000000 1.0002 1.0002 1.0002 1.0001 1.0001
3870.000000 1.0001 1.0000 1.0000 1.0000 0.9999
3865.000000 0.9999 0.9999 0.9998 0.9998 0.9997
3860.000000 0.9997 0.9997 0.9996 0.9996 0.9996
3855.000000 0.9995 0.9995 0.9995 0.9994 0.9994
3850.000000 0.9994 0.9993 0.9993 0.9993 0.9992
3845.000000 0.9992 0.9992 0.9991 0.9991 0.9991
3840.000000 0.9990 0.9990 0.9990 0.9989 0.9989
3835.000000 0.9989 0.9988 0.9988 0.9988 0.9987
3830.000000 0.9987 0.9987 0.9986 0.9986 0.9986
3825.000000 0.9985 0.9985 0.9985 0.9984 0.9984
3820.000000 0.9984 0.9984 0.9984 0.9984 0.9983
3815.000000 0.9983 0.9983 0.9983 0.9983 0.9983
3810.000000 0.9982 0.9982 0.9982 0.9982 0.9982
3805.000000 0.9981 0.9981 0.9981 0.9980 0.9980
3800.000000 0.9978 0.9978 0.9978 0.9978 0.9978
3795.000000 0.9978 0.9978 0.9978 0.9978 0.9978
3790.000000 0.9978 0.9978 0.9978 0.9977 0.9977
3785.000000 0.9975 0.9975 0.9975 0.9974 0.9974
3780.000000 0.9973 0.9973 0.9971 0.9971 0.9971
3775.000000 0.9971 0.9970 0.9970 0.9968 0.9968
3770.000000 0.9968 0.9967 0.9967 0.9966 0.9965
3765.000000 0.9964 0.9964 0.9963 0.9963 0.9962
3760.000000 0.9962 0.9961 0.9960 0.9959 0.9958
3755.000000 0.9958 0.9957 0.9956 0.9955 0.9954
3750.000000 0.9953 0.9952 0.9951 0.9950 0.9950
3745.000000 0.9949 0.9948 0.9947 0.9946 0.9945
3740.000000 0.9944 0.9943 0.9942 0.9942 0.9941
3735.000000 0.9939 0.9938 0.9937 0.9936 0.9935
3730.000000 0.9934 0.9933 0.9932 0.9932 0.9931
3725.000000 0.9930 0.9928 0.9927 0.9925 0.9925
3720.000000 0.9924 0.9923 0.9921 0.9920 0.9918
3715.000000 0.9917 0.9915 0.9914 0.9913 0.9911
3710.000000 0.9910 0.9908 0.9907 0.9906 0.9904
3705.000000 0.9903 0.9902 0.9900 0.9899 0.9898
3700.000000 0.9896 0.9895 0.9893 0.9892 0.9890
3695.000000 0.9889 0.9887 0.9886 0.9884 0.9881
3690.000000 0.9878 0.9877 0.9874 0.9871 0.9868
3685.000000 0.9867 0.9865 0.9862 0.9860 0.9857
3680.000000 0.9855 0.9853 0.9850 0.9848 0.9845
3675.000000 0.9843 0.9841 0.9838 0.9836 0.9833
3670.000000 0.9830 0.9827 0.9824 0.9821 0.9818
3665.000000 0.9815 0.9812 0.9808 0.9804 0.9801
3660.000000 0.9797 0.9794 0.9790 0.9787 0.9783
3655.000000 0.9780 0.9775 0.9771 0.9768 0.9765
3650.000000 0.9762 0.9757 0.9752 0.9747 0.9741
3645.000000 0.9736 0.9731 0.9725 0.9720 0.9715
3640.000000 0.9710 0.9704 0.9699 0.9694 0.9689
3635.000000 0.9683 0.9678 0.9671 0.9665 0.9658
3630.000000 0.9652 0.9645 0.9638 0.9630 0.9623
3625.000000 0.9615 0.9608 0.9600 0.9591 0.9583
3620.000000 0.9574 0.9566 0.9557 0.9547 0.9536
3615.000000 0.9525 0.9515 0.9504 0.9494 0.9483
3610.000000 0.9471 0.9462 0.9451 0.9440 0.9428
3605.000000 0.9417 0.9405 0.9394 0.9380 0.9362
3600.000000 0.9344 0.9325 0.9307 0.9289 0.9268
3595.000000 0.9249 0.9228 0.9209 0.9188 0.9165
3590.000000 0.9141 0.9117 0.9093 0.9068 0.9044
3585.000000 0.9018 0.8994 0.8968 0.8943 0.8918
3580.000000 0.8895 0.8871 0.8847 0.8823 0.8801
3575.000000 0.8781 0.8762 0.8742 0.8723 0.8703
3570.000000 0.8682 0.8661 0.8640 0.8618 0.8597
3565.000000 0.8570 0.8543 0.8516 0.8489 0.8462
3560.000000 0.8435 0.8408 0.8382 0.8355 0.8328
3555.000000 0.8305 0.8282 0.8258 0.8234 0.8210
3550.000000 0.8186 0.8161 0.8138 0.8112 0.8088
3545.000000 0.8054 0.8019 0.7985 0.7951 0.7914
3540.000000 0.7842 0.7769 0.7698 0.7625 0.7558
3535.000000 0.7546 0.7533 0.7521 0.7508 0.7496
3530.000000 0.7483 0.7471 0.7458 0.7446 0.7433
3525.000000 0.7418 0.7403 0.7388 0.7374 0.7357
3520.000000 0.7332 0.7306 0.7281 0.7256 0.7218
3515.000000 0.7132 0.7044 0.6957 0.6868 0.6796
3510.000000 0.6765 0.6737 0.6708 0.6678 0.6649
3505.000000 0.6619 0.6591 0.6561 0.6532 0.6503
3500.000000 0.6472 0.6443 0.6414 0.6384 0.6355
3495.000000 0.6325 0.6296 0.6266 0.6237 0.6207
3490.000000 0.6177 0.6147 0.6118 0.6088 0.6058
3485.000000 0.6029 0.5999 0.5969 0.5940 0.5910
3480.000000 0.5880 0.5850 0.5821 0.5791 0.5760
3475.000000 0.5731 0.5701 0.5671 0.5641 0.5610
3470.000000 0.5581 0.5551 0.5521 0.5491 0.5460
3465.000000 0.5431 0.5401 0.5371 0.5341 0.5310
3460.000000 0.5281 0.5250 0.5220 0.5190 0.5160
3455.000000 0.5130 0.5099 0.5069 0.5039 0.5008
3450.000000 0.4978 0.4948 0.4917 0.4887 0.4857
3445.000000 0.4826 0.4796 0.4766 0.4735 0.4705
3440.000000 0.4674 0.4644 0.4612 0.4583 0.4552
3435.000000 0.4521 0.4490 0.4460 0.4429 0.4399
3430.000000 0.4368 0.4338 0.4307 0.4276 0.4246
3425.000000 0.4215 0.4184 0.4153 0.4122 0.4091
3420.000000 0.4059 0.4030 0.3999 0.3968 0.3937
3415.000000 0.3906 0.3875 0.3844 0.3812 0.3782
3410.000000 0.3750 0.3720 0.3689 0.3658 0.3627
3405.000000 0.3596 0.3564 0.3532 0.3502 0.3471
3400.000000 0.3440 0.3408 0.3377 0.3346 0.3314
3395.000000 0.3282 0.3252 0.3221 0.3189 0.3158
3390.000000 0.3127 0.3095 0.3064 0.3033 0.3001
3385.000000 0.2969 0.2938 0.2906 0.2875 0.2843
3380.000000 0.2812 0.2780 0.2749 0.2717 0.2684
3375.000000 0.2654 0.2622 0.2590 0.2558 0.2527
3370.000000 0.2495 0.2463 0.2431 0.2399 0.2368
3365.000000 0.2335 0.2304 0.2272 0.2240 0.2208
3360.000000 0.2176 0.2144 0.2112 0.2080 0.2048
3355.000000 0.2023 0.2001 0.1979 0.1958 0.1937
3350.000000 0.1923 0.1909 0.1894 0.1879 0.1854
3345.000000 0.1824 0.1794 0.1765 0.1733 0.1695
3340.000000 0.1658 0.1620 0.1583 0.1556 0.1532
3335.000000 0.1508 0.1484 0.1462 0.1446 0.1432
3330.000000 0.1417 0.1402 0.1373 0.1342 0.1313
3325.000000 0.1283 0.1258 0.1241 0.1223 0.1206
3320.000000 0.1189 0.1180 0.1170 0.1161 0.1152
3315.000000 0.1146 0.1145 0.1142 0.1141 0.1139
3310.000000 0.1137 0.1135 0.1133 0.1131 0.1129
3305.000000 0.1128 0.1127 0.1125 0.1124 0.1122
3300.000000 0.1121 0.1120 0.1118 0.1117 0.1116
3295.000000 0.1115 0.1114 0.1112 0.1109 0.1107
3290.000000 0.1105 0.1101 0.1096 0.1092 0.1088
3285.000000 0.1084 0.1079 0.1074 0.1068 0.1063
3280.000000 0.1060 0.1058 0.1055 0.1053 0.1051
3275.000000 0.1051 0.1050 0.1050 0.1049 0.1049
3270.000000 0.1049 0.1049 0.1049 0.1049 0.1050
3265.000000 0.1051 0.1052 0.1055 0.1058 0.1061
3260.000000 0.1070 0.1070 0.1071 0.1075 0.1078
3255.000000 0.1081 0.1084 0.1087 0.1090 0.1092
3250.000000 0.1098 0.1103 0.1108 0.1113 0.1118
3245.000000 0.1123 0.1128 0.1133 0.1138 0.1142
3240.000000 0.1148 0.1153 0.1158 0.1162 0.1166
3235.000000 0.1170 0.1174 0.1177 0.1181 0.1184
3230.000000 0.1187 0.1191 0.1195 0.1198 0.1202
3225.000000 0.1204 0.1206 0.1207 0.1209 0.1210
3220.000000 0.1211 0.1211 0.1212 0.1213 0.1213
3215.000000 0.1214 0.1214 0.1215 0.1215 0.1216
3210.000000 0.1216 0.1217 0.1217 0.1218 0.1218
3205.000000 0.1219 0.1219 0.1219 0.1219 0.1220
3200.000000 0.1220 0.1220 0.1220 0.1220 0.1220
3195.000000 0.1220 0.1220 0.1220 0.1221 0.1221
3190.000000 0.1221 0.1221 0.1220 0.1220 0.1219
3185.000000 0.1219 0.1218 0.1217 0.1216 0.1216
3180.000000 0.1215 0.1214 0.1213 0.1212 0.1211
3175.000000 0.1210 0.1210 0.1209 0.1208 0.1208
3170.000000 0.1207 0.1207 0.1206 0.1206 0.1205
3165.000000 0.1205 0.1204 0.1204 0.1203 0.1203
3160.000000 0.1203 0.1203 0.1204 0.1204 0.1205
3155.000000 0.1206 0.1207 0.1208 0.1209 0.1210
3150.000000 0.1211 0.1212 0.1213 0.1215 0.1216
3145.000000 0.1217 0.1220 0.1223 0.1227 0.1230
3140.000000 0.1235 0.1241 0.1246 0.1251 0.1256
3135.000000 0.1261 0.1267 0.1272 0.1277 0.1283
3130.000000 0.1289 0.1295 0.1302 0.1308 0.1315
3125.000000 0.1322 0.1328 0.1334 0.1341 0.1346
3120.000000 0.1354 0.1360 0.1366 0.1373 0.1382
3115.000000 0.1391 0.1400 0.1411 0.1424 0.1437
3110.000000 0.1449 0.1463 0.1476 0.1490 0.1504
3105.000000 0.1518 0.1532 0.1546 0.1560 0.1574
3100.000000 0.1588 0.1603 0.1617 0.1632 0.1645
3095.000000 0.1661 0.1676 0.1694 0.1714 0.1733
3090.000000 0.1752 0.1769 0.1785 0.1803 0.1820
3085.000000 0.1835 0.1852 0.1867 0.1883 0.1899
3080.000000 0.1915 0.1931 0.1945 0.1962 0.1977
3075.000000 0.1993 0.2009 0.2025 0.2041 0.2057
3070.000000 0.2072 0.2088 0.2104 0.2120 0.2135
3065.000000 0.2152 0.2168 0.2184 0.2200 0.2216
3060.000000 0.2232 0.2248 0.2264 0.2280 0.2296
3055.000000 0.2312 0.2328 0.2345 0.2360 0.2376
3050.000000 0.2392 0.2408 0.2424 0.2440 0.2456
3045.000000 0.2473 0.2489 0.2505 0.2521 0.2537
3040.000000 0.2554 0.2570 0.2585 0.2602 0.2619
3035.000000 0.2634 0.2651 0.2667 0.2684 0.2700
3030.000000 0.2716 0.2733 0.2749 0.2766 0.2782
3025.000000 0.2798 0.2815 0.2831 0.2847 0.2863
3020.000000 0.2880 0.2895 0.2911 0.2926 0.2942
3015.000000 0.2947 0.2947 0.2948 0.2949 0.2949
3010.000000 0.2949 0.2965 0.2929 0.2881 0.2833
3005.000000 0.2784 0.2732 0.2678 0.2625 0.2571
3000.000000 0.2517 0.2463 0.2409 0.2355 0.2301
2995.000000 0.2247 0.2193 0.2139 0.2084 0.2029
2990.000000 0.1976 0.1922 0.1868 0.1813 0.1759
2985.000000 0.1704 0.1650 0.1595 0.1541 0.1486
2980.000000 0.1432 0.1377 0.1322 0.1268 0.1213
2975.000000 0.1158 0.1103 0.1049 0.0999 0.0953
2970.000000 0.0907 0.0866 0.0866 0.0865 0.0864
2965.000000 0.0864 0.0865 0.0866 0.0868 0.0872
2960.000000 0.0876 0.0880 0.0884 0.0889 0.0893
2955.000000 0.0899 0.0905 0.0911 0.0917 0.0922
2950.000000 0.0930 0.0936 0.0942 0.0945 0.0947
2945.000000 0.0951 0.0953 0.0953 0.0953 0.0952
2940.000000 0.0947 0.0943 0.0939 0.0934 0.0928
2935.000000 0.0921 0.0915 0.0908 0.0901 0.0893
2930.000000 0.0888 0.0883 0.0839 0.0872 0.0868
2925.000000 0.0863 0.0859 0.0856 0.0854 0.0852
2920.000000 0.0851 0.0851 0.0851 0.0851 0.0854
2915.000000 0.0856 0.0859 0.0863 0.0867 0.0871
2910.000000 0.0876 0.0886 0.0893 0.0903 0.0912
2905.000000 0.0921 0.0930 0.0939 0.0949 0.0958
2900.000000 0.0968 0.0979 0.0989 0.1000 0.1011
2895.000000 0.1022 0.1034 0.1042 0.1050 0.1058
2890.000000 0.1064 0.1070 0.1075 0.1081 0.1085
2885.000000 0.1090 0.1094 0.1098 0.1100 0.1119
2880.000000 0.1105 0.1107 0.1108 0.1108 0.1109
2875.000000 0.1107 0.1105 0.1101 0.1096 0.1091
2870.000000 0.1085 0.1078 0.1072 0.1066 0.1060
2865.000000 0.1055 0.1049 0.1044 0.1039 0.1034
2860.000000 0.1030 0.1027 0.1025 0.1022 0.1021
2855.000000 0.1019 0.1017 0.1016 0.1016 0.1016
2850.000000 0.1016 0.1017 0.1018 0.1019 0.1021
2845.000000 0.1024 0.1027 0.1035 0.1044 0.1053
2840.000000 0.1062 0.1071 0.1080 0.1092 0.1108
2835.000000 0.1123 0.1139 0.1157 0.1175 0.1192
2830.000000 0.1211 0.1229 0.1246 0.1272 0.1296
2825.000000 0.1321 0.1358 0.1396 0.1436 0.1474
2820.000000 0.1513 0.1552 0.1590 0.1629 0.1668
2815.000000 0.1707 0.1745 0.1784 0.1824 0.1863
2810.000000 0.1902 0.1941 0.1979 0.2020 0.2059
2805.000000 0.2098 0.2137 0.2176 0.2216 0.2255
2800.000000 0.2294 0.2333 0.2373 0.2413 0.2452
2795.000000 0.2491 0.2531 0.2570 0.2610 0.2650
2790.000000 0.2690 0.2729 0.2769 0.2808 0.2841
2785.000000 0.2875 0.2908 0.2921 0.2933 0.2945
2780.000000 0.2953 0.2960 0.2967 0.2972 0.2977
2775.000000 0.2982 0.2987 0.2992 0.2997 0.3001
2770.000000 0.3005 0.3010 0.3013 0.3017 0.3020
2765.000000 0.3023 0.3026 0.3029 0.3031 0.3034
2760.000000 0.3035 0.3038 0.3041 0.3043 0.3045
2755.000000 0.3048 0.3050 0.3052 0.3055 0.3057
2750.000000 0.3059 0.3061 0.3063 0.3066 0.3072
2745.000000 0.3077 0.3083 0.3088 0.3094 0.3101
2740.000000 0.3113 0.3125 0.3138 0.3153 0.3169
2735.000000 0.3184 0.3206 0.3226 0.3247 0.3270
2730.000000 0.3293 0.3316 0.3339 0.3362 0.3388
2725.000000 0.3418 0.3448 0.3480 0.3518 0.3557
2720.000000 0.3593 0.3627 0.3660 0.3686 0.3698
2715.000000 0.3710 0.3723 0.3734 0.3747 0.3759
2710.000000 0.3771 0.3782 0.3799 0.3816 0.3834
2705.000000 0.3862 0.3898 0.3932 0.3968 0.4004
2700.000000 0.4040 0.4076 0.4112 0.4150 0.4178
2695.000000 0.4205 0.4232 0.4258 0.4285 0.4310
2690.000000 0.4328 0.4346 0.4362 0.4378 0.4394
2685.000000 0.4409 0.4424 0.4439 0.4455 0.4471
2680.000000 0.4488 0.4509 0.4533 0.4558 0.4577
2675.000000 0.4593 0.4609 0.4624 0.4638 0.4652
2670.000000 0.4666 0.4680 0.4695 0.4709 0.4723
2665.000000 0.4737 0.4751 0.4765 0.4779 0.4794
2660.000000 0.4808 0.4823 0.4837 0.4851 0.4865
2655.000000 0.4879 0.4893 0.4908 0.4923 0.4937
2650.000000 0.4951 0.4966 0.4980 0.4994 0.5008
2645.000000 0.5023 0.5038 0.5052 0.5067 0.5081
2640.000000 0.5095 0.5110 0.5125 0.5139 0.5154
2635.000000 0.5168 0.5183 0.5197 0.5210 0.5226
2630.000000 0.5241 0.5256 0.5270 0.5285 0.5299
2625.000000 0.5314 0.5328 0.5343 0.5358 0.5373
2620.000000 0.5387 0.5402 0.5417 0.5431 0.5446
2615.000000 0.5460 0.5475 0.5490 0.5505 0.5518
2610.000000 0.5531 0.5544 0.5557 0.5570 0.5583
2605.000000 0.5596 0.5609 0.5621 0.5633 0.5645
2600.000000 0.5657 0.5669 0.5682 0.5694 0.5706
2595.000000 0.5718 0.5731 0.5743 0.5756 0.5769
2590.000000 0.5782 0.5795 0.5808 0.5821 0.5835
2585.000000 0.5848 0.5860 0.5875 0.5888 0.5901
2580.000000 0.5914 0.5928 0.5941 0.5954 0.5967
2575.000000 0.5979 0.5991 0.6002 0.6014 0.6025
2570.000000 0.6036 0.6048 0.6059 0.6070 0.6082
2565.000000 0.6093 0.6105 0.6116 0.6128 0.6139
2560.000000 0.6151 0.6162 0.6174 0.6186 0.6197
2555.000000 0.6209 0.6221 0.6233 0.6245 0.6257
2550.000000 0.6269 0.6281 0.6293 0.6304 0.6316
2545.000000 0.6329 0.6341 0.6353 0.6365 0.6377
2540.000000 0.6389 0.6401 0.6411 0.6424 0.6436
2535.000000 0.6448 0.6460 0.6471 0.6483 0.6495
2530.000000 0.6507 0.6518 0.6530 0.6542 0.6554
2525.000000 0.6565 0.6578 0.6590 0.6601 0.6614
2520.000000 0.6625 0.6638 0.6650 0.6661 0.6674
2515.000000 0.6686 0.6699 0.6711 0.6725 0.6737
2510.000000 0.6750 0.6762 0.6775 0.6789 0.6801
2505.000000 0.6815 0.6831 0.6846 0.6861 0.6876
2500.000000 0.6893 0.6908 0.6924 0.6939 0.6955
2495.000000 0.6971 0.6987 0.7003 0.7018 0.7034
2490.000000 0.7050 0.7065 0.7081 0.7096 0.7111
2485.000000 0.7126 0.7142 0.7158 0.7172 0.7189
2480.000000 0.7204 0.7218 0.7235 0.7249 0.7261
2475.000000 0.7275 0.7287 0.7300 0.7312 0.7325
2470.000000 0.7338 0.7350 0.7361 0.7375 0.7388
2465.000000 0.7401 0.7412 0.7425 0.7439 0.7451
2460.000000 0.7462 0.7474 0.7486 0.7497 0.7507
2455.000000 0.7518 0.7530 0.7541 0.7551 0.7561
2450.000000 0.7574 0.7585 0.7596 0.7607 0.7618
2445.000000 0.7628 0.7640 0.7651 0.7661 0.7672
2440.000000 0.7684 0.7696 0.7707 0.7718 0.7728
2435.000000 0.7737 0.7747 0.7757 0.7767 0.7775
2430.000000 0.7786 0.7796 0.7806 0.7815 0.7825
2425.000000 0.7835 0.7845 0.7855 0.7865 0.7875
2420.000000 0.7885 0.7895 0.7904 0.7914 0.7924
2415.000000 0.7933 0.7942 0.7951 0.7958 0.7967
2410.000000 0.7975 0.7984 0.7993 0.8001 0.8010
2405.000000 0.8018 0.8025 0.8035 0.8043 0.8051
2400.000000 0.8061 0.8068 0.8078 0.8086 0.8095
2395.000000 0.8103 0.8111 0.8119 0.8128 0.8137
2390.000000 0.8145 0.8153 0.8161 0.8168 0.8176
2385.000000 0.8185 0.8193 0.8201 0.8209 0.8217
2380.000000 0.8225 0.8234 0.8242 0.8250 0.8258
2375.000000 0.8265 0.8271 0.8278 0.8285 0.8292
2370.000000 0.8299 0.8306 0.8313 0.8318 0.8325
2365.000000 0.8333 0.8340 0.8347 0.8354 0.8361
2360.000000 0.8367 0.8374 0.8381 0.8388 0.8394
2355.000000 0.8401 0.8408 0.8415 0.8421 0.8428
2350.000000 0.8434 0.8439 0.8443 0.8447 0.8451
2345.000000 0.8455 0.8459 0.8463 0.8467 0.8471
2340.000000 0.8475 0.8478 0.8482 0.8486 0.8490
2335.000000 0.8494 0.8498 0.8504 0.8510 0.8516
2330.000000 0.8521 0.8528 0.8534 0.8540 0.8546
2325.000000 0.8554 0.8564 0.8574 0.8584 0.8594
2320.000000 0.8604 0.8615 0.8624 0.8634 0.8644
2315.000000 0.8655 0.8665 0.8675 0.8686 0.8697
2310.000000 0.8707 0.8718 0.8728 0.8740 0.8750
2305.000000 0.8761 0.8771 0.8783 0.8794 0.8805
2300.000000 0.8816 0.8825 0.8837 0.8847 0.8857
2295.000000 0.8867 0.8875 0.8886 0.8896 0.8906
2290.000000 0.8916 0.8925 0.8937 0.8947 0.8958
2285.000000 0.8968 0.8980 0.8991 0.9002 0.9013
2280.000000 0.9024 0.9035 0.9045 0.9055 0.9064
2275.000000 0.9074 0.9083 0.9092 0.9101 0.9110
2270.000000 0.9118 0.9128 0.9137 0.9146 0.9152
2265.000000 0.9156 0.9161 0.9165 0.9168 0.9173
2260.000000 0.9177 0.9182 0.9186 0.9190 0.9194
2255.000000 0.9195 0.9196 0.9196 0.9195 0.9195
2250.000000 0.9194 0.9194 0.9193 0.9193 0.9193
2245.000000 0.9193 0.9194 0.9195 0.9197 0.9198
2240.000000 0.9199 0.9200 0.9201 0.9202 0.9203
2235.000000 0.9204 0.9206 0.9207 0.9209 0.9211
2230.000000 0.9214 0.9216 0.9218 0.9220 0.9221
2225.000000 0.9224 0.9225 0.9228 0.9231 0.9233
2220.000000 0.9235 0.9237 0.9239 0.9241 0.9243
2215.000000 0.9246 0.9248 0.9250 0.9252 0.9254
2210.000000 0.9256 0.9258 0.9260 0.9263 0.9264
2205.000000 0.9266 0.9268 0.9270 0.9271 0.9274
2200.000000 0.9275 0.9278 0.9280 0.9282 0.9284
2195.000000 0.9285 0.9287 0.9289 0.9292 0.9294
2190.000000 0.9296 0.9298 0.9299 0.9301 0.9302
2185.000000 0.9303 0.9304 0.9305 0.9307 0.9308
2180.000000 0.9309 0.9310 0.9312 0.9313 0.9314
2175.000000 0.9316 0.9317 0.9318 0.9320 0.9321
2170.000000 0.9323 0.9325 0.9327 0.9328 0.9330
2165.000000 0.9332 0.9335 0.9337 0.9339 0.9341
2160.000000 0.9343 0.9344 0.9346 0.9349 0.9351
2155.000000 0.9353 0.9354 0.9356 0.9358 0.9361
2150.000000 0.9363 0.9364 0.9366 0.9368 0.9370
2145.000000 0.9373 0.9375 0.9375 0.9378 0.9380
2140.000000 0.9382 0.9384 0.9385 0.9387 0.9389
2135.000000 0.9390 0.9392 0.9394 0.9395 0.9397
2130.000000 0.9399 0.9400 0.9402 0.9404 0.9405
2125.000000 0.9407 0.9409 0.9410 0.9412 0.9414
2120.000000 0.9416 0.9418 0.9420 0.9421 0.9423
2115.000000 0.9425 0.9425 0.9427 0.9427 0.9427
2110.000000 0.9427 0.9427 0.9427 0.9427 0.9428
2105.000000 0.9428 0.9428 0.9428 0.9428 0.9428
2100.000000 0.9428 0.9428 0.9428 0.9428 0.9428
2095.000000 0.9428 0.9428 0.9428 0.9430 0.9430
2090.000000 0.9430 0.9430 0.9430 0.9430 0.9430
2085.000000 0.9428 0.9428 0.9428 0.9428 0.9428
2080.000000 0.9428 0.9428 0.9428 0.9428 0.9427
2075.000000 0.9427 0.9427 0.9427 0.9425 0.9425
2070.000000 0.9425 0.9425 0.9425 0.9425 0.9424
2065.000000 0.9424 0.9424 0.9424 0.9424 0.9423
2060.000000 0.9423 0.9421 0.9421 0.9421 0.9421
2055.000000 0.9420 0.9418 0.9418 0.9417 0.9417
2050.000000 0.9416 0.9415 0.9415 0.9414 0.9413
2045.000000 0.9412 0.9411 0.9411 0.9410 0.9410
2040.000000 0.9409 0.9408 0.9407 0.9406 0.9406
2035.000000 0.9405 0.9404 0.9404 0.9403 0.9402
2030.000000 0.9401 0.9400 0.9400 0.9399 0.9399
2025.000000 0.9397 0.9396 0.9396 0.9395 0.9394
2020.000000 0.9394 0.9393 0.9392 0.9391 0.9390
2015.000000 0.9390 0.9389 0.9389 0.9388 0.9387
2010.000000 0.9384 0.9382 0.9380 0.9378 0.9375
2005.000000 0.9374 0.9371 0.9370 0.9367 0.9365
2000.000000 0.9364 0.9361 0.9359 0.9357 0.9354
1995.000000 0.9352 0.9350 0.9348 0.9345 0.9366
1990.000000 0.9341 0.9339 0.9337 0.9335 0.9333
