##TITLE=1-BUTEN-3-ONE
##JCAMP-DX=4.24
##DATA TYPE=INFRARED SPECTRUM
##CLASS=COBLENTZ III
##ORIGIN=DOW CHEMICAL COMPANY
##OWNER=COBLENTZ SOCIETY
Collection (C) 2018 copyright by the U.S. Secretary of Commerce
on behalf of the United States of America. All rights reserved.
##DATE=1962/09/25
##NAMES=3-buten-2-one
METHYL VINYL KETONE
##CAS REGISTRY NO=78-94-4
##MOLFORM=C4 H6 O
##SOURCE REFERENCE=COBLENTZ NO. 10189
##$NIST SOURCE=COBLENTZ
##$NIST IMAGE=cob10189
##SPECTROMETER/DATA SYSTEM=DOW KBr FOREPRISM-GRATING
##INSTRUMENT PARAMETERS=BLAZED AT 3.5, 12.0, 20.0 MICRON, CHANGED AT 5.0, 7.5, 14.9 MICRON
##STATE=SOLUTION (10% IN CCl4 FOR 3800-1340, 10% IN CS2 FOR 1340-400 CM^-^1)
##PATH LENGTH=0.011, 0.011 CM
$$SPECTRAL CONTAMINATION DUE TO CCl4 AROUND 1550, AND CS2 AROUND 855 CM^-^1
$$ SEE SPECTRUM NO. 8782 FOR "VAPOR" STATE
$$ SEE SPECTRUM NO. 2377 FOR "LIQUID (NEAT)" STATE
##SAMPLING PROCEDURE=TRANSMISSION
##RESOLUTION=4
##DATA PROCESSING=DIGITIZED BY NIST FROM HARD COPY (FROM TWO SEGMENTS)
##XUNITS=1/CM
##YUNITS=TRANSMITTANCE
##XFACTOR=1.000000
##YFACTOR=1
##DELTAX=0.853242
##FIRSTX=378.84
##LASTX=3796.93
##FIRSTY=0.713
##MAXX=3796.93
##MINX=378.84
##MAXY=1.061
##MINY=0.014
##NPOINTS=4007
##XYDATA=(X++(Y..Y))
378.840000 0.7130 0.7130 0.7120 0.7110 0.7110
383.106211 0.7110 0.7090 0.7090 0.7110 0.7110
387.372421 0.7110 0.7120 0.7120 0.7130 0.7130
391.638632 0.7150 0.7160 0.7170 0.7190 0.7200
395.904842 0.7210 0.7240 0.7250 0.7280 0.7330
400.171053 0.7360 0.7390 0.7500 0.7580 0.7670
404.437263 0.7780 0.7870 0.7950 0.8040 0.8120
408.703474 0.8200 0.8280 0.8360 0.8440 0.8510
412.969684 0.8580 0.8640 0.8710 0.8770 0.8830
417.235895 0.8890 0.8930 0.8980 0.9020 0.9060
421.502105 0.9090 0.9100 0.9110 0.9150 0.9170
425.768316 0.9180 0.9220 0.9230 0.9270 0.9300
430.034526 0.9310 0.9330 0.9340 0.9350 0.9370
434.300737 0.9390 0.9420 0.9430 0.9460 0.9470
438.566947 0.9470 0.9500 0.9510 0.9530 0.9540
442.833158 0.9550 0.9570 0.9570 0.9580 0.9590
447.099368 0.9590 0.9610 0.9620 0.9630 0.9650
451.365579 0.9650 0.9660 0.9660 0.9670 0.9670
455.631789 0.9670 0.9690 0.9690 0.9690 0.9690
459.898000 0.9670 0.9670 0.9660 0.9660 0.9660
464.164211 0.9650 0.9630 0.9620 0.9590 0.9580
468.430421 0.9550 0.9530 0.9490 0.9430 0.9410
472.696632 0.9340 0.9310 0.9260 0.9180 0.9090
476.962842 0.8980 0.8850 0.8680 0.8471 0.8221
481.229053 0.7900 0.7680 0.7290 0.6970 0.6401
485.495263 0.5981 0.5820 0.5820 0.5890 0.6119
489.761474 0.6290 0.6600 0.6890 0.7170 0.7450
494.027684 0.7709 0.7939 0.8119 0.8299 0.8420
498.293895 0.8560 0.8740 0.8860 0.8870 0.8940
502.560105 0.8980 0.9020 0.9050 0.9060 0.9090
506.826316 0.9100 0.9110 0.9110 0.9110 0.9110
511.092526 0.9100 0.9090 0.9090 0.9070 0.9060
515.358737 0.9050 0.9030 0.9010 0.9010 0.8990
519.624947 0.8990 0.8980 0.8980 0.8970 0.8940
523.891158 0.8910 0.8900 0.8890 0.8890 0.8900
528.157368 0.8910 0.8940 0.9030 0.9130 0.9150
532.423579 0.9220 0.9290 0.9330 0.9350 0.9410
536.689789 0.9430 0.9450 0.9500 0.9530 0.9550
540.956000 0.9580 0.9610 0.9630 0.9650 0.9660
545.222211 0.9670 0.9690 0.9690 0.9700 0.9710
549.488421 0.9730 0.9730 0.9740 0.9750 0.9750
553.754632 0.9750 0.9770 0.9770 0.9780 0.9780
558.020842 0.9780 0.9790 0.9790 0.9780 0.9780
562.287053 0.9780 0.9780 0.9780 0.9790 0.9790
566.553263 0.9790 0.9810 0.9810 0.9810 0.9820
570.819474 0.9820 0.9820 0.9820 0.9820 0.9820
575.085684 0.9810 0.9790 0.9790 0.9780 0.9780
579.351895 0.9770 0.9770 0.9750 0.9710 0.9700
583.618105 0.9690 0.9700 0.9750 0.9750 0.9740
587.884316 0.9670 0.9501 0.9331 0.9290 0.9190
592.150526 0.9100 0.8940 0.8780 0.8670 0.8510
596.416737 0.8440 0.8300 0.8270 0.8270 0.8300
600.682947 0.8420 0.8470 0.8540 0.8680 0.8860
604.949158 0.9020 0.9150 0.9329 0.9380 0.9470
609.215368 0.9550 0.9650 0.9710 0.9770 0.9780
613.481579 0.9820 0.9850 0.9870 0.9900 0.9910
617.747789 0.9910 0.9970 0.9980 1.0010 1.0020
622.014000 1.0020 1.0040 1.0040 1.0040 1.0040
626.280211 1.0040 1.0020 1.0010 1.0010 1.0000
630.546421 0.9970 0.9940 0.9940 0.9930 0.9910
634.812632 0.9890 0.9860 0.9830 0.9790 0.9770
639.078842 0.9730 0.9670 0.9630 0.9570 0.9540
643.345053 0.9470 0.9410 0.9370 0.9340 0.9290
647.611263 0.9230 0.9170 0.8951 0.8791 0.8681
651.877474 0.8630 0.8600 0.8590 0.8590 0.8590
656.143684 0.8580 0.8540 0.8500 0.8440 0.8390
660.409895 0.8300 0.8270 0.8200 0.8160 0.8150
664.676105 0.8140 0.8150 0.8180 0.8220 0.8260
668.942316 0.8300 0.8310 0.8320 0.8320 0.8310
673.208526 0.8310 0.8300 0.8280 0.8260 0.8240
677.474737 0.8240 0.8230 0.8200 0.8180 0.8160
681.740947 0.8160 0.8180 0.8200 0.8230 0.8260
686.007158 0.8300 0.8350 0.8430 0.8510 0.8620
690.273368 0.8680 0.8780 0.8890 0.8930 0.8990
694.539579 0.9050 0.9130 0.9190 0.9230 0.9300
698.805789 0.9370 0.9420 0.9470 0.9500 0.9540
703.072000 0.9570 0.9610 0.9630 0.9660 0.9670
707.338211 0.9700 0.9740 0.9750 0.9780 0.9790
711.604421 0.9810 0.9830 0.9850 0.9870 0.9890
715.870632 0.9910 0.9930 0.9940 0.9970 0.9970
720.136842 0.9980 0.9980 1.0000 1.0010 1.0020
724.403053 1.0020 1.0040 1.0040 1.0050 1.0050
728.669263 1.0060 1.0080 1.0080 1.0080 1.0080
732.935474 1.0080 1.0080 1.0060 1.0060 1.0060
737.201684 1.0050 1.0050 1.0040 1.0010 1.0010
741.467895 1.0010 1.0000 0.9980 0.9970 0.9930
745.734105 0.9890 0.9850 0.9820 0.9790 0.9740
750.000316 0.9650 0.9540 0.9530 0.9410 0.9350
754.266526 0.9310 0.9180 0.9030 0.8950 0.8930
758.532737 0.8950 0.9030 0.9150 0.9299 0.9340
762.798947 0.9530 0.9580 0.9650 0.9690 0.9700
767.065158 0.9710 0.9710 0.9670 0.9580 0.9500
771.331368 0.9410 0.9330 0.9260 0.9260 0.9300
775.597579 0.9380 0.9460 0.9540 0.9749 0.9860
779.863789 0.9940 1.0010 1.0010 1.0050 1.0050
784.130000 1.0060 1.0080 1.0080 1.0090 1.0090
788.396211 1.0100 1.0120 1.0120 1.0130 1.0130
792.662421 1.0130 1.0140 1.0140 1.0140 1.0140
796.928632 1.0140 1.0140 1.0140 1.0140 1.0140
801.194842 1.0160 1.0160 1.0140 1.0160 1.0160
805.461053 1.0140 1.0130 1.0130 1.0120 1.0120
809.727263 1.0120 1.0130 1.0130 1.0130 1.0130
813.993474 1.0120 1.0120 1.0130 1.0140 1.0140
818.259684 1.0140 1.0140 1.0140 1.0140 1.0140
822.525895 1.0140 1.0140 1.0130 1.0130 1.0130
826.792105 1.0130 1.0130 1.0120 1.0100 1.0080
831.058316 1.0060 1.0050 1.0010 1.0010 1.0000
835.324526 0.9970 0.9930 0.9890 0.9890 0.9850
839.590737 0.9780 0.9710 0.9630 0.9590 0.9540
843.856947 0.9410 0.9350 0.9310 0.9210 0.9140
848.123158 0.9030 0.8910 0.8790 0.8710 0.8680
852.389368 0.8620 0.8580 0.8560 0.8550 0.8550
856.655579 0.8550 0.8560 0.8580 0.8620 0.8660
860.921789 0.8670 0.8680 0.8720 0.8770 0.8790
865.188000 0.8830 0.8890 0.8910 0.8930 0.8980
869.454211 0.9020 0.9090 0.9100 0.9130 0.9140
873.720421 0.9180 0.9210 0.9230 0.9270 0.9310
877.986632 0.9340 0.9350 0.9370 0.9410 0.9430
882.252842 0.9460 0.9530 0.9540 0.9570 0.9610
886.519053 0.9630 0.9670 0.9690 0.9740 0.9770
890.785263 0.9780 0.9780 0.9790 0.9810 0.9820
895.051474 0.9830 0.9830 0.9850 0.9850 0.9860
899.317684 0.9860 0.9860 0.9850 0.9850 0.9850
903.583895 0.9830 0.9830 0.9820 0.9810 0.9790
907.850105 0.9790 0.9780 0.9770 0.9740 0.9730
912.116316 0.9700 0.9660 0.9630 0.9620 0.9590
916.382526 0.9550 0.9530 0.9500 0.9460 0.9390
920.648737 0.9330 0.9290 0.9220 0.9140 0.9060
924.914947 0.8930 0.8860 0.8710 0.8600 0.8560
929.181158 0.8301 0.7752 0.7401 0.7191 0.7051
933.447368 0.6890 0.6370 0.6130 0.5661 0.5241
937.713579 0.4771 0.4221 0.3522 0.3271 0.3041
941.979789 0.2870 0.2720 0.2600 0.2470 0.2330
946.246000 0.2190 0.2001 0.1761 0.1292 0.1101
950.512211 0.0900 0.0640 0.0460 0.0400 0.0380
954.778421 0.0400 0.0520 0.0729 0.0999 0.1129
959.044632 0.1370 0.1590 0.1690 0.1790 0.1800
963.310842 0.2010 0.2210 0.2429 0.2629 0.2799
967.577053 0.3070 0.3350 0.3830 0.4169 0.4310
971.843263 0.4410 0.4490 0.4500 0.4470 0.4271
976.109474 0.4150 0.3720 0.3540 0.3080 0.2441
980.375684 0.2001 0.1970 0.1990 0.2050 0.2189
984.641895 0.2330 0.2390 0.2400 0.2370 0.2290
988.908105 0.2071 0.1711 0.1640 0.1640 0.1720
993.174316 0.1930 0.2270 0.2590 0.2999 0.3629
997.440526 0.3680 0.4129 0.4778 0.5437 0.5918
1001.706737 0.6000 0.6080 0.6200 0.6360 0.6470
1005.972947 0.6550 0.6600 0.6600 0.6570 0.6490
1010.239158 0.6350 0.6310 0.6170 0.6080 0.5980
1014.505368 0.5860 0.5730 0.5491 0.5261 0.4902
1018.771579 0.4890 0.4900 0.5330 0.5560 0.5690
1023.037789 0.5930 0.6249 0.6559 0.6839 0.7119
1027.304000 0.7360 0.7580 0.7740 0.7920 0.7990
1031.570211 0.8080 0.8140 0.8220 0.8280 0.8320
1035.836421 0.8350 0.8360 0.8380 0.8380 0.8360
1040.102632 0.8350 0.8340 0.8340 0.8320 0.8310
1044.368842 0.8240 0.8220 0.8150 0.8110 0.8020
1048.635053 0.7870 0.7780 0.7680 0.7640 0.7590
1052.901263 0.7590 0.7640 0.7680 0.7740 0.7780
1057.167474 0.7790 0.7800 0.7780 0.7740 0.7710
1061.433684 0.7700 0.7700 0.7710 0.7720 0.7760
1065.699895 0.7790 0.7900 0.8000 0.8110 0.8259
1069.966105 0.8430 0.8590 0.8740 0.8810 0.8910
1074.232316 0.8950 0.9050 0.9110 0.9140 0.9150
1078.498526 0.9220 0.9260 0.9270 0.9290 0.9300
1082.764737 0.9300 0.9310 0.9330 0.9330 0.9340
1087.030947 0.9340 0.9340 0.9350 0.9350 0.9350
1091.297158 0.9380 0.9380 0.9390 0.9390 0.9390
1095.563368 0.9390 0.9390 0.9380 0.9380 0.9380
1099.829579 0.9380 0.9370 0.9370 0.9350 0.9340
1104.095789 0.9340 0.9330 0.9330 0.9340 0.9350
1108.362000 0.9350 0.9380 0.9390 0.9410 0.9420
1112.628211 0.9430 0.9450 0.9460 0.9470 0.9490
1116.894421 0.9500 0.9510 0.9530 0.9530 0.9540
1121.160632 0.9540 0.9540 0.9540 0.9540 0.9550
1125.426842 0.9550 0.9550 0.9550 0.9550 0.9550
1129.693053 0.9550 0.9540 0.9540 0.9540 0.9530
1133.959263 0.9510 0.9510 0.9500 0.9500 0.9490
1138.225474 0.9490 0.9470 0.9450 0.9430 0.9420
1142.491684 0.9410 0.9390 0.9380 0.9370 0.9350
1146.757895 0.9330 0.9310 0.9290 0.9250 0.9190
1151.024105 0.9180 0.9110 0.9020 0.8980 0.8910
1155.290316 0.8820 0.8720 0.8700 0.8600 0.8550
1159.556526 0.8440 0.8340 0.8270 0.8150 0.8120
1163.822737 0.8020 0.7920 0.7760 0.7600 0.7400
1168.088947 0.7151 0.6791 0.6312 0.5743 0.5143
1172.355158 0.4540 0.3980 0.3710 0.2681 0.2161
1176.621368 0.1641 0.1441 0.1131 0.1020 0.0901
1180.887579 0.0880 0.1320 0.1730 0.2160 0.2589
1185.153789 0.3019 0.3599 0.3869 0.4348 0.5087
1189.420000 0.5620 0.6060 0.6649 0.6750 0.7109
1193.686211 0.7309 0.7430 0.7500 0.7590 0.7739
1197.952421 0.7780 0.7910 0.8040 0.8140 0.8230
1202.218632 0.8280 0.8340 0.8360 0.8480 0.8510
1206.484842 0.8540 0.8590 0.8620 0.8630 0.8630
1210.751053 0.8600 0.8550 0.8500 0.8420 0.8350
1215.017263 0.8310 0.8190 0.8100 0.7960 0.7910
1219.283474 0.7790 0.7780 0.7780 0.7780 0.7780
1223.549684 0.7780 0.7760 0.7750 0.7680 0.7660
1227.815895 0.7660 0.7620 0.7500 0.7371 0.7161
1232.082105 0.6910 0.6680 0.6590 0.6360 0.6120
1236.348316 0.5502 0.5121 0.4791 0.3854 0.3243
1240.614526 0.2580 0.2230 0.1910 0.1530 0.1121
1244.880737 0.0980 0.0930 0.0860 0.0760 0.0541
1249.146947 0.0520 0.0520 0.0530 0.0600 0.0660
1253.413158 0.0810 0.1119 0.1279 0.2007 0.2547
1257.679368 0.2880 0.3000 0.3540 0.4089 0.4509
1261.945579 0.5298 0.5559 0.5779 0.6099 0.6309
1266.211789 0.6450 0.6570 0.6610 0.6690 0.6840
1270.478000 0.6930 0.7040 0.7080 0.7110 0.7120
1274.744211 0.7110 0.7080 0.7010 0.6970 0.6930
1279.010421 0.6910 0.6731 0.6600 0.6570 0.6560
1283.276632 0.6570 0.6630 0.6670 0.6770 0.6910
1287.542842 0.6930 0.7040 0.7090 0.7170 0.7190
1291.809053 0.7200 0.7190 0.7160 0.7150 0.7160
1296.075263 0.7240 0.7370 0.7440 0.7599 0.7839
1300.341474 0.8040 0.8160 0.8280 0.8320 0.8380
1304.607684 0.8420 0.8510 0.8580 0.8600 0.8630
1308.873895 0.8670 0.8700 0.8720 0.8740 0.8750
1313.140105 0.8770 0.8780 0.8780 0.8780 0.8780
1317.406316 0.8770 0.8770 0.8750 0.8720 0.8700
1321.672526 0.8680 0.8660 0.8630 0.8590 0.8550
1325.938737 0.8500 0.8420 0.8380 0.8350 0.8310
1330.204947 0.8240 0.8140 0.8110 0.8030 0.7940
1334.471158 0.7820 0.7700 0.7600 0.7500 0.7400
1338.737368 0.7280 0.7250 0.7160 0.6931 0.6791
1343.003579 0.6730 0.6640 0.6400 0.6010 0.5651
1347.269789 0.5321 0.5001 0.4671 0.3833 0.3203
1351.536000 0.2760 0.2440 0.2200 0.1990 0.1760
1355.802211 0.1521 0.1281 0.1240 0.1160 0.1090
1360.068421 0.1020 0.0940 0.0660 0.0380 0.0370
1364.334632 0.0380 0.0440 0.0520 0.0570 0.0699
1368.600842 0.1360 0.1770 0.2130 0.2449 0.2560
1372.867053 0.2909 0.3179 0.3349 0.3539 0.3749
1377.133263 0.3910 0.4020 0.4130 0.4350 0.4510
1381.399474 0.4580 0.4610 0.4620 0.4610 0.4590
1385.665684 0.4570 0.4550 0.4540 0.4420 0.4101
1389.931895 0.3861 0.3681 0.3521 0.3381 0.3181
1394.198105 0.2620 0.2240 0.1990 0.1760 0.1491
1398.464316 0.1091 0.0921 0.0731 0.0501 0.0400
1402.730526 0.0380 0.0410 0.0460 0.0520 0.0610
1406.996737 0.0690 0.0800 0.0880 0.1089 0.1329
1411.262947 0.1550 0.1650 0.1890 0.2080 0.2280
1415.529158 0.2440 0.2540 0.2640 0.2710 0.2750
1419.795368 0.2750 0.2760 0.2760 0.2780 0.2790
1424.061579 0.2800 0.2820 0.2830 0.2870 0.2920
1428.327789 0.2940 0.3030 0.3140 0.3230 0.3270
1432.594000 0.3350 0.3460 0.3540 0.3630 0.3779
1436.860211 0.3890 0.4020 0.4110 0.4380 0.4550
1441.126421 0.4730 0.4820 0.5089 0.5299 0.5489
1445.392632 0.5690 0.5860 0.6040 0.6170 0.6360
1449.658842 0.6520 0.6680 0.6850 0.6960 0.7050
1453.925053 0.7160 0.7290 0.7400 0.7450 0.7510
1458.191263 0.7560 0.7630 0.7720 0.7800 0.7909
1462.457474 0.7950 0.8020 0.8110 0.8140 0.8160
1466.723684 0.8230 0.8270 0.8300 0.8350 0.8390
1470.989895 0.8420 0.8480 0.8500 0.8500 0.8500
1475.256105 0.8500 0.8510 0.8520 0.8540 0.8560
1479.522316 0.8580 0.8600 0.8600 0.8620 0.8620
1483.788526 0.8620 0.8600 0.8600 0.8600 0.8590
1488.054737 0.8590 0.8540 0.8500 0.8440 0.8380
1492.320947 0.8350 0.8350 0.8340 0.8340 0.8340
1496.587158 0.8320 0.8310 0.8220 0.8190 0.8150
1500.853368 0.8120 0.8120 0.8110 0.8080 0.8060
1505.119579 0.8020 0.7950 0.7760 0.7640 0.7560
1509.385789 0.7520 0.7510 0.7480 0.7440 0.7410
1513.652000 0.7290 0.7280 0.7240 0.7190 0.7160
1517.918211 0.7080 0.7040 0.6960 0.6811 0.6770
1522.184421 0.6730 0.6720 0.6690 0.6680 0.6670
1526.450632 0.6650 0.6640 0.6630 0.6600 0.6590
1530.716842 0.6530 0.6450 0.6390 0.6310 0.6140
1534.983053 0.6020 0.5970 0.5900 0.5860 0.5770
1539.249263 0.5600 0.5340 0.5200 0.5080 0.5010
1543.515474 0.4910 0.4890 0.4790 0.4770 0.4730
1547.781684 0.4690 0.4670 0.4660 0.4650 0.4650
1552.047895 0.4650 0.4660 0.4690 0.4710 0.4740
1556.314105 0.4770 0.4790 0.4850 0.4870 0.4980
1560.580316 0.5060 0.5200 0.5290 0.5370 0.5479
1564.846526 0.5600 0.5700 0.5770 0.5860 0.5900
1569.112737 0.6000 0.6090 0.6140 0.6210 0.6270
1573.378947 0.6350 0.6440 0.6450 0.6450 0.6450
1577.645158 0.6470 0.6480 0.6530 0.6550 0.6560
1581.911368 0.6590 0.6590 0.6590 0.6590 0.6590
1586.177579 0.6600 0.6610 0.6630 0.6650 0.6650
1590.443789 0.6670 0.6690 0.6710 0.6710 0.6720
1594.710000 0.6720 0.6730 0.6760 0.6790 0.6800
1598.976211 0.6810 0.6840 0.6950 0.6990 0.7010
1603.242421 0.7030 0.7000 0.6920 0.6771 0.6720
1607.508632 0.6610 0.6210 0.5851 0.5161 0.4382
1611.774842 0.3991 0.3562 0.3142 0.2712 0.2282
1616.041053 0.1850 0.1430 0.1000 0.0980 0.1000
1620.307263 0.1309 0.1599 0.1889 0.2159 0.2518
1624.573474 0.3460 0.4010 0.4250 0.5059 0.5419
1628.839684 0.5540 0.6118 0.6309 0.6440 0.6520
1633.105895 0.6600 0.6640 0.6710 0.6750 0.6790
1637.372105 0.6840 0.6920 0.6950 0.6970 0.7010
1641.638316 0.7050 0.7050 0.7000 0.6920 0.6910
1645.904526 0.6830 0.6720 0.6600 0.6530 0.6510
1650.170737 0.6520 0.6550 0.6560 0.6570 0.6570
1654.436947 0.6570 0.6570 0.6550 0.6530 0.6510
1658.703158 0.6470 0.6350 0.6180 0.5801 0.5730
1662.969368 0.5610 0.5450 0.5201 0.5021 0.4821
1667.235579 0.4650 0.4540 0.4070 0.3620 0.3181
1671.501789 0.2781 0.2401 0.2051 0.1771 0.1551
1675.768000 0.1390 0.1090 0.0780 0.0480 0.0340
1680.034211 0.0320 0.0180 0.0160 0.0140 0.0140
1684.300421 0.0160 0.0240 0.0340 0.0340 0.0170
1688.566632 0.0160 0.0140 0.0140 0.0160 0.0170
1692.832842 0.0200 0.0290 0.0370 0.0440 0.0520
1697.099053 0.0809 0.0840 0.0850 0.0840 0.0800
1701.365263 0.0580 0.0490 0.0400 0.0370 0.0290
1705.631474 0.0280 0.0280 0.0290 0.0290 0.0300
1709.897684 0.0330 0.0420 0.1319 0.1589 0.1790
1714.163895 0.1969 0.2159 0.2548 0.2819 0.3029
1718.430105 0.3190 0.3350 0.3520 0.3909 0.4209
1722.696316 0.4390 0.4649 0.4819 0.4999 0.5179
1726.962526 0.5340 0.5460 0.5570 0.5660 0.5730
1731.228737 0.5800 0.5850 0.5920 0.5970 0.6040
1735.494947 0.6100 0.6200 0.6290 0.6370 0.6410
1739.761158 0.6609 0.6809 0.6969 0.7000 0.7090
1744.027368 0.7230 0.7270 0.7430 0.7580 0.7680
1748.293579 0.7840 0.7950 0.8100 0.8239 0.8399
1752.559789 0.8480 0.8590 0.8710 0.8780 0.8830
1756.826000 0.8930 0.9010 0.9090 0.9130 0.9170
1761.092211 0.9220 0.9270 0.9310 0.9340 0.9380
1765.358421 0.9420 0.9430 0.9450 0.9470 0.9490
1769.624632 0.9500 0.9510 0.9530 0.9540 0.9580
1773.890842 0.9610 0.9650 0.9690 0.9700 0.9710
1778.157053 0.9740 0.9750 0.9770 0.9780 0.9790
1782.423263 0.9810 0.9820 0.9820 0.9820 0.9830
1786.689474 0.9850 0.9860 0.9890 0.9890 0.9850
1790.955684 0.9830 0.9830 0.9870 0.9900 0.9900
1795.221895 0.9910 0.9910 0.9910 0.9910 0.9910
1799.488105 0.9930 0.9940 0.9950 0.9980 1.0000
1803.754316 1.0000 1.0000 1.0000 0.9980 0.9970
1808.020526 0.9970 0.9950 0.9950 0.9970 0.9980
1812.286737 0.9980 1.0010 1.0010 1.0020 1.0020
1816.552947 1.0040 1.0040 1.0050 1.0060 1.0060
1820.819158 1.0080 1.0080 1.0080 1.0090 1.0090
1825.085368 1.0090 1.0100 1.0100 1.0100 1.0100
1829.351579 1.0120 1.0120 1.0130 1.0140 1.0140
1833.617789 1.0160 1.0160 1.0170 1.0170 1.0180
1837.884000 1.0180 1.0180 1.0160 1.0160 1.0140
1842.150211 1.0130 1.0090 1.0090 1.0120 1.0130
1846.416421 1.0140 1.0140 1.0140 1.0140 1.0140
1850.682632 1.0140 1.0140 1.0140 1.0140 1.0160
1854.948842 1.0160 1.0160 1.0160 1.0170 1.0170
1859.215053 1.0170 1.0170 1.0170 1.0180 1.0180
1863.481263 1.0180 1.0200 1.0200 1.0200 1.0180
1867.747474 1.0180 1.0170 1.0170 1.0170 1.0170
1872.013684 1.0170 1.0170 1.0170 1.0160 1.0160
1876.279895 1.0140 1.0140 1.0140 1.0120 1.0100
1880.546105 1.0100 1.0100 1.0090 1.0080 1.0080
1884.812316 1.0060 1.0060 1.0040 1.0040 1.0020
1889.078526 1.0020 1.0010 1.0010 1.0000 1.0000
1893.344737 1.0000 0.9980 0.9970 0.9950 0.9940
1897.610947 0.9900 0.9890 0.9860 0.9830 0.9780
1901.877158 0.9750 0.9710 0.9670 0.9630 0.9570
1906.143368 0.9540 0.9490 0.9450 0.9420 0.9290
1910.409579 0.9250 0.9210 0.9180 0.9170 0.9170
1914.675789 0.9180 0.9190 0.9210 0.9210 0.9230
1918.942000 0.9250 0.9260 0.9310 0.9340 0.9350
1923.208211 0.9390 0.9410 0.9430 0.9450 0.9470
1927.474421 0.9500 0.9510 0.9530 0.9540 0.9550
1931.740632 0.9550 0.9540 0.9530 0.9530 0.9540
1936.006842 0.9540 0.9550 0.9570 0.9570 0.9590
1940.273053 0.9620 0.9630 0.9650 0.9650 0.9650
1944.539263 0.9650 0.9660 0.9660 0.9660 0.9660
1948.805474 0.9670 0.9670 0.9730 0.9750 0.9780
1953.071684 0.9790 0.9790 0.9790 0.9790 0.9820
1957.337895 0.9820 0.9850 0.9890 0.9900 0.9910
1961.604105 0.9950 0.9970 0.9970 0.9970 0.9970
1965.870316 0.9970 0.9970 0.9950 0.9950 0.9950
1970.136526 0.9950 0.9950 0.9940 0.9940 0.9930
1974.402737 0.9930 0.9910 0.9900 0.9900 0.9890
1978.668947 0.9870 0.9870 0.9860 0.9830 0.9820
1982.935158 0.9820 0.9810 0.9810 0.9790 0.9790
1987.201368 0.9780 0.9780 0.9780 0.9780 0.9770
1991.467579 0.9770 0.9770 0.9770 0.9750 0.9740
1995.733789 0.9740 0.9730 0.9710 0.9710 0.9710
2000.000000 0.9730 0.9885 1.0040 1.0090 1.0140
2004.266211 1.0175 1.0210 1.0235 1.0260 1.0300
2008.532421 1.0340 1.0355 1.0370 1.0385 1.0400
2012.798632 1.0400 1.0400 1.0405 1.0410 1.0415
2017.064842 1.0420 1.0430 1.0440 1.0445 1.0450
2021.331053 1.0455 1.0460 1.0470 1.0480 1.0490
2025.597263 1.0500 1.0510 1.0520 1.0525 1.0530
2029.863474 1.0535 1.0540 1.0550 1.0560 1.0565
2034.129684 1.0570 1.0570 1.0570 1.0570 1.0570
2038.395895 1.0555 1.0540 1.0530 1.0520 1.0510
2042.662105 1.0500 1.0500 1.0500 1.0500 1.0500
2046.928316 1.0500 1.0500 1.0500 1.0500 1.0510
2051.194526 1.0520 1.0520 1.0520 1.0520 1.0520
2055.460737 1.0525 1.0530 1.0535 1.0540 1.0540
2059.726947 1.0540 1.0540 1.0540 1.0550 1.0560
2063.993158 1.0560 1.0560 1.0560 1.0560 1.0560
2068.259368 1.0560 1.0565 1.0570 1.0570 1.0570
2072.525579 1.0570 1.0570 1.0570 1.0570 1.0575
2076.791789 1.0580 1.0590 1.0600 1.0605 1.0610
2081.058000 1.0610 1.0610 1.0610 1.0610 1.0610
2085.324211 1.0610 1.0610 1.0610 1.0605 1.0600
2089.590421 1.0600 1.0600 1.0600 1.0600 1.0600
