##TITLE=Ethane, 1,1,2-trichloro-
##JCAMP-DX=4.24
##DATA TYPE=INFRARED SPECTRUM
##CLASS=COBLENTZ
##ORIGIN=DOW CHEMICAL COMPANY
##OWNER=Copyright (C) 1987 by the Coblentz Society
Collection (C) 2018 copyright by the U.S. Secretary of Commerce
on behalf of the United States of America. All rights reserved.
##DATE=1964
##NAMES=1,1,2-trichloroethane
##CAS REGISTRY NO=79-00-5
##MOLFORM=C2 H3 Cl3
##SOURCE REFERENCE=COBLENTZ NO. 8852
##$NIST SOURCE=COBLENTZ
##$NIST IMAGE=cob8852
##SPECTROMETER/DATA SYSTEM=DOW KBr FOREPRISM-GRATING
##INSTRUMENT PARAMETERS=GRATING CHANGED AT 5.0, 7.5, 15.0 MICRON
##STATE=GAS (15 mmHg, N2 ADDED, TOTAL PRESSURE 600 mmHg)
##PATH LENGTH=5 CM
##SAMPLING PROCEDURE=TRANSMISSION
##RESOLUTION=2
##DATA PROCESSING=DIGITIZED BY COBLENTZ SOCIETY (BATCH II) FROM HARD COPY
##XUNITS=1/CM
##YUNITS=TRANSMITTANCE
##XFACTOR=1.0
##YFACTOR=1
##FIRSTX=460
##LASTX=3798
##FIRSTY=0.8588
##MAXX=3798
##MINX=460
##MAXY=0.8886
##MINY=0.1929
##NPOINTS=3339
##XYDATA=(X++(Y..Y))
460.000000 0.8588 0.8591 0.8589 0.8587 0.8585
465.000000 0.8582 0.8580 0.8577 0.8574 0.8571
470.000000 0.8568 0.8564 0.8561 0.8558 0.8555
475.000000 0.8554 0.8552 0.8551 0.8549 0.8547
480.000000 0.8546 0.8544 0.8542 0.8541 0.8539
485.000000 0.8538 0.8536 0.8535 0.8534 0.8533
490.000000 0.8531 0.8530 0.8529 0.8528 0.8527
495.000000 0.8525 0.8524 0.8523 0.8522 0.8517
500.000000 0.8513 0.8508 0.8504 0.8500 0.8495
505.000000 0.8491 0.8486 0.8482 0.8478 0.8473
510.000000 0.8469 0.8464 0.8460 0.8455 0.8446
515.000000 0.8438 0.8429 0.8421 0.8412 0.8404
520.000000 0.8395 0.8387 0.8382 0.8376 0.8371
525.000000 0.8365 0.8363 0.8363 0.8362 0.8362
530.000000 0.8361 0.8360 0.8361 0.8363 0.8366
535.000000 0.8368 0.8370 0.8372 0.8374 0.8376
540.000000 0.8383 0.8390 0.8397 0.8404 0.8411
545.000000 0.8418 0.8425 0.8433 0.8440 0.8447
550.000000 0.8453 0.8460 0.8466 0.8473 0.8479
555.000000 0.8486 0.8492 0.8499 0.8505 0.8512
560.000000 0.8514 0.8516 0.8518 0.8521 0.8523
565.000000 0.8525 0.8527 0.8530 0.8532 0.8534
570.000000 0.8536 0.8539 0.8540 0.8542 0.8544
575.000000 0.8546 0.8547 0.8549 0.8551 0.8552
580.000000 0.8554 0.8547 0.8557 0.8559 0.8561
585.000000 0.8563 0.8564 0.8566 0.8567 0.8568
590.000000 0.8569 0.8570 0.8570 0.8571 0.8572
595.000000 0.8573 0.8574 0.8575 0.8576 0.8576
600.000000 0.8577 0.8578 0.8580 0.8582 0.8584
605.000000 0.8586 0.8588 0.8590 0.8592 0.8594
610.000000 0.8596 0.8598 0.8601 0.8603 0.8605
615.000000 0.8608 0.8610 0.8613 0.8615 0.8617
620.000000 0.8615 0.8613 0.8612 0.8610 0.8608
625.000000 0.8606 0.8605 0.8603 0.8601 0.8599
630.000000 0.8598 0.8596 0.8594 0.8586 0.8577
635.000000 0.8569 0.8560 0.8551 0.8543 0.8534
640.000000 0.8525 0.8516 0.8508 0.8499 0.8486
645.000000 0.8465 0.8444 0.8423 0.8402 0.8381
650.000000 0.8361 0.8336 0.8304 0.8272 0.8240
655.000000 0.8208 0.8177 0.8145 0.8098 0.8038
660.000000 0.7978 0.7919 0.7859 0.7774 0.7681
665.000000 0.7588 0.7482 0.7353 0.7224 0.7077
670.000000 0.6913 0.6719 0.6537 0.6460 0.6472
675.000000 0.6459 0.6549 0.6607 0.6634 0.6650
680.000000 0.6638 0.6597 0.6118 0.6147 0.6264
685.000000 0.6558 0.6851 0.7132 0.7414 0.7555
690.000000 0.7656 0.7739 0.7823 0.7927 0.8043
695.000000 0.8135 0.8218 0.8293 0.8330 0.8368
700.000000 0.8404 0.8422 0.8456 0.8429 0.8421
705.000000 0.8413 0.8398 0.8383 0.8366 0.8345
710.000000 0.8324 0.8301 0.8278 0.8254 0.8233
715.000000 0.8213 0.8189 0.8165 0.8140 0.8115
720.000000 0.8077 0.8017 0.7957 0.7895 0.7833
725.000000 0.7771 0.7669 0.7519 0.7346 0.7044
730.000000 0.6437 0.5932 0.5399 0.4866 0.4333
735.000000 0.3800 0.3105 0.2931 0.2585 0.2329
740.000000 0.2132 0.1996 0.1951 0.1934 0.1929
745.000000 0.1942 0.1957 0.1973 0.1999 0.2035
750.000000 0.2086 0.2659 0.3246 0.3834 0.4422
755.000000 0.5009 0.5597 0.6184 0.6772 0.7359
760.000000 0.7914 0.8100 0.8192 0.8214 0.8231
765.000000 0.8236 0.8235 0.8221 0.8222 0.8209
770.000000 0.8196 0.8184 0.8167 0.8149 0.8115
775.000000 0.8080 0.8043 0.8006 0.7969 0.7932
780.000000 0.7866 0.7765 0.7658 0.7551 0.7445
785.000000 0.7340 0.7262 0.7183 0.7099 0.7027
790.000000 0.6986 0.6984 0.7125 0.7298 0.7472
795.000000 0.7610 0.7623 0.7512 0.7319 0.7178
800.000000 0.7205 0.7357 0.7516 0.7675 0.7757
805.000000 0.7924 0.8111 0.8215 0.8303 0.8363
810.000000 0.8421 0.8467 0.8507 0.8536 0.8561
815.000000 0.8575 0.8587 0.8596 0.8605 0.8611
820.000000 0.8616 0.8622 0.8627 0.8633 0.8636
825.000000 0.8635 0.8634 0.8633 0.8632 0.8631
830.000000 0.8630 0.8629 0.8628 0.8627 0.8626
835.000000 0.8625 0.8625 0.8624 0.8624 0.8624
840.000000 0.8623 0.8623 0.8623 0.8622 0.8622
845.000000 0.8622 0.8621 0.8621 0.8621 0.8621
850.000000 0.8621 0.8621 0.8624 0.8629 0.8633
855.000000 0.8639 0.8644 0.8650 0.8655 0.8660
860.000000 0.8665 0.8670 0.8679 0.8685 0.8687
865.000000 0.8690 0.8693 0.8695 0.8698 0.8698
870.000000 0.8698 0.8697 0.8696 0.8695 0.8692
875.000000 0.8689 0.8685 0.8682 0.8679 0.8675
880.000000 0.8672 0.8668 0.8665 0.8662 0.8658
885.000000 0.8655 0.8652 0.8649 0.8646 0.8643
890.000000 0.8640 0.8637 0.8634 0.8631 0.8628
895.000000 0.8625 0.8622 0.8619 0.8616 0.8612
900.000000 0.8609 0.8605 0.8602 0.8598 0.8595
905.000000 0.8591 0.8588 0.8583 0.8578 0.8572
910.000000 0.8567 0.8552 0.8522 0.8493 0.8463
915.000000 0.8427 0.8383 0.8339 0.8296 0.8252
920.000000 0.8167 0.8081 0.7995 0.7895 0.7792
925.000000 0.7687 0.7509 0.7377 0.7278 0.7179
930.000000 0.7080 0.6981 0.6882 0.6724 0.6729
935.000000 0.6759 0.6850 0.6940 0.7031 0.7113
940.000000 0.7130 0.6765 0.6500 0.6461 0.6733
945.000000 0.7000 0.7302 0.7404 0.7514 0.7598
950.000000 0.7658 0.7714 0.7769 0.7851 0.7955
955.000000 0.8086 0.8238 0.8368 0.8473 0.8518
960.000000 0.8556 0.8594 0.8617 0.8628 0.8638
965.000000 0.8649 0.8659 0.8665 0.8669 0.8673
970.000000 0.8677 0.8697 0.8685 0.8688 0.8690
975.000000 0.8693 0.8695 0.8698 0.8700 0.8703
980.000000 0.8705 0.8707 0.8709 0.8711 0.8713
985.000000 0.8715 0.8717 0.8719 0.8720 0.8720
990.000000 0.8720 0.8719 0.8719 0.8719 0.8718
995.000000 0.8718 0.8718 0.8717 0.8717 0.8717
1000.000000 0.8718 0.8719 0.8720 0.8721 0.8722
1005.000000 0.8723 0.8724 0.8725 0.8726 0.8727
1010.000000 0.8727 0.8728 0.8733 0.8738 0.8743
1015.000000 0.8748 0.8753 0.8758 0.8763 0.8768
1020.000000 0.8773 0.8778 0.8783 0.8785 0.8787
1025.000000 0.8788 0.8790 0.8786 0.8779 0.8771
1030.000000 0.8763 0.8755 0.8747 0.8736 0.8723
1035.000000 0.8710 0.8697 0.8684 0.8671 0.8658
1040.000000 0.8647 0.8635 0.8624 0.8612 0.8601
1045.000000 0.8589 0.8580 0.8573 0.8566 0.8560
1050.000000 0.8553 0.8547 0.8540 0.8533 0.8537
1055.000000 0.8542 0.8548 0.8553 0.8544 0.8566
1060.000000 0.8573 0.8580 0.8587 0.8594 0.8607
1065.000000 0.8620 0.8633 0.8646 0.8659 0.8672
1070.000000 0.8679 0.8687 0.8694 0.8701 0.8708
1075.000000 0.8715 0.8722 0.8729 0.8734 0.8740
1080.000000 0.8745 0.8751 0.8756 0.8762 0.8767
1085.000000 0.8773 0.8778 0.8784 0.8789 0.8791
1090.000000 0.8794 0.8797 0.8800 0.8802 0.8805
1095.000000 0.8808 0.8810 0.8813 0.8816 0.8819
1100.000000 0.8821 0.8823 0.8824 0.8804 0.8826
1105.000000 0.8827 0.8828 0.8829 0.8830 0.8831
1110.000000 0.8831 0.8832 0.8833 0.8834 0.8835
1115.000000 0.8835 0.8835 0.8835 0.8835 0.8835
1120.000000 0.8835 0.8835 0.8835 0.8835 0.8835
1125.000000 0.8835 0.8835 0.8835 0.8831 0.8824
1130.000000 0.8818 0.8811 0.8804 0.8797 0.8790
1135.000000 0.8783 0.8776 0.8770 0.8763 0.8756
1140.000000 0.8749 0.8742 0.8735 0.8728 0.8721
1145.000000 0.8714 0.8707 0.8700 0.8693 0.8686
1150.000000 0.8679 0.8664 0.8647 0.8630 0.8613
1155.000000 0.8596 0.8579 0.8562 0.8550 0.8541
1160.000000 0.8533 0.8525 0.8488 0.8508 0.8500
1165.000000 0.8508 0.8516 0.8525 0.8533 0.8541
1170.000000 0.8565 0.8591 0.8616 0.8641 0.8665
1175.000000 0.8683 0.8700 0.8718 0.8732 0.8733
1180.000000 0.8734 0.8735 0.8735 0.8727 0.8715
1185.000000 0.8719 0.8733 0.8747 0.8746 0.8744
1190.000000 0.8737 0.8728 0.8699 0.8671 0.8642
1195.000000 0.8600 0.8550 0.8497 0.8410 0.8322
1200.000000 0.8209 0.8071 0.7932 0.7789 0.7646
1205.000000 0.7457 0.7157 0.7150 0.7143 0.7351
1210.000000 0.7480 0.7495 0.7027 0.7345 0.7457
1215.000000 0.7397 0.7483 0.6961 0.6969 0.7120
1220.000000 0.7364 0.7609 0.8046 0.8225 0.8323
1225.000000 0.8405 0.8469 0.8533 0.8573 0.8611
1230.000000 0.8649 0.8679 0.8693 0.8707 0.8721
1235.000000 0.8748 0.8723 0.8700 0.8677 0.8653
1240.000000 0.8628 0.8605 0.8584 0.8562 0.8552
1245.000000 0.8547 0.8541 0.8536 0.8531 0.8525
1250.000000 0.8519 0.8513 0.8507 0.8498 0.8471
1255.000000 0.8438 0.8360 0.8282 0.8180 0.8061
1260.000000 0.7936 0.7807 0.7670 0.7416 0.7395
1265.000000 0.7398 0.7404 0.7410 0.7411 0.7423
1270.000000 0.7433 0.7442 0.7478 0.7542 0.7616
1275.000000 0.7668 0.7716 0.7851 0.7951 0.8030
1280.000000 0.8236 0.8324 0.8405 0.8439 0.8473
1285.000000 0.8507 0.8541 0.8558 0.8574 0.8590
1290.000000 0.8606 0.8607 0.8629 0.8609 0.8609
1295.000000 0.8605 0.8601 0.8588 0.8568 0.8547
1300.000000 0.8527 0.8493 0.8449 0.8405 0.8311
1305.000000 0.8246 0.8192 0.8167 0.8142 0.8119
1310.000000 0.8107 0.8100 0.8102 0.8105 0.8108
1315.000000 0.8116 0.8114 0.8118 0.8122 0.8127
1320.000000 0.8145 0.8168 0.8208 0.8250 0.8331
1325.000000 0.8406 0.8469 0.8529 0.8556 0.8581
1330.000000 0.8588 0.8591 0.8592 0.8592 0.8592
1335.000000 0.8592 0.8592 0.8592 0.8592 0.8592
1340.000000 0.8592 0.8592 0.8591 0.8589 0.8587
1345.000000 0.8585 0.8583 0.8582 0.8581 0.8583
1350.000000 0.8586 0.8588 0.8604 0.8620 0.8637
1355.000000 0.8653 0.8674 0.8696 0.8718 0.8740
1360.000000 0.8763 0.8809 0.8809 0.8813 0.8808
1365.000000 0.8803 0.8794 0.8782 0.8771 0.8759
1370.000000 0.8748 0.8736 0.8724 0.8712 0.8700
1375.000000 0.8689 0.8678 0.8666 0.8655 0.8644
1380.000000 0.8636 0.8629 0.8623 0.8617 0.8611
1385.000000 0.8605 0.8602 0.8600 0.8598 0.8596
1390.000000 0.8594 0.8591 0.8589 0.8586 0.8583
1395.000000 0.8581 0.8578 0.8576 0.8574 0.8572
1400.000000 0.8570 0.8568 0.8566 0.8564 0.8562
1405.000000 0.8560 0.8558 0.8558 0.8557 0.8557
1410.000000 0.8556 0.8556 0.8555 0.8555 0.8554
1415.000000 0.8553 0.8553 0.8552 0.8551 0.8548
1420.000000 0.8526 0.8496 0.8465 0.8453 0.8445
1425.000000 0.8427 0.8408 0.8390 0.8358 0.8320
1430.000000 0.8268 0.8217 0.8153 0.8085 0.8027
1435.000000 0.7970 0.7928 0.7902 0.7888 0.7777
1440.000000 0.7493 0.7210 0.6926 0.6935 0.7548
1445.000000 0.7880 0.7903 0.7926 0.7950 0.7979
1450.000000 0.8026 0.8086 0.8162 0.8240 0.8315
1455.000000 0.8353 0.8373 0.8379 0.8385 0.8384
1460.000000 0.8383 0.8382 0.8391 0.8419 0.8475
1465.000000 0.8516 0.8544 0.8549 0.8551 0.8553
1470.000000 0.8554 0.8555 0.8555 0.8555 0.8543
1475.000000 0.8527 0.8504 0.8489 0.8483 0.8484
1480.000000 0.8487 0.8492 0.8500 0.8508 0.8516
1485.000000 0.8524 0.8529 0.8530 0.8532 0.8531
1490.000000 0.8528 0.8525 0.8522 0.8518 0.8515
1495.000000 0.8511 0.8507 0.8505 0.8502 0.8500
1500.000000 0.8498 0.8501 0.8505 0.8509 0.8507
1505.000000 0.8504 0.8500 0.8483 0.8448 0.8432
1510.000000 0.8428 0.8434 0.8453 0.8483 0.8496
1515.000000 0.8499 0.8502 0.8499 0.8496 0.8494
1520.000000 0.8491 0.8478 0.8463 0.8447 0.8425
1525.000000 0.8430 0.8451 0.8470 0.8488 0.8503
1530.000000 0.8504 0.8506 0.8507 0.8509 0.8510
1535.000000 0.8506 0.8502 0.8493 0.8472 0.8450
1540.000000 0.8416 0.8377 0.8362 0.8357 0.8376
1545.000000 0.8396 0.8421 0.8445 0.8469 0.8487
1550.000000 0.8503 0.8514 0.8524 0.8525 0.8523
1555.000000 0.8517 0.8507 0.8498 0.8478 0.8454
1560.000000 0.8396 0.8361 0.8356 0.8362 0.8403
1565.000000 0.8446 0.8480 0.8494 0.8507 0.8516
1570.000000 0.8519 0.8521 0.8521 0.8518 0.8516
1575.000000 0.8513 0.8508 0.8493 0.8478 0.8458
1580.000000 0.8449 0.8480 0.8514 0.8555 0.8571
1585.000000 0.8582 0.8592 0.8592 0.8592 0.8592
1590.000000 0.8592 0.8592 0.8593 0.8594 0.8595
1595.000000 0.8596 0.8598 0.8599 0.8600 0.8601
1600.000000 0.8601 0.8602 0.8602 0.8603 0.8603
1605.000000 0.8603 0.8604 0.8604 0.8604 0.8604
1610.000000 0.8604 0.8604 0.8604 0.8604 0.8604
1615.000000 0.8604 0.8604 0.8591 0.8572 0.8545
1620.000000 0.8528 0.8544 0.8562 0.8566 0.8570
1625.000000 0.8574 0.8578 0.8585 0.8591 0.8598
1630.000000 0.8604 0.8600 0.8594 0.8587 0.8550
1635.000000 0.8525 0.8517 0.8518 0.8531 0.8548
1640.000000 0.8568 0.8588 0.8593 0.8597 0.8594
1645.000000 0.8591 0.8588 0.8583 0.8573 0.8562
1650.000000 0.8548 0.8529 0.8458 0.8428 0.8397
1655.000000 0.8367 0.8398 0.8452 0.8509 0.8537
1660.000000 0.8564 0.8578 0.8578 0.8576 0.8575
1665.000000 0.8571 0.8566 0.8562 0.8558 0.8553
1670.000000 0.8549 0.8549 0.8550 0.8552 0.8553
1675.000000 0.8555 0.8556 0.8558 0.8559 0.8561
1680.000000 0.8562 0.8562 0.8559 0.8556 0.8540
1685.000000 0.8519 0.8498 0.8442 0.8437 0.8455
1690.000000 0.8481 0.8515 0.8545 0.8562 0.8579
1695.000000 0.8573 0.8562 0.8549 0.8531 0.8506
1700.000000 0.8482 0.8469 0.8466 0.8463 0.8459
1705.000000 0.8491 0.8507 0.8522 0.8538 0.8552
1710.000000 0.8556 0.8560 0.8564 0.8557 0.8551
1715.000000 0.8544 0.8534 0.8515 0.8497 0.8509
1720.000000 0.8526 0.8543 0.8560 0.8572 0.8575
1725.000000 0.8577 0.8579 0.8577 0.8574 0.8572
1730.000000 0.8569 0.8561 0.8548 0.8534 0.8520
1735.000000 0.8503 0.8486 0.8494 0.8520 0.8545
1740.000000 0.8566 0.8579 0.8578 0.8577 0.8576
1745.000000 0.8575 0.8575 0.8574 0.8573 0.8572
1750.000000 0.8570 0.8566 0.8562 0.8558 0.8556
1755.000000 0.8555 0.8554 0.8553 0.8551 0.8548
1760.000000 0.8545 0.8542 0.8539 0.8536 0.8533
1765.000000 0.8530 0.8527 0.8524 0.8522 0.8519
1770.000000 0.8511 0.8503 0.8495 0.8487 0.8479
1775.000000 0.8478 0.8481 0.8488 0.8500 0.8512
1780.000000 0.8514 0.8512 0.8511 0.8511 0.8511
1785.000000 0.8511 0.8512 0.8514 0.8515 0.8516
1790.000000 0.8517 0.8518 0.8520 0.8521 0.8523
1795.000000 0.8525 0.8526 0.8528 0.8530 0.8531
1800.000000 0.8531 0.8531 0.8532 0.8532 0.8532
1805.000000 0.8533 0.8533 0.8533 0.8534 0.8534
1810.000000 0.8534 0.8534 0.8534 0.8534 0.8534
1815.000000 0.8533 0.8533 0.8533 0.8533 0.8532
1820.000000 0.8532 0.8532 0.8531 0.8531 0.8531
1825.000000 0.8530 0.8530 0.8529 0.8529 0.8528
1830.000000 0.8528 0.8527 0.8527 0.8526 0.8526
1835.000000 0.8525 0.8525 0.8524 0.8524 0.8523
1840.000000 0.8523 0.8522 0.8522 0.8521 0.8521
1845.000000 0.8520 0.8520 0.8519 0.8519 0.8519
1850.000000 0.8519 0.8518 0.8518 0.8518 0.8518
1855.000000 0.8518 0.8517 0.8517 0.8517 0.8517
1860.000000 0.8516 0.8516 0.8516 0.8516 0.8515
1865.000000 0.8515 0.8515 0.8515 0.8515 0.8514
1870.000000 0.8514 0.8514 0.8514 0.8513 0.8513
1875.000000 0.8513 0.8513 0.8513 0.8513 0.8513
1880.000000 0.8513 0.8513 0.8514 0.8514 0.8514
1885.000000 0.8514 0.8514 0.8514 0.8515 0.8515
1890.000000 0.8515 0.8515 0.8515 0.8516 0.8516
1895.000000 0.8516 0.8516 0.8516 0.8516 0.8517
1900.000000 0.8517 0.8517 0.8517 0.8517 0.8516
1905.000000 0.8516 0.8516 0.8516 0.8516 0.8516
1910.000000 0.8516 0.8515 0.8515 0.8515 0.8515
1915.000000 0.8515 0.8515 0.8514 0.8514 0.8514
1920.000000 0.8514 0.8514 0.8514 0.8513 0.8514
1925.000000 0.8514 0.8514 0.8515 0.8515 0.8515
1930.000000 0.8516 0.8516 0.8516 0.8516 0.8517
1935.000000 0.8517 0.8517 0.8518 0.8518 0.8518
1940.000000 0.8519 0.8519 0.8519 0.8519 0.8520
1945.000000 0.8520 0.8520 0.8521 0.8521 0.8521
1950.000000 0.8522 0.8522 0.8523 0.8524 0.8525
1955.000000 0.8526 0.8527 0.8527 0.8528 0.8529
1960.000000 0.8530 0.8531 0.8532 0.8533 0.8533
1965.000000 0.8534 0.8535 0.8536 0.8537 0.8538
1970.000000 0.8538 0.8539 0.8540 0.8541 0.8541
1975.000000 0.8542 0.8542 0.8542 0.8542 0.8542
1980.000000 0.8542 0.8542 0.8542 0.8542 0.8542
1985.000000 0.8542 0.8542 0.8542 0.8542 0.8542
1990.000000 0.8542 0.8542 0.8542 0.8542 0.8542
1995.000000 0.8542 0.8542 0.8542 0.8542 0.8542
2000.000000 0.8542 0.8541 0.8541 0.8541 0.8541
2005.000000 0.8541 0.8541 0.8541 0.8541 0.8541
2010.000000 0.8541 0.8541 0.8541 0.8540 0.8540
2015.000000 0.8540 0.8540 0.8540 0.8540 0.8540
2020.000000 0.8540 0.8540 0.8540 0.8540 0.8540
2025.000000 0.8540 0.8540 0.8539 0.8539 0.8539
2030.000000 0.8539 0.8539 0.8539 0.8539 0.8539
2035.000000 0.8539 0.8539 0.8539 0.8539 0.8539
2040.000000 0.8539 0.8539 0.8539 0.8539 0.8539
2045.000000 0.8539 0.8540 0.8540 0.8540 0.8540
2050.000000 0.8540 0.8540 0.8541 0.8541 0.8541
2055.000000 0.8541 0.8542 0.8542 0.8542 0.8542
2060.000000 0.8543 0.8543 0.8543 0.8543 0.8543
2065.000000 0.8543 0.8544 0.8544 0.8544 0.8544
2070.000000 0.8545 0.8545 0.8545 0.8545 0.8545
2075.000000 0.8545 0.8546 0.8546 0.8546 0.8546
2080.000000 0.8547 0.8547 0.8547 0.8547 0.8548
2085.000000 0.8548 0.8548 0.8548 0.8548 0.8548
2090.000000 0.8549 0.8549 0.8549 0.8549 0.8550
2095.000000 0.8550 0.8550 0.8550 0.8550 0.8550
2100.000000 0.8551 0.8551 0.8551 0.8551 0.8551
2105.000000 0.8551 0.8552 0.8552 0.8552 0.8552
2110.000000 0.8553 0.8553 0.8553 0.8553 0.8553
2115.000000 0.8553 0.8554 0.8554 0.8554 0.8554
2120.000000 0.8555 0.8555 0.8555 0.8555 0.8556
2125.000000 0.8556 0.8557 0.8557 0.8558 0.8558
2130.000000 0.8558 0.8558 0.8559 0.8559 0.8560
2135.000000 0.8560 0.8561 0.8561 0.8561 0.8561
2140.000000 0.8562 0.8562 0.8563 0.8563 0.8563
2145.000000 0.8563 0.8563 0.8563 0.8563 0.8563
2150.000000 0.8563 0.8563 0.8563 0.8563 0.8563
2155.000000 0.8563 0.8563 0.8563 0.8563 0.8563
2160.000000 0.8563 0.8563 0.8563 0.8563 0.8563
2165.000000 0.8563 0.8563 0.8563 0.8563 0.8563
2170.000000 0.8563 0.8563 0.8563 0.8563 0.8563
2175.000000 0.8563 0.8563 0.8563 0.8563 0.8563
2180.000000 0.8563 0.8563 0.8563 0.8563 0.8563
2185.000000 0.8563 0.8563 0.8563 0.8563 0.8563
2190.000000 0.8563 0.8563 0.8563 0.8563 0.8563
2195.000000 0.8563 0.8563 0.8563 0.8563 0.8563
2200.000000 0.8563 0.8563 0.8563 0.8563 0.8563
2205.000000 0.8563 0.8563 0.8563 0.8563 0.8563
2210.000000 0.8563 0.8563 0.8563 0.8563 0.8563
2215.000000 0.8563 0.8563 0.8563 0.8563 0.8563
2220.000000 0.8563 0.8563 0.8564 0.8564 0.8564
2225.000000 0.8564 0.8564 0.8564 0.8564 0.8564
2230.000000 0.8564 0.8564 0.8564 0.8564 0.8565
2235.000000 0.8565 0.8565 0.8565 0.8565 0.8565
2240.000000 0.8565 0.8565 0.8565 0.8565 0.8565
2245.000000 0.8565 0.8566 0.8566 0.8566 0.8566
2250.000000 0.8566 0.8566 0.8566 0.8566 0.8566
2255.000000 0.8566 0.8566 0.8566 0.8567 0.8567
2260.000000 0.8567 0.8567 0.8567 0.8567 0.8567
2265.000000 0.8567 0.8567 0.8567 0.8567 0.8567
2270.000000 0.8568 0.8568 0.8568 0.8568 0.8568
2275.000000 0.8568 0.8568 0.8568 0.8569 0.8569
2280.000000 0.8569 0.8569 0.8570 0.8570 0.8570
2285.000000 0.8570 0.8570 0.8570 0.8571 0.8571
2290.000000 0.8571 0.8571 0.8571 0.8571 0.8572
2295.000000 0.8572 0.8572 0.8572 0.8572 0.8572
2300.000000 0.8573 0.8573 0.8573 0.8573 0.8574
2305.000000 0.8574 0.8574 0.8574 0.8574 0.8574
2310.000000 0.8575 0.8575 0.8575 0.8575 0.8575
2315.000000 0.8575 0.8576 0.8576 0.8577 0.8578
2320.000000 0.8579 0.8580 0.8581 0.8582 0.8583
2325.000000 0.8584 0.8585 0.8586 0.8587 0.8588
2330.000000 0.8589 0.8590 0.8591 0.8592 0.8593
2335.000000 0.8593 0.8594 0.8595 0.8596 0.8597
2340.000000 0.8598 0.8599 0.8600 0.8601 0.8602
2345.000000 0.8603 0.8604 0.8605 0.8606 0.8607
2350.000000 0.8608 0.8609 0.8610 0.8611 0.8612
2355.000000 0.8612 0.8613 0.8614 0.8615 0.8615
2360.000000 0.8615 0.8615 0.8615 0.8615 0.8616
2365.000000 0.8616 0.8616 0.8616 0.8616 0.8616
2370.000000 0.8616 0.8616 0.8616 0.8616 0.8617
2375.000000 0.8617 0.8617 0.8617 0.8617 0.8617
2380.000000 0.8617 0.8617 0.8617 0.8617 0.8618
2385.000000 0.8618 0.8618 0.8618 0.8618 0.8618
2390.000000 0.8618 0.8618 0.8618 0.8618 0.8619
2395.000000 0.8619 0.8619 0.8619 0.8619 0.8619
2400.000000 0.8619 0.8619 0.8620 0.8620 0.8621
2405.000000 0.8621 0.8622 0.8622 0.8622 0.8622
2410.000000 0.8623 0.8623 0.8624 0.8624 0.8625
2415.000000 0.8625 0.8626 0.8626 0.8626 0.8626
2420.000000 0.8627 0.8627 0.8628 0.8628 0.8628
2425.000000 0.8628 0.8629 0.8629 0.8629 0.8629
2430.000000 0.8630 0.8630 0.8630 0.8630 0.8631
2435.000000 0.8631 0.8631 0.8630 0.8630 0.8629
2440.000000 0.8628 0.8627 0.8627 0.8626 0.8626
2445.000000 0.8625 0.8624 0.8623 0.8623 0.8622
2450.000000 0.8622 0.8621 0.8620 0.8619 0.8619
2455.000000 0.8618 0.8618 0.8617 0.8616 0.8615
2460.000000 0.8615 0.8614 0.8614 0.8613 0.8612
2465.000000 0.8612 0.8612 0.8612 0.8613 0.8613
2470.000000 0.8614 0.8614 0.8614 0.8614 0.8615
2475.000000 0.8615 0.8616 0.8616 0.8617 0.8619
2480.000000 0.8621 0.8622 0.8624 0.8626 0.8628
2485.000000 0.8629 0.8631 0.8632 0.8633 0.8634
