##TITLE=Ethylene, trichloro-
##JCAMP-DX=4.24
##DATA TYPE=INFRARED SPECTRUM
##CLASS=COBLENTZ
##ORIGIN=DOW CHEMICAL COMPANY
##OWNER=Copyright (C) 1987 by the Coblentz Society
Collection (C) 2018 copyright by the U.S. Secretary of Commerce
on behalf of the United States of America. All rights reserved.
##DATE=1964
##NAMES=1,1,2-trichloroethylene
ETHENE, TRICHLORO-
##CAS REGISTRY NO=79-01-6
##MOLFORM=C2 H Cl3
##SOURCE REFERENCE=COBLENTZ NO. 8853
##$NIST SOURCE=COBLENTZ
##$NIST IMAGE=cob8853
##SPECTROMETER/DATA SYSTEM=DOW KBr FOREPRISM-GRATING
##INSTRUMENT PARAMETERS=GRATING CHANGED AT 5.0, 7.5, 15.0 MICRON
##STATE=GAS (50 mmHg, N2 ADDED, TOTAL PRESSURE 600 mmHg)
##PATH LENGTH=5 CM
##SAMPLING PROCEDURE=TRANSMISSION
##RESOLUTION=2
##DATA PROCESSING=DIGITIZED BY COBLENTZ SOCIETY (BATCH II) FROM HARD COPY
##XUNITS=1/CM
##YUNITS=TRANSMITTANCE
##XFACTOR=1.0
##YFACTOR=1
##FIRSTX=464
##LASTX=3800
##FIRSTY=0.8133
##MAXX=3800
##MINX=464
##MAXY=0.9035
##MINY=0.0119
##NPOINTS=3337
##XYDATA=(X++(Y..Y))
464.000000 0.8133 0.8151 0.8167 0.8183 0.8198
469.000000 0.8213 0.8228 0.8249 0.8272 0.8294
474.000000 0.8316 0.8339 0.8379 0.8418 0.8457
479.000000 0.8487 0.8517 0.8547 0.8576 0.8598
484.000000 0.8605 0.8611 0.8617 0.8623 0.8622
489.000000 0.8621 0.8621 0.8620 0.8619 0.8619
494.000000 0.8615 0.8611 0.8608 0.8604 0.8600
499.000000 0.8596 0.8593 0.8590 0.8588 0.8587
504.000000 0.8585 0.8583 0.8581 0.8580 0.8578
509.000000 0.8576 0.8574 0.8573 0.8571 0.8570
514.000000 0.8570 0.8569 0.8568 0.8568 0.8567
519.000000 0.8566 0.8566 0.8565 0.8564 0.8564
524.000000 0.8563 0.8563 0.8563 0.8563 0.8563
529.000000 0.8563 0.8564 0.8564 0.8564 0.8564
534.000000 0.8565 0.8565 0.8565 0.8565 0.8569
539.000000 0.8567 0.8568 0.8570 0.8572 0.8573
544.000000 0.8575 0.8576 0.8578 0.8580 0.8581
549.000000 0.8583 0.8583 0.8581 0.8579 0.8577
554.000000 0.8574 0.8572 0.8570 0.8571 0.8581
559.000000 0.8592 0.8602 0.8613 0.8620 0.8624
564.000000 0.8628 0.8633 0.8637 0.8635 0.8632
569.000000 0.8630 0.8627 0.8624 0.8621 0.8617
574.000000 0.8614 0.8610 0.8606 0.8603 0.8599
579.000000 0.8598 0.8598 0.8599 0.8599 0.8599
584.000000 0.8600 0.8600 0.8601 0.8602 0.8612
589.000000 0.8621 0.8630 0.8640 0.8650 0.8660
594.000000 0.8670 0.8678 0.8679 0.8681 0.8683
599.000000 0.8684 0.8685 0.8685 0.8685 0.8685
604.000000 0.8685 0.8685 0.8685 0.8677 0.8646
609.000000 0.8615 0.8581 0.8548 0.8495 0.8440
614.000000 0.8385 0.8313 0.8238 0.8163 0.8091
619.000000 0.8020 0.7950 0.7873 0.7780 0.7688
624.000000 0.7414 0.7104 0.6793 0.6482 0.6172
629.000000 0.5861 0.5551 0.5240 0.4929 0.4904
634.000000 0.4902 0.4931 0.5060 0.5174 0.5288
639.000000 0.5336 0.5329 0.5113 0.4753 0.4707
644.000000 0.4753 0.4819 0.4946 0.5416 0.5886
649.000000 0.6357 0.6827 0.7298 0.7768 0.8220
654.000000 0.8330 0.8398 0.8448 0.8499 0.8548
659.000000 0.8598 0.8640 0.8648 0.8656 0.8662
664.000000 0.8664 0.8667 0.8669 0.8671 0.8673
669.000000 0.8674 0.8674 0.8675 0.8676 0.8677
674.000000 0.8679 0.8681 0.8683 0.8685 0.8687
679.000000 0.8692 0.8699 0.8706 0.8713 0.8720
684.000000 0.8727 0.8734 0.8741 0.8748 0.8754
689.000000 0.8761 0.8768 0.8775 0.8781 0.8788
694.000000 0.8792 0.8797 0.8801 0.8806 0.8810
699.000000 0.8815 0.8819 0.8822 0.8824 0.8826
704.000000 0.8828 0.8830 0.8832 0.8834 0.8836
709.000000 0.8825 0.8834 0.8833 0.8832 0.8831
714.000000 0.8830 0.8828 0.8827 0.8826 0.8825
719.000000 0.8823 0.8820 0.8817 0.8814 0.8811
724.000000 0.8809 0.8806 0.8803 0.8800 0.8797
729.000000 0.8794 0.8791 0.8788 0.8785 0.8781
734.000000 0.8778 0.8774 0.8771 0.8767 0.8764
739.000000 0.8761 0.8757 0.8754 0.8750 0.8746
744.000000 0.8740 0.8735 0.8729 0.8724 0.8719
749.000000 0.8713 0.8708 0.8702 0.8697 0.8691
754.000000 0.8686 0.8680 0.8659 0.8629 0.8591
759.000000 0.8506 0.8429 0.8353 0.8277 0.8201
764.000000 0.8126 0.8040 0.7715 0.7389 0.7063
769.000000 0.6737 0.6411 0.6085 0.5759 0.5176
774.000000 0.4877 0.4740 0.4590 0.4402 0.4179
779.000000 0.3956 0.3733 0.3510 0.3424 0.3608
784.000000 0.3991 0.4373 0.4419 0.0599 0.0569
789.000000 0.1239 0.2186 0.3133 0.4080 0.4207
794.000000 0.4254 0.4305 0.4359 0.4422 0.4594
799.000000 0.4863 0.5146 0.5430 0.5714 0.5997
804.000000 0.6281 0.6565 0.6848 0.7132 0.7416
809.000000 0.7643 0.7671 0.7701 0.7736 0.7787
814.000000 0.7858 0.7964 0.8196 0.8464 0.8555
819.000000 0.8548 0.8536 0.8459 0.8361 0.8259
824.000000 0.8166 0.8072 0.7976 0.7891 0.7806
829.000000 0.7691 0.7018 0.6457 0.5895 0.5334
834.000000 0.4773 0.4217 0.3581 0.2469 0.1357
839.000000 0.0679 0.0530 0.0371 0.0234 0.0164
844.000000 0.0147 0.0144 0.0142 0.0140 0.0137
849.000000 0.0131 0.0120 0.0132 0.0119 0.0135
854.000000 0.0143 0.0144 0.0149 0.0162 0.0661
859.000000 0.1544 0.4351 0.5154 0.5957 0.6760
864.000000 0.7509 0.8248 0.8459 0.8501 0.8542
869.000000 0.8565 0.8588 0.8601 0.8615 0.8628
874.000000 0.8641 0.8653 0.8665 0.8677 0.8688
879.000000 0.8697 0.8707 0.8716 0.8720 0.8719
884.000000 0.8718 0.8732 0.8706 0.8697 0.8681
889.000000 0.8660 0.8638 0.8611 0.8574 0.8513
894.000000 0.8449 0.8380 0.8311 0.8237 0.8163
899.000000 0.8090 0.7979 0.7848 0.7657 0.7523
904.000000 0.7480 0.7461 0.7528 0.7651 0.7773
909.000000 0.7790 0.7776 0.7781 0.7001 0.6919
914.000000 0.6854 0.6810 0.6760 0.6687 0.6590
919.000000 0.6289 0.5803 0.5317 0.4458 0.3811
924.000000 0.3164 0.2516 0.1869 0.1218 0.0977
929.000000 0.0809 0.0645 0.0483 0.0377 0.0306
934.000000 0.0263 0.0265 0.0256 0.0264 0.0283
939.000000 0.0307 0.0300 0.0338 0.0239 0.0212
944.000000 0.0190 0.0195 0.0191 0.0226 0.0296
949.000000 0.0802 0.1393 0.1983 0.2573 0.3163
954.000000 0.3754 0.4344 0.4867 0.5375 0.5884
959.000000 0.6392 0.6901 0.7409 0.8240 0.8352
964.000000 0.8434 0.8496 0.8530 0.8548 0.8564
969.000000 0.8599 0.8558 0.8551 0.8535 0.8515
974.000000 0.8481 0.8440 0.8383 0.8311 0.8239
979.000000 0.8169 0.8143 0.8147 0.8108 0.8169
984.000000 0.8188 0.8207 0.8227 0.8246 0.8265
989.000000 0.8277 0.8289 0.8301 0.8313 0.8325
994.000000 0.8377 0.8524 0.8589 0.8648 0.8664
999.000000 0.8670 0.8673 0.8686 0.8655 0.8639
1004.000000 0.8622 0.8605 0.8586 0.8563 0.8540
1009.000000 0.8517 0.8490 0.8464 0.8437 0.8412
1014.000000 0.8403 0.8403 0.8421 0.8438 0.8458
1019.000000 0.8481 0.8504 0.8523 0.8542 0.8561
1024.000000 0.8580 0.8598 0.8625 0.8653 0.8681
1029.000000 0.8709 0.8736 0.8763 0.8790 0.8814
1034.000000 0.8827 0.8840 0.8853 0.8866 0.8879
1039.000000 0.8889 0.8896 0.8904 0.8911 0.8919
1044.000000 0.8926 0.8934 0.8941 0.8944 0.8947
1049.000000 0.8949 0.8952 0.8955 0.8957 0.8960
1054.000000 0.8962 0.8965 0.8968 0.8967 0.8966
1059.000000 0.8966 0.8965 0.8964 0.8963 0.8962
1064.000000 0.8961 0.8960 0.8958 0.8956 0.8953
1069.000000 0.8951 0.8956 0.8946 0.8944 0.8942
1074.000000 0.8939 0.8937 0.8937 0.8938 0.8939
1079.000000 0.8940 0.8941 0.8942 0.8943 0.8951
1084.000000 0.8959 0.8967 0.8976 0.8984 0.8983
1089.000000 0.8979 0.8976 0.8972 0.8969 0.8964
1094.000000 0.8953 0.8942 0.8930 0.8919 0.8908
1099.000000 0.8897 0.8886 0.8876 0.8865 0.8855
1104.000000 0.8844 0.8837 0.8835 0.8833 0.8831
1109.000000 0.8829 0.8828 0.8826 0.8830 0.8834
1114.000000 0.8838 0.8842 0.8846 0.8850 0.8854
1119.000000 0.8862 0.8872 0.8882 0.8891 0.8901
1124.000000 0.8911 0.8921 0.8929 0.8937 0.8946
1129.000000 0.8954 0.8957 0.8958 0.8960 0.8961
1134.000000 0.8962 0.8961 0.8957 0.8953 0.8948
1139.000000 0.8944 0.8940 0.8940 0.8941 0.8941
1144.000000 0.8942 0.8943 0.8944 0.8949 0.8953
1149.000000 0.8958 0.8962 0.8967 0.8971 0.8976
1154.000000 0.8981 0.8986 0.8991 0.8996 0.8999
1159.000000 0.9002 0.9004 0.9007 0.9010 0.9012
1164.000000 0.9015 0.9018 0.9020 0.9022 0.9018
1169.000000 0.9014 0.9010 0.9006 0.9002 0.8998
1174.000000 0.8993 0.8987 0.8980 0.8972 0.8964
1179.000000 0.8956 0.8949 0.8941 0.8942 0.8953
1184.000000 0.8971 0.8990 0.9008 0.9019 0.9027
1189.000000 0.9035 0.9035 0.9033 0.9028 0.9022
1194.000000 0.9016 0.9010 0.9004 0.8997 0.8987
1199.000000 0.8978 0.8968 0.8959 0.8950 0.8940
1204.000000 0.8931 0.8919 0.8906 0.8893 0.8880
1209.000000 0.8866 0.8853 0.8836 0.8819 0.8801
1214.000000 0.8783 0.8765 0.8747 0.8725 0.8703
1219.000000 0.8680 0.8658 0.8635 0.8613 0.8590
1224.000000 0.8568 0.8545 0.8522 0.8499 0.8476
1229.000000 0.8453 0.8445 0.8443 0.8440 0.8440
1234.000000 0.8394 0.8273 0.8139 0.8057 0.7975
1239.000000 0.7898 0.7822 0.7745 0.7657 0.7432
1244.000000 0.7214 0.7020 0.6853 0.6726 0.6585
1249.000000 0.6402 0.6259 0.6337 0.6407 0.6379
1254.000000 0.6265 0.6166 0.6036 0.5940 0.5865
1259.000000 0.5825 0.5844 0.5879 0.5969 0.6058
1264.000000 0.6148 0.6237 0.6326 0.6416 0.6485
1269.000000 0.6552 0.7276 0.7447 0.7729 0.7884
1274.000000 0.8002 0.8117 0.8228 0.8308 0.8388
1279.000000 0.8457 0.8514 0.8571 0.8625 0.8673
1284.000000 0.8719 0.8742 0.8765 0.8785 0.8818
1289.000000 0.8805 0.8814 0.8815 0.8816 0.8817
1294.000000 0.8816 0.8813 0.8810 0.8807 0.8804
1299.000000 0.8800 0.8796 0.8792 0.8788 0.8784
1304.000000 0.8780 0.8773 0.8765 0.8757 0.8749
1309.000000 0.8741 0.8732 0.8722 0.8712 0.8708
1314.000000 0.8707 0.8707 0.8706 0.8705 0.8705
1319.000000 0.8705 0.8709 0.8713 0.8717 0.8721
1324.000000 0.8725 0.8729 0.8734 0.8740 0.8748
1329.000000 0.8755 0.8762 0.8768 0.8775 0.8781
1334.000000 0.8788 0.8793 0.8796 0.8800 0.8803
1339.000000 0.8702 0.8592 0.8540 0.8578 0.8674
1344.000000 0.8770 0.8803 0.8808 0.8813 0.8818
1349.000000 0.8823 0.8828 0.8833 0.8842 0.8852
1354.000000 0.8861 0.8871 0.8883 0.8895 0.8913
1359.000000 0.8930 0.8955 0.8974 0.8981 0.8987
1364.000000 0.8989 0.8984 0.8980 0.8976 0.8965
1369.000000 0.8953 0.8941 0.8929 0.8914 0.8899
1374.000000 0.8883 0.8868 0.8852 0.8836 0.8821
1379.000000 0.8809 0.8798 0.8786 0.8775 0.8763
1384.000000 0.8752 0.8741 0.8736 0.8732 0.8727
1389.000000 0.8722 0.8718 0.8716 0.8715 0.8713
1394.000000 0.8711 0.8710 0.8708 0.8706 0.8705
1399.000000 0.8703 0.8701 0.8700 0.8698 0.8697
1404.000000 0.8695 0.8694 0.8692 0.8691 0.8691
1409.000000 0.8691 0.8692 0.8692 0.8692 0.8693
1414.000000 0.8693 0.8693 0.8693 0.8694 0.8695
1419.000000 0.8697 0.8699 0.8701 0.8703 0.8705
1424.000000 0.8707 0.8709 0.8710 0.8711 0.8711
1429.000000 0.8712 0.8713 0.8714 0.8714 0.8715
1434.000000 0.8716 0.8716 0.8716 0.8717 0.8717
1439.000000 0.8717 0.8717 0.8718 0.8718 0.8718
1444.000000 0.8718 0.8719 0.8719 0.8718 0.8715
1449.000000 0.8711 0.8708 0.8705 0.8701 0.8698
1454.000000 0.8695 0.8691 0.8681 0.8672 0.8662
1459.000000 0.8653 0.8649 0.8657 0.8675 0.8696
1464.000000 0.8718 0.8737 0.8752 0.8763 0.8758
1469.000000 0.8752 0.8737 0.8722 0.8707 0.8693
1474.000000 0.8682 0.8680 0.8677 0.8675 0.8673
1479.000000 0.8671 0.8671 0.8670 0.8670 0.8670
1484.000000 0.8670 0.8670 0.8670 0.8670 0.8669
1489.000000 0.8668 0.8667 0.8666 0.8665 0.8664
1494.000000 0.8663 0.8662 0.8661 0.8659 0.8658
1499.000000 0.8656 0.8654 0.8658 0.8662 0.8665
1504.000000 0.8669 0.8673 0.8671 0.8666 0.8654
1509.000000 0.8637 0.8609 0.8567 0.8592 0.8613
1514.000000 0.8630 0.8646 0.8653 0.8652 0.8646
1519.000000 0.8639 0.8633 0.8622 0.8611 0.8596
1524.000000 0.8569 0.8566 0.8589 0.8608 0.8622
1529.000000 0.8633 0.8628 0.8623 0.8620 0.8617
1534.000000 0.8614 0.8609 0.8601 0.8587 0.8574
1539.000000 0.8522 0.8430 0.8351 0.8263 0.8211
1544.000000 0.8160 0.8113 0.8079 0.8045 0.8002
1549.000000 0.7954 0.7877 0.7733 0.7595 0.7490
1554.000000 0.7359 0.7156 0.6606 0.6350 0.6093
1559.000000 0.5837 0.5709 0.5717 0.6072 0.6337
1564.000000 0.6602 0.6612 0.6608 0.6403 0.6240
1569.000000 0.6077 0.5959 0.5982 0.6360 0.6639
1574.000000 0.6919 0.7198 0.7368 0.7395 0.7361
1579.000000 0.7347 0.7319 0.7254 0.7187 0.7116
1584.000000 0.7042 0.6966 0.6779 0.6591 0.6404
1589.000000 0.6255 0.6247 0.6274 0.6286 0.6401
1594.000000 0.6517 0.6632 0.6726 0.6702 0.6444
1599.000000 0.6180 0.6158 0.6492 0.6158 0.7347
1604.000000 0.7735 0.7922 0.8053 0.8155 0.8230
1609.000000 0.8305 0.8373 0.8440 0.8492 0.8533
1614.000000 0.8573 0.8600 0.8621 0.8641 0.8657
1619.000000 0.8673 0.8689 0.8697 0.8704 0.8712
1624.000000 0.8719 0.8722 0.8725 0.8725 0.8721
1629.000000 0.8711 0.8714 0.8711 0.8703 0.8696
1634.000000 0.8688 0.8678 0.8680 0.8693 0.8707
1639.000000 0.8717 0.8727 0.8725 0.8716 0.8706
1644.000000 0.8696 0.8686 0.8677 0.8668 0.8674
1649.000000 0.8691 0.8707 0.8723 0.8738 0.8738
1654.000000 0.8702 0.8656 0.8609 0.8536 0.8577
1659.000000 0.8617 0.8650 0.8671 0.8690 0.8692
1664.000000 0.8693 0.8692 0.8691 0.8690 0.8689
1669.000000 0.8686 0.8682 0.8679 0.8675 0.8671
1674.000000 0.8668 0.8665 0.8662 0.8659 0.8656
1679.000000 0.8660 0.8671 0.8683 0.8695 0.8707
1684.000000 0.8691 0.8658 0.8625 0.8580 0.8622
1689.000000 0.8659 0.8680 0.8690 0.8694 0.8697
1694.000000 0.8701 0.8701 0.8697 0.8692 0.8687
1699.000000 0.8673 0.8659 0.8620 0.8580 0.8585
1704.000000 0.8604 0.8626 0.8648 0.8665 0.8668
1709.000000 0.8671 0.8674 0.8677 0.8679 0.8682
1714.000000 0.8724 0.8791 0.8836 0.8868 0.8879
1719.000000 0.8697 0.8616 0.8639 0.8661 0.8677
1724.000000 0.8682 0.8682 0.8681 0.8676 0.8672
1729.000000 0.8665 0.8658 0.8650 0.8640 0.8627
1734.000000 0.8615 0.8603 0.8591 0.8591 0.8610
1739.000000 0.8632 0.8649 0.8659 0.8669 0.8673
1744.000000 0.8673 0.8673 0.8668 0.8664 0.8660
1749.000000 0.8654 0.8646 0.8638 0.8631 0.8624
1754.000000 0.8621 0.8617 0.8614 0.8611 0.8606
1759.000000 0.8601 0.8597 0.8592 0.8587 0.8585
1764.000000 0.8584 0.8582 0.8581 0.8580 0.8578
1769.000000 0.8577 0.8575 0.8574 0.8572 0.8571
1774.000000 0.8569 0.8568 0.8566 0.8565 0.8564
1779.000000 0.8562 0.8561 0.8559 0.8558 0.8556
1784.000000 0.8555 0.8554 0.8552 0.8551 0.8543
1789.000000 0.8533 0.8523 0.8520 0.8518 0.8518
1794.000000 0.8532 0.8559 0.8578 0.8595 0.8611
1799.000000 0.8625 0.8631 0.8637 0.8642 0.8648
1804.000000 0.8653 0.8658 0.8662 0.8663 0.8665
1809.000000 0.8666 0.8668 0.8669 0.8671 0.8672
1814.000000 0.8670 0.8669 0.8667 0.8666 0.8664
1819.000000 0.8663 0.8661 0.8660 0.8659 0.8658
1824.000000 0.8656 0.8655 0.8654 0.8653 0.8652
1829.000000 0.8651 0.8650 0.8648 0.8648 0.8647
1834.000000 0.8646 0.8646 0.8645 0.8645 0.8644
1839.000000 0.8643 0.8640 0.8636 0.8633 0.8627
1844.000000 0.8618 0.8609 0.8607 0.8611 0.8616
1849.000000 0.8621 0.8638 0.8655 0.8672 0.8661
1854.000000 0.8647 0.8635 0.8625 0.8619 0.8613
1859.000000 0.8607 0.8602 0.8597 0.8593 0.8589
1864.000000 0.8584 0.8580 0.8575 0.8571 0.8567
1869.000000 0.8562 0.8556 0.8548 0.8540 0.8535
1874.000000 0.8542 0.8549 0.8557 0.8565 0.8574
1879.000000 0.8579 0.8583 0.8587 0.8592 0.8596
1884.000000 0.8600 0.8603 0.8606 0.8610 0.8613
1889.000000 0.8617 0.8620 0.8623 0.8627 0.8630
1894.000000 0.8634 0.8639 0.8643 0.8647 0.8651
1899.000000 0.8655 0.8659 0.8660 0.8662 0.8663
1904.000000 0.8664 0.8666 0.8667 0.8668 0.8669
1909.000000 0.8671 0.8673 0.8675 0.8677 0.8679
1914.000000 0.8681 0.8683 0.8685 0.8685 0.8685
1919.000000 0.8685 0.8686 0.8686 0.8686 0.8686
1924.000000 0.8686 0.8686 0.8687 0.8687 0.8687
1929.000000 0.8687 0.8687 0.8688 0.8688 0.8688
1934.000000 0.8688 0.8687 0.8687 0.8687 0.8687
1939.000000 0.8687 0.8687 0.8687 0.8687 0.8687
1944.000000 0.8687 0.8687 0.8687 0.8687 0.8687
1949.000000 0.8687 0.8687 0.8686 0.8686 0.8686
1954.000000 0.8686 0.8686 0.8686 0.8686 0.8686
1959.000000 0.8686 0.8686 0.8686 0.8686 0.8686
1964.000000 0.8686 0.8686 0.8685 0.8685 0.8685
1969.000000 0.8685 0.8685 0.8685 0.8685 0.8685
1974.000000 0.8685 0.8685 0.8685 0.8685 0.8685
1979.000000 0.8685 0.8685 0.8685 0.8684 0.8684
1984.000000 0.8684 0.8684 0.8684 0.8684 0.8684
1989.000000 0.8684 0.8685 0.8685 0.8685 0.8685
1994.000000 0.8685 0.8686 0.8686 0.8686 0.8686
1999.000000 0.8687 0.8687 0.8687 0.8687 0.8687
2004.000000 0.8687 0.8687 0.8688 0.8688 0.8688
2009.000000 0.8688 0.8688 0.8688 0.8688 0.8688
2014.000000 0.8689 0.8689 0.8689 0.8689 0.8689
2019.000000 0.8689 0.8689 0.8689 0.8689 0.8689
2024.000000 0.8690 0.8690 0.8690 0.8690 0.8690
2029.000000 0.8689 0.8689 0.8689 0.8689 0.8688
2034.000000 0.8688 0.8688 0.8688 0.8687 0.8687
2039.000000 0.8686 0.8686 0.8686 0.8686 0.8685
2044.000000 0.8685 0.8684 0.8684 0.8684 0.8684
2049.000000 0.8683 0.8683 0.8683 0.8683 0.8682
2054.000000 0.8682 0.8681 0.8681 0.8681 0.8681
2059.000000 0.8680 0.8680 0.8680 0.8680 0.8679
2064.000000 0.8679 0.8678 0.8678 0.8678 0.8678
2069.000000 0.8677 0.8677 0.8676 0.8675 0.8674
2074.000000 0.8673 0.8671 0.8670 0.8669 0.8668
2079.000000 0.8666 0.8665 0.8664 0.8663 0.8661
2084.000000 0.8660 0.8659 0.8658 0.8657 0.8656
2089.000000 0.8654 0.8653 0.8652 0.8651 0.8649
2094.000000 0.8648 0.8647 0.8646 0.8644 0.8643
2099.000000 0.8641 0.8640 0.8639 0.8638 0.8636
2104.000000 0.8635 0.8633 0.8632 0.8631 0.8630
2109.000000 0.8632 0.8634 0.8641 0.8648 0.8651
2114.000000 0.8654 0.8656 0.8659 0.8661 0.8663
2119.000000 0.8665 0.8668 0.8670 0.8672 0.8674
2124.000000 0.8677 0.8679 0.8681 0.8683 0.8686
2129.000000 0.8687 0.8689 0.8690 0.8691 0.8692
2134.000000 0.8694 0.8697 0.8701 0.8706 0.8711
2139.000000 0.8722 0.8734 0.8754 0.8775 0.8796
2144.000000 0.8818 0.8843 0.8868 0.8873 0.8879
2149.000000 0.8851 0.8824 0.8796 0.8768 0.8742
2154.000000 0.8716 0.8710 0.8705 0.8703 0.8702
2159.000000 0.8700 0.8698 0.8696 0.8694 0.8692
2164.000000 0.8690 0.8689 0.8689 0.8688 0.8688
2169.000000 0.8687 0.8687 0.8686 0.8686 0.8686
2174.000000 0.8686 0.8686 0.8686 0.8687 0.8688
2179.000000 0.8688 0.8689 0.8689 0.8690 0.8690
2184.000000 0.8691 0.8692 0.8693 0.8693 0.8693
2189.000000 0.8693 0.8693 0.8693 0.8693 0.8693
2194.000000 0.8694 0.8694 0.8694 0.8694 0.8694
2199.000000 0.8694 0.8694 0.8694 0.8695 0.8695
2204.000000 0.8695 0.8695 0.8695 0.8695 0.8695
2209.000000 0.8695 0.8696 0.8696 0.8696 0.8696
2214.000000 0.8696 0.8696 0.8696 0.8695 0.8695
2219.000000 0.8695 0.8695 0.8695 0.8695 0.8695
2224.000000 0.8695 0.8695 0.8695 0.8695 0.8695
2229.000000 0.8695 0.8695 0.8694 0.8694 0.8694
2234.000000 0.8694 0.8693 0.8693 0.8692 0.8692
2239.000000 0.8692 0.8692 0.8691 0.8691 0.8691
2244.000000 0.8691 0.8690 0.8690 0.8689 0.8689
2249.000000 0.8689 0.8689 0.8688 0.8688 0.8687
2254.000000 0.8687 0.8687 0.8687 0.8687 0.8687
2259.000000 0.8687 0.8687 0.8687 0.8688 0.8688
2264.000000 0.8689 0.8689 0.8689 0.8689 0.8690
2269.000000 0.8690 0.8690 0.8690 0.8691 0.8691
2274.000000 0.8691 0.8691 0.8692 0.8692 0.8692
2279.000000 0.8692 0.8693 0.8693 0.8693 0.8693
2284.000000 0.8693 0.8693 0.8694 0.8694 0.8694
2289.000000 0.8694 0.8695 0.8695 0.8695 0.8695
2294.000000 0.8696 0.8696 0.8696 0.8696 0.8697
2299.000000 0.8697 0.8697 0.8697 0.8697 0.8697
2304.000000 0.8698 0.8698 0.8698 0.8698 0.8699
2309.000000 0.8699 0.8699 0.8699 0.8700 0.8700
2314.000000 0.8700 0.8701 0.8702 0.8703 0.8705
2319.000000 0.8706 0.8707 0.8708 0.8709 0.8710
2324.000000 0.8711 0.8712 0.8713 0.8714 0.8715
2329.000000 0.8716 0.8717 0.8718 0.8719 0.8720
2334.000000 0.8721 0.8722 0.8723 0.8724 0.8725
2339.000000 0.8726 0.8727 0.8728 0.8730 0.8731
2344.000000 0.8732 0.8734 0.8736 0.8737 0.8739
2349.000000 0.8740 0.8742 0.8743 0.8745 0.8747
2354.000000 0.8749 0.8750 0.8752 0.8752 0.8752
2359.000000 0.8752 0.8752 0.8751 0.8751 0.8751
2364.000000 0.8751 0.8750 0.8750 0.8750 0.8750
2369.000000 0.8749 0.8749 0.8749 0.8749 0.8748
2374.000000 0.8748 0.8748 0.8748 0.8747 0.8747
2379.000000 0.8746 0.8746 0.8746 0.8746 0.8745
2384.000000 0.8745 0.8744 0.8744 0.8744 0.8744
2389.000000 0.8743 0.8743 0.8743 0.8743 0.8742
2394.000000 0.8742 0.8741 0.8741 0.8741 0.8741
2399.000000 0.8740 0.8740 0.8740 0.8740 0.8740
2404.000000 0.8740 0.8740 0.8740 0.8740 0.8740
2409.000000 0.8739 0.8739 0.8739 0.8739 0.8739
2414.000000 0.8739 0.8739 0.8739 0.8739 0.8739
2419.000000 0.8739 0.8739 0.8739 0.8739 0.8740
2424.000000 0.8741 0.8742 0.8743 0.8744 0.8745
2429.000000 0.8746 0.8747 0.8748 0.8750 0.8751
2434.000000 0.8752 0.8753 0.8754 0.8755 0.8756
2439.000000 0.8757 0.8758 0.8759 0.8761 0.8762
2444.000000 0.8763 0.8764 0.8765 0.8764 0.8764
2449.000000 0.8763 0.8763 0.8762 0.8762 0.8761
2454.000000 0.8761 0.8760 0.8760 0.8760 0.8760
2459.000000 0.8759 0.8759 0.8758 0.8758 0.8756
2464.000000 0.8754 0.8750 0.8747 0.8744 0.8741
2469.000000 0.8737 0.8734 0.8731 0.8728 0.8724
2474.000000 0.8721 0.8719 0.8717 0.8715 0.8713
2479.000000 0.8711 0.8710 0.8710 0.8710 0.8710
2484.000000 0.8710 0.8710 0.8710 0.8710 0.8710
2489.000000 0.8710 0.8710 0.8710 0.8710 0.8710
