##TITLE=2-PROPENOIC ACID
##JCAMP-DX=4.24
##DATA TYPE=INFRARED SPECTRUM
##CLASS=COBLENTZ III
##ORIGIN=DOW CORNING CORP.
##OWNER=COBLENTZ SOCIETY
Collection (C) 2018 copyright by the U.S. Secretary of Commerce
on behalf of the United States of America. All rights reserved.
##DATE=Not specified, most likely prior to 1970
##NAMES=acrylic acid
ACRYLIC ACID
##CAS REGISTRY NO=79-10-7
##MOLFORM=C3 H4 O2
##SOURCE REFERENCE=COBLENTZ NO. 4287
##$NIST SOURCE=COBLENTZ
##$NIST IMAGE=cob4287
##SPECTROMETER/DATA SYSTEM=PERKIN-ELMER 521 (GRATING)
##INSTRUMENT PARAMETERS=FILTERS AT 3150, 2500, 2000, 1150, 700, 410; GRATING CHANGES AT 2000, 630 CM^-^1
##STATE=SOLUTION (5% IN CCl4 FOR 3800-1300, 5% IN CS2 FOR 1300-650, AND 5% IN CCl4 FOR 650-240 CM^-^1) VERSUS SOLVENT
##PATH LENGTH=0.010, 0.010, AND 0.019 CM (CsBr CELL)
##SAMPLING PROCEDURE=TRANSMISSION
##RESOLUTION=4
##DATA PROCESSING=DIGITIZED BY NIST FROM HARD COPY (FROM TWO SEGMENTS)
##XUNITS=1/CM
##YUNITS=TRANSMITTANCE
##XFACTOR=1.000000
##YFACTOR=1
##DELTAX=1.019108
##FIRSTX=226.752
##LASTX=3809.94
##FIRSTY=0.899
##MAXX=3809.94
##MINX=226.752
##MAXY=0.94
##MINY=0.001
##NPOINTS=3517
##XYDATA=(X++(Y..Y))
226.752000 0.8990 0.8990 0.8990 0.8990 0.8990
231.847540 0.9000 0.9000 0.9000 0.9020 0.9020
236.943080 0.9020 0.9020 0.9020 0.9000 0.9000
242.038621 0.8990 0.8990 0.8990 0.8970 0.8960
247.134161 0.8960 0.8960 0.8950 0.8920 0.8910
252.229701 0.8880 0.8860 0.8850 0.8820 0.8800
257.325241 0.8780 0.8770 0.8750 0.8740 0.8740
262.420782 0.8740 0.8730 0.8730 0.8730 0.8730
267.516322 0.8730 0.8730 0.8730 0.8710 0.8710
272.611862 0.8710 0.8700 0.8700 0.8680 0.8670
277.707402 0.8660 0.8640 0.8630 0.8620 0.8620
282.802943 0.8600 0.8600 0.8620 0.8620 0.8630
287.898483 0.8630 0.8630 0.8630 0.8620 0.8600
292.994023 0.8600 0.8590 0.8570 0.8560 0.8550
298.089563 0.8510 0.8480 0.8450 0.8440 0.8420
303.185103 0.8410 0.8340 0.8260 0.8160 0.8090
308.280644 0.8020 0.7950 0.7900 0.7830 0.7770
313.376184 0.7710 0.7550 0.7440 0.7330 0.7240
318.471724 0.7130 0.7030 0.6850 0.6670 0.6380
323.567264 0.5682 0.5510 0.5331 0.4991 0.4890
328.662805 0.4490 0.4300 0.4130 0.3950 0.3870
333.758345 0.3660 0.3550 0.3540 0.3570 0.3680
338.853885 0.3790 0.4010 0.4170 0.4240 0.4479
343.949425 0.4709 0.4929 0.5687 0.6516 0.6530
349.044966 0.6680 0.7100 0.7110 0.7260 0.7420
354.140506 0.7570 0.7869 0.7870 0.7999 0.8119
359.236046 0.8270 0.8300 0.8330 0.8340 0.8510
364.331586 0.8530 0.8699 0.8740 0.8800 0.8810
369.427126 0.8850 0.8860 0.8880 0.8880 0.8910
374.522667 0.8930 0.8950 0.8950 0.8960 0.8960
379.618207 0.8960 0.8960 0.8950 0.8950 0.8950
384.713747 0.8970 0.9000 0.9030 0.9060 0.9070
389.809287 0.9080 0.9100 0.9100 0.9110 0.9130
394.904828 0.9140 0.9140 0.9150 0.9150 0.9170
400.000368 0.9170 0.9180 0.9180 0.9180 0.9200
405.095908 0.9180 0.9180 0.9180 0.9180 0.9170
410.191448 0.9170 0.9150 0.9150 0.9150 0.9140
415.286989 0.9140 0.9140 0.9130 0.9130 0.9130
420.382529 0.9100 0.9070 0.9060 0.9040 0.9000
425.478069 0.8960 0.8960 0.8950 0.8930 0.8930
430.573609 0.8920 0.8910 0.8850 0.8840 0.8840
435.669149 0.8820 0.8820 0.8810 0.8800 0.8780
440.764690 0.8770 0.8770 0.8750 0.8730 0.8660
445.860230 0.8600 0.8530 0.8520 0.8510 0.8490
450.955770 0.8480 0.8460 0.8460 0.8450 0.8440
456.051310 0.8370 0.8340 0.8330 0.8330 0.8310
461.146851 0.8310 0.8300 0.8300 0.8280 0.8270
466.242391 0.8260 0.8240 0.8230 0.8200 0.8190
471.337931 0.8170 0.8150 0.8120 0.8050 0.7980
476.433471 0.7970 0.7940 0.7820 0.7800 0.7790
481.529011 0.7770 0.7770 0.7760 0.7760 0.7750
486.624552 0.7660 0.7600 0.7550 0.7530 0.7510
491.720092 0.7480 0.7470 0.7460 0.7460 0.7440
496.815632 0.7400 0.7390 0.7370 0.7360 0.7350
501.911172 0.7330 0.7320 0.7310 0.7280 0.7260
507.006713 0.7250 0.7240 0.7220 0.7081 0.7060
512.102253 0.7020 0.7000 0.6970 0.6930 0.6910
517.197793 0.6860 0.6770 0.6631 0.6620 0.6560
522.293333 0.6510 0.6510 0.6450 0.6420 0.6410
527.388874 0.6380 0.6370 0.6370 0.6370 0.6380
532.484414 0.6380 0.6400 0.6400 0.6380 0.6350
537.579954 0.6310 0.6280 0.6240 0.6220 0.6130
542.675494 0.6080 0.6020 0.5950 0.5870 0.5640
547.771034 0.5391 0.5360 0.5250 0.5180 0.5130
552.866575 0.5110 0.5110 0.5130 0.5150 0.5220
557.962115 0.5509 0.5709 0.5879 0.5900 0.6039
563.057655 0.6170 0.6420 0.6440 0.6570 0.6710
568.153195 0.6850 0.7249 0.7260 0.7459 0.7470
573.248736 0.7510 0.7550 0.7600 0.7610 0.7620
578.344276 0.7720 0.7770 0.7790 0.7929 0.8000
583.439816 0.8010 0.8040 0.8060 0.8090 0.8120
588.535356 0.8170 0.8200 0.8230 0.8240 0.8280
593.630897 0.8300 0.8310 0.8330 0.8340 0.8370
598.726437 0.8380 0.8400 0.8420 0.8440 0.8450
603.821977 0.8460 0.8460 0.8460 0.8480 0.8480
608.917517 0.8480 0.8480 0.8480 0.8480 0.8460
614.013057 0.8450 0.8420 0.8400 0.8370 0.8330
619.108598 0.8190 0.8041 0.7911 0.7791 0.7681
624.204138 0.7550 0.7440 0.7310 0.7290 0.7310
629.299678 0.7350 0.7390 0.7400 0.7430 0.7440
634.395218 0.7460 0.7460 0.7460 0.7440 0.7430
639.490759 0.7330 0.7290 0.7071 0.6851 0.6810
644.586299 0.6480 0.6120 0.5760 0.5580 0.5400
649.681839 0.5041 0.5040 0.5548 0.5819 0.6079
654.777379 0.6340 0.6600 0.7220 0.8548 0.8570
659.872920 0.8630 0.8680 0.8740 0.8770 0.8800
664.968460 0.8860 0.8960 0.9020 0.9130 0.9150
670.064000 0.9220 0.9250 0.9250 0.9260 0.9260
675.159540 0.9260 0.9280 0.9280 0.9280 0.9290
680.255080 0.9320 0.9330 0.9350 0.9350 0.9350
685.350621 0.9350 0.9350 0.9350 0.9320 0.9310
690.446161 0.9310 0.9310 0.9310 0.9310 0.9310
695.541701 0.9320 0.9320 0.9330 0.9330 0.9350
700.637241 0.9360 0.9370 0.9370 0.9370 0.9390
705.732782 0.9390 0.9400 0.9400 0.9400 0.9400
710.828322 0.9390 0.9370 0.9370 0.9350 0.9350
715.923862 0.9320 0.9310 0.9290 0.9280 0.9280
721.019402 0.9260 0.9260 0.9250 0.9250 0.9250
726.114943 0.9250 0.9250 0.9250 0.9250 0.9260
731.210483 0.9260 0.9260 0.9280 0.9280 0.9280
736.306023 0.9280 0.9260 0.9260 0.9260 0.9250
741.401563 0.9250 0.9240 0.9220 0.9210 0.9200
746.497103 0.9180 0.9170 0.9150 0.9110 0.9110
751.592644 0.9100 0.9080 0.9070 0.9060 0.9040
756.688184 0.9030 0.9020 0.9000 0.8970 0.8960
761.783724 0.8960 0.8950 0.8950 0.8950 0.8930
766.879264 0.8930 0.8930 0.8920 0.8920 0.8910
771.974805 0.8910 0.8910 0.8890 0.8890 0.8890
777.070345 0.8880 0.8850 0.8840 0.8820 0.8810
782.165885 0.8810 0.8800 0.8780 0.8780 0.8770
787.261425 0.8770 0.8770 0.8750 0.8750 0.8750
792.356966 0.8750 0.8740 0.8730 0.8730 0.8710
797.452506 0.8670 0.8630 0.8590 0.8530 0.8510
802.548046 0.8480 0.8410 0.8370 0.8340 0.8151
807.643586 0.7690 0.7640 0.7610 0.7001 0.6401
812.739126 0.5901 0.5661 0.5421 0.4932 0.4452
817.834667 0.4220 0.3970 0.4460 0.5908 0.5930
822.930207 0.6559 0.6570 0.6670 0.6770 0.7069
828.025747 0.7080 0.7100 0.7100 0.7110 0.7110
833.121287 0.7100 0.7080 0.7080 0.7060 0.7030
838.216828 0.7000 0.7000 0.6990 0.6970 0.6920
843.312368 0.6880 0.6731 0.6680 0.6660 0.6630
848.407908 0.6560 0.6480 0.6280 0.6200 0.6120
853.503448 0.6040 0.5950 0.5870 0.5621 0.5530
858.598989 0.5430 0.5250 0.5070 0.4890 0.4710
863.694529 0.4531 0.4530 0.4699 0.4879 0.5039
868.790069 0.5220 0.5570 0.5870 0.6000 0.6010
873.885609 0.6010 0.5980 0.5950 0.5940 0.5910
878.981149 0.5860 0.5820 0.5680 0.5620 0.5550
884.076690 0.5530 0.5500 0.5460 0.5420 0.5370
889.172230 0.5310 0.5140 0.5080 0.5020 0.4910
894.267770 0.4840 0.4770 0.4730 0.4660 0.4590
899.363310 0.4520 0.4230 0.4150 0.4090 0.4040
904.458851 0.3980 0.3860 0.3800 0.3760 0.3720
909.554391 0.3570 0.3430 0.3310 0.3180 0.3000
914.649931 0.2920 0.2840 0.2770 0.2680 0.2620
919.745471 0.2560 0.2530 0.2480 0.2420 0.2400
924.841011 0.2370 0.2340 0.2330 0.2330 0.2310
929.936552 0.2310 0.2310 0.2310 0.2330 0.2340
935.032092 0.2350 0.2370 0.2400 0.2569 0.2670
940.127632 0.2680 0.2810 0.2880 0.2990 0.3150
945.223172 0.3200 0.3280 0.3350 0.3400 0.3579
950.318713 0.3720 0.3730 0.4010 0.4150 0.4230
955.414253 0.4240 0.4459 0.4480 0.4480 0.4450
960.509793 0.4400 0.4370 0.4270 0.4150 0.4020
965.605333 0.3970 0.3900 0.3731 0.2735 0.2452
970.700874 0.2160 0.1570 0.0991 0.0990 0.1209
975.796414 0.1429 0.1609 0.1640 0.2048 0.2050
980.891954 0.1430 0.1180 0.1060 0.0920 0.0890
985.987494 0.1109 0.1309 0.1499 0.1689 0.2983
991.083034 0.3020 0.4109 0.4639 0.6058 0.6080
996.178575 0.6240 0.6409 0.6559 0.6729 0.7038
1001.274115 0.7350 0.7360 0.7440 0.7510 0.7580
1006.369655 0.7680 0.7730 0.7750 0.7770 0.7790
1011.465195 0.7800 0.7820 0.7830 0.7830 0.7830
1016.560736 0.7830 0.7840 0.7860 0.7860 0.7860
1021.656276 0.7830 0.7830 0.7820 0.7730 0.7710
1026.751816 0.7690 0.7680 0.7680 0.7650 0.7610
1031.847356 0.7550 0.7480 0.7440 0.7370 0.7140
1036.942897 0.7060 0.6960 0.6223 0.5513 0.5172
1042.038437 0.4820 0.4110 0.3760 0.3400 0.3400
1047.133977 0.4268 0.5646 0.6328 0.7346 0.7360
1052.229517 0.7420 0.7470 0.7500 0.7530 0.7530
1057.325057 0.7510 0.7440 0.7350 0.7211 0.7001
1062.420598 0.6880 0.6750 0.6450 0.6020 0.6020
1067.516138 0.6599 0.7029 0.7837 0.7860 0.8019
1072.611678 0.8170 0.8340 0.8530 0.8560 0.8560
1077.707218 0.8570 0.8600 0.8640 0.8710 0.8730
1082.802759 0.8740 0.8750 0.8770 0.8780 0.8810
1087.898299 0.8820 0.8850 0.8850 0.8860 0.8880
1092.993839 0.8890 0.8890 0.8910 0.8920 0.8930
1098.089379 0.8930 0.8950 0.8960 0.8960 0.8960
1103.184920 0.8950 0.8950 0.8950 0.8950 0.8950
1108.280460 0.8950 0.8930 0.8930 0.8920 0.8920
1113.376000 0.8910 0.8880 0.8850 0.8840 0.8800
1118.471540 0.8730 0.8660 0.8590 0.8560 0.8550
1123.567080 0.8520 0.8510 0.8480 0.8450 0.8450
1128.662621 0.8560 0.8590 0.8600 0.8670 0.8730
1133.758161 0.8750 0.8800 0.8810 0.8820 0.8840
1138.853701 0.8850 0.8880 0.8880 0.8890 0.8890
1143.949241 0.8890 0.8860 0.8860 0.8850 0.8840
1149.044782 0.8810 0.8800 0.8770 0.8750 0.8750
1154.140322 0.8740 0.8710 0.8680 0.8640 0.8620
1159.235862 0.8570 0.8550 0.8530 0.8510 0.8460
1164.331402 0.8400 0.8340 0.8330 0.8300 0.8230
1169.426943 0.8160 0.8090 0.8000 0.8000 0.7970
1174.522483 0.7940 0.7930 0.7930 0.7910 0.7900
1179.618023 0.7900 0.7900 0.7880 0.7880 0.7880
1184.713563 0.7880 0.7870 0.7860 0.7830 0.7820
1189.809103 0.7800 0.7790 0.7790 0.7770 0.7770
1194.904644 0.7770 0.7760 0.7730 0.7720 0.7690
1200.000184 0.7680 0.7640 0.7580 0.7540 0.7470
1205.095724 0.7400 0.7360 0.7280 0.7220 0.7040
1210.191264 0.7000 0.6950 0.6821 0.6701 0.6591
1215.286805 0.6460 0.6350 0.6240 0.5601 0.5530
1220.382345 0.5500 0.5151 0.4801 0.4740 0.4402
1225.477885 0.4080 0.3910 0.3730 0.3391 0.2672
1230.573425 0.2152 0.1622 0.1391 0.1171 0.1061
1235.668966 0.0930 0.0710 0.0480 0.0260 0.0050
1240.764506 0.0020 0.0020 0.0040 0.0130 0.0220
1245.860046 0.0310 0.0400 0.0560 0.1618 0.2129
1250.955586 0.2668 0.3198 0.4764 0.4780 0.4949
1256.051126 0.5500 0.5640 0.5660 0.5640 0.5580
1261.146667 0.5530 0.5510 0.5480 0.5400 0.5291
1266.242207 0.5180 0.5080 0.4970 0.4880 0.4551
1271.337747 0.4221 0.4051 0.3881 0.3551 0.3003
1276.433287 0.2660 0.2460 0.2260 0.1611 0.2598
1281.528828 0.2630 0.2600 0.2570 0.2460 0.2341
1286.624368 0.2130 0.2020 0.1880 0.1101 0.0910
1291.719908 0.0701 0.0281 0.0240 0.0230 0.0230
1296.815448 0.0240 0.0260 0.0270 0.0330 0.0380
1301.910989 0.0400 0.0659 0.1168 0.1389 0.1599
1307.006529 0.1870 0.2530 0.2710 0.3329 0.3939
1312.102069 0.4299 0.4958 0.4970 0.5139 0.5608
1317.197609 0.5620 0.5860 0.6090 0.6300 0.6410
1322.293149 0.6669 0.6800 0.6840 0.6949 0.7109
1327.388690 0.7140 0.7250 0.7320 0.7370 0.7430
1332.484230 0.7470 0.7500 0.7540 0.7600 0.7620
1337.579770 0.7650 0.7660 0.7690 0.7710 0.7710
1342.675310 0.7710 0.7710 0.7710 0.7710 0.7710
1347.770851 0.7710 0.7710 0.7720 0.7720 0.7710
1352.866391 0.7690 0.7690 0.7680 0.7620 0.7610
1357.961931 0.7570 0.7530 0.7510 0.7480 0.7470
1363.057471 0.7460 0.7430 0.7420 0.7370 0.7360
1368.153011 0.7310 0.7140 0.7070 0.7020 0.6950
1373.248552 0.6860 0.6820 0.6511 0.6480 0.6440
1378.344092 0.6380 0.6130 0.6000 0.5940 0.5930
1383.439632 0.5940 0.5970 0.6040 0.6090 0.6170
1388.535172 0.6190 0.6150 0.6090 0.6040 0.5950
1393.630713 0.5840 0.5800 0.5790 0.5770 0.5790
1398.726253 0.5860 0.5980 0.6000 0.6000 0.5940
1403.821793 0.5900 0.5820 0.5710 0.5581 0.5530
1408.917333 0.5470 0.5240 0.5060 0.4850 0.4800
1414.012874 0.4710 0.4590 0.4451 0.4311 0.4161
1419.108414 0.4010 0.3800 0.3600 0.3250 0.3100
1424.203954 0.2781 0.2451 0.2410 0.1972 0.1373
1429.299494 0.1080 0.0740 0.0380 0.0300 0.0270
1434.395034 0.0260 0.0260 0.0270 0.0280 0.0310
1439.490575 0.0340 0.0410 0.0590 0.0750 0.0840
1444.586115 0.1030 0.1200 0.1359 0.1529 0.1689
1449.681655 0.2060 0.2090 0.2709 0.3029 0.3349
1454.777195 0.4267 0.4280 0.4569 0.4849 0.5526
1459.872736 0.5540 0.5830 0.6110 0.6639 0.6670
1464.968276 0.6750 0.6840 0.6999 0.7080 0.7170
1470.063816 0.7220 0.7390 0.7430 0.7460 0.7470
1475.159356 0.7480 0.7510 0.7600 0.7620 0.7640
1480.254897 0.7660 0.7680 0.7710 0.7710 0.7750
1485.350437 0.7760 0.7760 0.7790 0.7790 0.7800
1490.445977 0.7820 0.7870 0.7900 0.7910 0.7950
1495.541517 0.7950 0.7970 0.7970 0.7970 0.7970
1500.637057 0.7970 0.7950 0.7950 0.7950 0.7970
1505.732598 0.7980 0.8000 0.8010 0.8020 0.8020
1510.828138 0.8050 0.8090 0.8090 0.8110 0.8120
1515.923678 0.8130 0.8150 0.8150 0.8160 0.8170
1521.019218 0.8190 0.8200 0.8200 0.8220 0.8220
1526.114759 0.8230 0.8230 0.8230 0.8230 0.8230
1531.210299 0.8230 0.8230 0.8230 0.8220 0.8220
1536.305839 0.8220 0.8200 0.8200 0.8190 0.8170
1541.401379 0.8170 0.8160 0.8160 0.8150 0.8130
1546.496920 0.8130 0.8120 0.8090 0.8060 0.8040
1551.592460 0.8010 0.7980 0.7980 0.7970 0.7970
1556.688000 0.7950 0.7940 0.7900 0.7830 0.7770
1561.783540 0.7710 0.7620 0.7610 0.7580 0.7570
1566.879080 0.7550 0.7540 0.7530 0.7470 0.7430
1571.974621 0.7350 0.7310 0.7280 0.7170 0.7140
1577.070161 0.7110 0.7100 0.7000 0.6990 0.6960
1582.165701 0.6860 0.6800 0.6770 0.6700 0.6660
1587.261241 0.6620 0.6550 0.6490 0.6371 0.6310
1592.356782 0.6160 0.5970 0.5900 0.5800 0.5690
1597.452322 0.5600 0.5540 0.5480 0.5390 0.5072
1602.547862 0.4970 0.4840 0.4660 0.4590 0.4530
1607.643402 0.4301 0.4111 0.4020 0.3930 0.3731
1612.738943 0.3330 0.2920 0.2810 0.2710 0.2620
1617.834483 0.2520 0.2460 0.2410 0.2380 0.2519
1622.930023 0.2620 0.2810 0.2970 0.3140 0.3310
1628.025563 0.3709 0.3710 0.3640 0.3550 0.3470
1633.121103 0.2680 0.2450 0.2220 0.1751 0.1291
1638.216644 0.1061 0.0821 0.0372 0.0370 0.1494
1643.312184 0.3170 0.3180 0.3999 0.4399 0.4889
1648.407724 0.5040 0.5568 0.5759 0.5860 0.5870
1653.503264 0.5860 0.5830 0.5800 0.5770 0.5750
1658.598805 0.5720 0.5710 0.5580 0.5510 0.5500
1663.694345 0.5470 0.5430 0.5370 0.5260 0.5250
1668.789885 0.5150 0.5070 0.4911 0.4810 0.4730
1673.885425 0.4630 0.4560 0.4510 0.4370 0.4230
1678.980966 0.4130 0.4060 0.3980 0.3681 0.3252
1684.076506 0.3110 0.2810 0.2630 0.2510 0.2380
1689.172046 0.2121 0.1881 0.1332 0.0971 0.0602
1694.267586 0.0520 0.0440 0.0350 0.0270 0.0220
1699.363126 0.0170 0.0150 0.0090 0.0050 0.0020
1704.458667 0.0020 0.0010 0.0010 0.0010 0.0010
1709.554207 0.0020 0.0040 0.0040 0.0040 0.0060
1714.649747 0.0080 0.0080 0.0110 0.0120 0.0150
1719.745287 0.0190 0.0280 0.0330 0.0340 0.0350
1724.840828 0.0370 0.0380 0.0400 0.0410 0.0420
1729.936368 0.0450 0.0460 0.0510 0.0590 0.0590
1735.031908 0.0710 0.0840 0.1070 0.1180 0.1310
1740.127448 0.1420 0.1759 0.2676 0.2849 0.2949
1745.222989 0.3100 0.3180 0.3250 0.3320 0.3390
1750.318529 0.3619 0.3799 0.4308 0.4678 0.4700
1755.414069 0.4800 0.4890 0.4960 0.5020 0.5319
1760.509609 0.5330 0.5549 0.5660 0.5770 0.5879
1765.605149 0.5970 0.6010 0.6080 0.6150 0.6200
1770.700690 0.6270 0.6340 0.6410 0.6440 0.6460
1775.796230 0.6460 0.6480 0.6510 0.6520 0.6530
1780.891770 0.6570 0.6620 0.6640 0.6660 0.6660
1785.987310 0.6680 0.6680 0.6700 0.6700 0.6710
1791.082851 0.6730 0.6730 0.6740 0.6780 0.6840
1796.178391 0.6860 0.6880 0.6880 0.6890 0.6930
1801.273931 0.6950 0.7000 0.7020 0.7040 0.7060
1806.369471 0.7070 0.7080 0.7080 0.7100 0.7110
1811.465011 0.7140 0.7170 0.7180 0.7180 0.7200
1816.560552 0.7200 0.7200 0.7210 0.7240 0.7250
1821.656092 0.7290 0.7320 0.7350 0.7360 0.7370
1826.751632 0.7370 0.7390 0.7390 0.7390 0.7390
1831.847172 0.7390 0.7390 0.7390 0.7390 0.7390
1836.942713 0.7390 0.7390 0.7400 0.7400 0.7400
1842.038253 0.7420 0.7420 0.7420 0.7420 0.7430
1847.133793 0.7430 0.7440 0.7460 0.7460 0.7470
1852.229333 0.7480 0.7480 0.7500 0.7500 0.7500
1857.324874 0.7500 0.7500 0.7510 0.7510 0.7540
1862.420414 0.7550 0.7570 0.7570 0.7580 0.7600
1867.515954 0.7600 0.7600 0.7600 0.7610 0.7610
1872.611494 0.7610 0.7610 0.7610 0.7610 0.7610
1877.707034 0.7620 0.7620 0.7620 0.7620 0.7620
1882.802575 0.7610 0.7610 0.7610 0.7600 0.7600
1887.898115 0.7600 0.7600 0.7600 0.7610 0.7610
1892.993655 0.7620 0.7620 0.7620 0.7620 0.7620
1898.089195 0.7620 0.7610 0.7610 0.7600 0.7570
1903.184736 0.7540 0.7530 0.7510 0.7510 0.7500
1908.280276 0.7500 0.7500 0.7500 0.7500 0.7500
1913.375816 0.7500 0.7500 0.7500 0.7480 0.7480
1918.471356 0.7480 0.7470 0.7470 0.7470 0.7470
1923.566897 0.7460 0.7440 0.7430 0.7430 0.7420
1928.662437 0.7400 0.7370 0.7350 0.7330 0.7320
1933.757977 0.7310 0.7290 0.7280 0.7240 0.7200
1938.853517 0.7170 0.7150 0.7130 0.7100 0.7070
1943.949057 0.7040 0.7020 0.7000 0.6990 0.6960
1949.044598 0.7000 0.7040 0.7080 0.7100 0.7210
1954.140138 0.7250 0.7260 0.7260 0.7260 0.7260
1959.235678 0.7280 0.7350 0.7430 0.7440 0.7460
1964.331218 0.7510 0.7580 0.7610 0.7620 0.7620
1969.426759 0.7640 0.7650 0.7660 0.7680 0.7710
1974.522299 0.7720 0.7730 0.7730 0.7730 0.7730
1979.617839 0.7750 0.7750 0.7770 0.7790 0.7790
1984.713379 0.7770 0.7760 0.7760 0.7750 0.7750
1989.808920 0.7750 0.7750 0.7760 0.7760 0.7760
1994.904460 0.7770 0.7770 0.7790 0.7800 0.7800
2000.000000 0.7830 0.7845 0.7860 0.7880 0.7900
2005.095540 0.7921 0.7940 0.7956 0.7971 0.7986
2010.191080 0.8001 0.8011 0.8021 0.8031 0.8040
2015.286621 0.8040 0.8040 0.8045 0.8050 0.8056
2020.382161 0.8062 0.8077 0.8090 0.8090 0.8092
2025.477701 0.8107 0.8120 0.8120 0.8120 0.8120
2030.573241 0.8121 0.8126 0.8130 0.8130 0.8130
2035.668782 0.8130 0.8130 0.8130 0.8130 0.8130
2040.764322 0.8133 0.8143 0.8150 0.8150 0.8150
2045.859862 0.8150 0.8150 0.8150 0.8150 0.8150
2050.955402 0.8150 0.8150 0.8147 0.8137 0.8130
2056.050943 0.8130 0.8128 0.8123 0.8120 0.8120
2061.146483 0.8120 0.8120 0.8118 0.8113 0.8110
2066.242023 0.8110 0.8106 0.8096 0.8084 0.8069
2071.337563 0.8058 0.8053 0.8048 0.8043 0.8040
2076.433103 0.8040 0.8035 0.8025 0.8015 0.8005
2081.528644 0.7995 0.7985 0.7972 0.7957 0.7929
2086.624184 0.7889 0.7859 0.7839 0.7822 0.7807
2091.719724 0.7797 0.7792 0.7790 0.7790 0.7790
2096.815264 0.7790 0.7793 0.7798 0.7806 0.7816
2101.910805 0.7823 0.7828 0.7840 0.7855 0.7867
2107.006345 0.7877 0.7890 0.7905 0.7920 0.7935
2112.101885 0.7940 0.7940 0.7937 0.7931 0.7909
2117.197425 0.7879 0.7859 0.7844 0.7836 0.7831
2122.292966 0.7826 0.7821 0.7812 0.7802 0.7796
2127.388506 0.7791 0.7790 0.7790 0.7782 0.7772
2132.484046 0.7770 0.7770 0.7770 0.7770 0.7766
2137.579586 0.7761 0.7730 0.7695 0.7668 0.7643
2142.675126 0.7631 0.7621 0.7611 0.7601 0.7559
2147.770667 0.7514 0.7487 0.7462 0.7451 0.7441
2152.866207 0.7435 0.7430 0.7425 0.7420 0.7420
2157.961747 0.7420 0.7420 0.7420 0.7425 0.7431
2163.057287 0.7481 0.7533 0.7653 0.7770 0.7780
2168.152828 0.7790 0.7795 0.7801 0.7816 0.7830
2173.248368 0.7835 0.7840 0.7840 0.7841 0.7856
2178.343908 0.7870 0.7870 0.7871 0.7876 0.7881
2183.439448 0.7891 0.7901 0.7906 0.7912 0.7922
2188.534989 0.7930 0.7930 0.7931 0.7936 0.7941
2193.630529 0.7946 0.7950 0.7950 0.7952 0.7962
2198.726069 0.7970 0.7970 0.7968 0.7957 0.7950
2203.821609 0.7950 0.7949 0.7944 0.7940 0.7940
2208.917149 0.7939 0.7933 0.7930 0.7930 0.7925
2214.012690 0.7910 0.7897 0.7887 0.7878 0.7873
2219.108230 0.7868 0.7863 0.7856 0.7846 0.7832
2224.203770 0.7812 0.7798 0.7793 0.7786 0.7776
2229.299310 0.7768 0.7763 0.7751 0.7731 0.7713
2234.394851 0.7698 0.7688 0.7683 0.7673 0.7658
2239.490391 0.7643 0.7628 0.7618 0.7612 0.7607
2244.585931 0.7602 0.7595 0.7585 0.7577 0.7572
2249.681471 0.7570 0.7570 0.7564 0.7554 0.7550
2254.777011 0.7550 0.7550 0.7550 0.7550 0.7550
2259.872552 0.7550 0.7550 0.7550 0.7550 0.7556
2264.968092 0.7567 0.7570 0.7570 0.7573 0.7578
2270.063632 0.7580 0.7580 0.7577 0.7572 0.7563
2275.159172 0.7553 0.7543 0.7533 0.7512 0.7487
2280.254713 0.7476 0.7471 0.7459 0.7443 0.7436
