##TITLE=Acetic acid, chloro-
##JCAMP-DX=4.24
##DATA TYPE=INFRARED SPECTRUM
##CLASS=COBLENTZ III
##ORIGIN=DOW CHEMICAL COMPANY
##OWNER=Copyright (C) 1987 by the Coblentz Society
Collection (C) 2018 copyright by the U.S. Secretary of Commerce
on behalf of the United States of America. All rights reserved.
##DATE=1963/01/09
##NAMES=chloroacetic acid
##CAS REGISTRY NO=79-11-8
##MOLFORM=C2 H3 Cl O2
##SOURCE REFERENCE=COBLENTZ NO. 8041
##$NIST SOURCE=COBLENTZ
##$NIST IMAGE=cob8041
##SPECTROMETER/DATA SYSTEM=DOW KBr FOREPRISM-GRATING
##INSTRUMENT PARAMETERS=BLAZED AT 3.5, 12.0, 20.0 MICRON AND CHANGED AT 5.0, 7.5, 14.9 MICRON
##STATE=SOLUTION (1% CCl4 FOR 3800-1330, 1% CS2 FOR 1330-400 CM^-^1)
##PATH LENGTH=0.01 CM, 0.01 CM
$$SPECTRAL CONTAMINATION DUE TO CS2 AROUND 855, 400 AND CCl4 AROUND 1550 CM^-^1
$$ SEE SPECTRUM NO. 5567 FOR MORE CONCENTRATED SOLUTION
##SAMPLING PROCEDURE=TRANSMISSION
##RESOLUTION=2
##DATA PROCESSING=DIGITIZED BY COBLENTZ SOCIETY (BATCH II) FROM HARD COPY
##XUNITS=1/CM
##YUNITS=TRANSMITTANCE
##XFACTOR=1.0
##YFACTOR=1
##FIRSTX=387
##LASTX=3800
##FIRSTY=0.1115
##MAXX=3800
##MINX=387
##MAXY=0.9098
##MINY=0.0065
##NPOINTS=3414
##XYDATA=(X++(Y..Y))
387.000000 0.1115 0.1118 0.1121 0.1123 0.1126
392.000000 0.1129 0.1132 0.1134 0.1136 0.1139
397.000000 0.1141 0.1144 0.1146 0.1155 0.1169
402.000000 0.1183 0.1197 0.1211 0.1232 0.1288
407.000000 0.1345 0.1455 0.1584 0.1713 0.1842
412.000000 0.1972 0.2175 0.2374 0.2476 0.2578
417.000000 0.2679 0.2772 0.2858 0.2944 0.3030
422.000000 0.3115 0.3242 0.3368 0.3438 0.3509
427.000000 0.3580 0.3671 0.3767 0.3846 0.3877
432.000000 0.3907 0.3932 0.3940 0.3948 0.3946
437.000000 0.4016 0.3936 0.3927 0.3912 0.3893
442.000000 0.3863 0.3824 0.3778 0.3717 0.3653
447.000000 0.3597 0.3543 0.3490 0.3448 0.3406
452.000000 0.3388 0.3373 0.3370 0.3373 0.3383
457.000000 0.3398 0.3417 0.3441 0.3804 0.4277
462.000000 0.4696 0.5111 0.5408 0.5534 0.5659
467.000000 0.5814 0.5995 0.6457 0.6723 0.6870
472.000000 0.7005 0.7140 0.7222 0.7297 0.7372
477.000000 0.7436 0.7494 0.7551 0.7609 0.7666
482.000000 0.7705 0.7744 0.7783 0.7822 0.7861
487.000000 0.7900 0.7933 0.7963 0.7992 0.8021
492.000000 0.8051 0.8080 0.8110 0.8137 0.8164
497.000000 0.8191 0.8219 0.8246 0.8273 0.8300
502.000000 0.8328 0.8354 0.8377 0.8400 0.8423
507.000000 0.8446 0.8469 0.8492 0.8515 0.8538
512.000000 0.8559 0.8575 0.8591 0.8607 0.8622
517.000000 0.8638 0.8654 0.8670 0.8686 0.8702
522.000000 0.8718 0.8733 0.8744 0.8755 0.8765
527.000000 0.8776 0.8787 0.8798 0.8809 0.8820
532.000000 0.8830 0.8841 0.8852 0.8853 0.8854
537.000000 0.8856 0.8857 0.8868 0.8859 0.8860
542.000000 0.8861 0.8859 0.8853 0.8847 0.8841
547.000000 0.8836 0.8822 0.8806 0.8790 0.8774
552.000000 0.8758 0.8742 0.8724 0.8701 0.8677
557.000000 0.8654 0.8631 0.8607 0.8584 0.8559
562.000000 0.8521 0.8482 0.8444 0.8405 0.8367
567.000000 0.8328 0.8283 0.8223 0.8164 0.8104
572.000000 0.8044 0.7962 0.7866 0.7770 0.7674
577.000000 0.7589 0.7506 0.7426 0.7379 0.7332
582.000000 0.7286 0.7250 0.7230 0.7236 0.7286
587.000000 0.7335 0.7340 0.7340 0.7293 0.7199
592.000000 0.7121 0.7120 0.7126 0.7127 0.7129
597.000000 0.7130 0.7129 0.7128 0.7123 0.7112
602.000000 0.7101 0.7079 0.7052 0.7015 0.6969
607.000000 0.6917 0.6865 0.6814 0.6770 0.6731
612.000000 0.6692 0.6659 0.6631 0.6604 0.6580
617.000000 0.6560 0.6541 0.6519 0.6493 0.6467
622.000000 0.6440 0.6406 0.6368 0.6329 0.6279
627.000000 0.6230 0.6178 0.6115 0.6053 0.5981
632.000000 0.5881 0.5771 0.5642 0.5387 0.5214
637.000000 0.5041 0.4868 0.4695 0.4522 0.4349
642.000000 0.4176 0.4003 0.3804 0.3651 0.3522
647.000000 0.3393 0.3260 0.3127 0.2989 0.2829
652.000000 0.2697 0.2677 0.2689 0.2671 0.2730
657.000000 0.2758 0.2793 0.2840 0.2915 0.3000
662.000000 0.3077 0.3152 0.3225 0.3299 0.3373
667.000000 0.3449 0.3525 0.3583 0.3637 0.3692
672.000000 0.3752 0.3812 0.3870 0.3928 0.3987
677.000000 0.4045 0.4106 0.4167 0.4229 0.4339
682.000000 0.4470 0.4626 0.4753 0.4929 0.5174
687.000000 0.5330 0.5480 0.5626 0.5771 0.5912
692.000000 0.6095 0.6247 0.6300 0.6352 0.6392
697.000000 0.6429 0.6467 0.6504 0.6541 0.6571
702.000000 0.6600 0.6629 0.6657 0.6686 0.6713
707.000000 0.6737 0.6760 0.6783 0.6806 0.6829
712.000000 0.6852 0.6873 0.6894 0.6916 0.6937
717.000000 0.6958 0.6980 0.6997 0.7011 0.7024
722.000000 0.7038 0.7052 0.7066 0.7079 0.7093
727.000000 0.7107 0.7119 0.7127 0.7134 0.7142
732.000000 0.7150 0.7157 0.7165 0.7172 0.7175
737.000000 0.7175 0.7176 0.7176 0.7176 0.7184
742.000000 0.7174 0.7170 0.7165 0.7161 0.7156
747.000000 0.7151 0.7142 0.7132 0.7123 0.7109
752.000000 0.7094 0.7079 0.7064 0.7048 0.7030
757.000000 0.7009 0.6989 0.6968 0.6947 0.6908
762.000000 0.6861 0.6813 0.6766 0.6706 0.6646
767.000000 0.6586 0.6524 0.6454 0.6384 0.6314
772.000000 0.6182 0.6043 0.5954 0.5866 0.5778
777.000000 0.5688 0.5567 0.5445 0.5331 0.5222
782.000000 0.5128 0.5057 0.4986 0.4915 0.4693
787.000000 0.4493 0.4350 0.4205 0.3443 0.3246
792.000000 0.3049 0.2853 0.2656 0.2459 0.2262
797.000000 0.2065 0.1868 0.1533 0.1336 0.1304
802.000000 0.1299 0.1337 0.1363 0.1471 0.1809
807.000000 0.2146 0.2484 0.2821 0.3159 0.3496
812.000000 0.3834 0.4172 0.4490 0.4639 0.4796
817.000000 0.4965 0.5160 0.5306 0.5384 0.5432
822.000000 0.5466 0.5509 0.5478 0.5472 0.5455
827.000000 0.5428 0.5380 0.5289 0.5185 0.5019
832.000000 0.4912 0.4803 0.4674 0.4533 0.4378
837.000000 0.4233 0.4094 0.3906 0.3533 0.3094
842.000000 0.2655 0.2216 0.1777 0.1466 0.1366
847.000000 0.1274 0.1204 0.1135 0.1058 0.0961
852.000000 0.0856 0.0834 0.0821 0.0823 0.0827
857.000000 0.0839 0.0861 0.0885 0.0909 0.0937
862.000000 0.0964 0.1001 0.1044 0.1086 0.1129
867.000000 0.1172 0.1215 0.1258 0.1291 0.1324
872.000000 0.1357 0.1390 0.1427 0.1466 0.1505
877.000000 0.1544 0.1584 0.1626 0.1668 0.1710
882.000000 0.1751 0.1793 0.1834 0.1879 0.1962
887.000000 0.2016 0.2067 0.2119 0.2135 0.2142
892.000000 0.2171 0.2140 0.2139 0.2131 0.2123
897.000000 0.2105 0.2086 0.2062 0.2030 0.1998
902.000000 0.1966 0.1934 0.1902 0.1873 0.1843
907.000000 0.1822 0.1815 0.1808 0.1801 0.1800
912.000000 0.1800 0.1801 0.1801 0.1802 0.1803
917.000000 0.1804 0.1805 0.1804 0.1789 0.1775
922.000000 0.1707 0.1555 0.1410 0.1315 0.1277
927.000000 0.1271 0.1279 0.1267 0.1510 0.1707
932.000000 0.1905 0.2102 0.2299 0.2497 0.2694
937.000000 0.2892 0.3089 0.3286 0.3664 0.3818
942.000000 0.3994 0.4251 0.4724 0.4835 0.4946
947.000000 0.5063 0.5198 0.5332 0.5512 0.5737
952.000000 0.5936 0.6075 0.6160 0.6244 0.6329
957.000000 0.6420 0.6512 0.6603 0.6681 0.6756
962.000000 0.6832 0.6921 0.7039 0.7138 0.7199
967.000000 0.7259 0.7320 0.7381 0.7446 0.7511
972.000000 0.7576 0.7635 0.7675 0.7716 0.7757
977.000000 0.7797 0.7837 0.7864 0.7891 0.7918
982.000000 0.7945 0.7972 0.7998 0.8025 0.8051
987.000000 0.8076 0.8101 0.8125 0.8150 0.8175
992.000000 0.8189 0.8201 0.8213 0.8226 0.8238
997.000000 0.8250 0.8262 0.8270 0.8278 0.8286
1002.000000 0.8294 0.8303 0.8311 0.8319 0.8325
1007.000000 0.8332 0.8339 0.8346 0.8353 0.8359
1012.000000 0.8365 0.8367 0.8369 0.8370 0.8372
1017.000000 0.8373 0.8371 0.8369 0.8367 0.8365
1022.000000 0.8363 0.8365 0.8393 0.8421 0.8445
1027.000000 0.8469 0.8491 0.8494 0.8496 0.8499
1032.000000 0.8497 0.8494 0.8491 0.8488 0.8485
1037.000000 0.8483 0.8481 0.8480 0.8505 0.8550
1042.000000 0.8597 0.8643 0.8684 0.8713 0.8743
1047.000000 0.8772 0.8801 0.8828 0.8856 0.8884
1052.000000 0.8911 0.8934 0.8958 0.8982 0.9004
1057.000000 0.9013 0.9022 0.9031 0.9040 0.9038
1062.000000 0.9033 0.9032 0.9029 0.9026 0.9019
1067.000000 0.9012 0.9005 0.8998 0.8991 0.8976
1072.000000 0.8961 0.8946 0.8931 0.8905 0.8876
1077.000000 0.8847 0.8817 0.8785 0.8747 0.8708
1082.000000 0.8662 0.8609 0.8556 0.8502 0.8455
1087.000000 0.8410 0.8364 0.8326 0.8291 0.8256
1092.000000 0.8193 0.8098 0.7996 0.7875 0.7746
1097.000000 0.7642 0.7559 0.7536 0.7528 0.7520
1102.000000 0.7516 0.7514 0.7453 0.7276 0.7125
1107.000000 0.6970 0.6659 0.6530 0.6484 0.6481
1112.000000 0.6500 0.6486 0.6683 0.6797 0.6911
1117.000000 0.7026 0.7140 0.7254 0.7342 0.7398
1122.000000 0.7427 0.7449 0.7457 0.7447 0.7448
1127.000000 0.7434 0.7413 0.7379 0.7245 0.7170
1132.000000 0.7095 0.7019 0.6944 0.6869 0.6793
1137.000000 0.6718 0.6643 0.6567 0.6492 0.6417
1142.000000 0.6346 0.6292 0.6239 0.6212 0.6189
1147.000000 0.6205 0.6208 0.6228 0.6265 0.6317
1152.000000 0.6352 0.6387 0.6422 0.6449 0.6467
1157.000000 0.6483 0.6489 0.6495 0.6501 0.6508
1162.000000 0.6487 0.6506 0.6504 0.6498 0.6489
1167.000000 0.6480 0.6471 0.6459 0.6447 0.6434
1172.000000 0.6405 0.6377 0.6344 0.6310 0.6274
1177.000000 0.6203 0.6135 0.6068 0.6002 0.5931
1182.000000 0.5860 0.5788 0.5714 0.5641 0.5567
1187.000000 0.5468 0.5345 0.5222 0.5088 0.4906
1192.000000 0.4720 0.4525 0.4292 0.3997 0.3792
1197.000000 0.3529 0.3224 0.2919 0.2613 0.2308
1202.000000 0.2003 0.1698 0.1392 0.1092 0.0932
1207.000000 0.0561 0.0265 0.0212 0.0189 0.0186
1212.000000 0.0177 0.0195 0.0212 0.0241 0.0296
1217.000000 0.0411 0.0496 0.0540 0.0900 0.1904
1222.000000 0.2344 0.2772 0.3029 0.3259 0.3738
1227.000000 0.4074 0.4342 0.4523 0.4709 0.4900
1232.000000 0.5084 0.5237 0.5355 0.5448 0.5511
1237.000000 0.5572 0.5608 0.5637 0.5652 0.5659
1242.000000 0.5659 0.5663 0.5653 0.5638 0.5618
1247.000000 0.5586 0.5552 0.5515 0.5460 0.5395
1252.000000 0.5325 0.5234 0.5126 0.5004 0.4872
1257.000000 0.4736 0.4596 0.4004 0.3613 0.3223
1262.000000 0.2833 0.2670 0.2670 0.2698 0.2802
1267.000000 0.2907 0.3011 0.3115 0.3233 0.3193
1272.000000 0.3125 0.2977 0.2830 0.2682 0.2535
1277.000000 0.2387 0.2240 0.2092 0.1945 0.1797
1282.000000 0.1650 0.1502 0.1355 0.1204 0.1064
1287.000000 0.1004 0.0982 0.0977 0.0979 0.0969
1292.000000 0.0994 0.1013 0.1039 0.1069 0.1105
1297.000000 0.1176 0.1239 0.1297 0.1355 0.1432
1302.000000 0.1515 0.1601 0.1687 0.1781 0.1879
1307.000000 0.2071 0.2388 0.2571 0.2899 0.3161
1312.000000 0.3353 0.3545 0.3737 0.3929 0.4164
1317.000000 0.4498 0.4963 0.5310 0.5486 0.5669
1322.000000 0.5900 0.6102 0.6263 0.6401 0.6498
1327.000000 0.6594 0.6673 0.6720 0.6767 0.6814
1332.000000 0.6847 0.6873 0.6891 0.6898 0.6904
1337.000000 0.6911 0.6922 0.6958 0.6989 0.7005
1342.000000 0.7019 0.7021 0.7031 0.7021 0.7011
1347.000000 0.7001 0.6990 0.6972 0.6953 0.6933
1352.000000 0.6913 0.6893 0.6848 0.6811 0.6811
1357.000000 0.6811 0.6811 0.6813 0.6816 0.6819
1362.000000 0.6822 0.6825 0.6829 0.6832 0.6835
1367.000000 0.6838 0.6839 0.6836 0.6832 0.6829
1372.000000 0.6823 0.6816 0.6809 0.6802 0.6780
1377.000000 0.6748 0.6711 0.6672 0.6619 0.6566
1382.000000 0.6513 0.6459 0.6402 0.6332 0.6263
1387.000000 0.6193 0.6103 0.6000 0.5891 0.5689
1392.000000 0.5495 0.5312 0.5011 0.4720 0.4432
1397.000000 0.4141 0.3898 0.3656 0.3413 0.3170
1402.000000 0.2869 0.2862 0.2855 0.2847 0.2840
1407.000000 0.2825 0.2795 0.2638 0.2485 0.2314
1412.000000 0.2150 0.1940 0.1686 0.1396 0.1139
1417.000000 0.0674 0.0535 0.0527 0.0520 0.0520
1422.000000 0.0526 0.0534 0.0542 0.0567 0.0608
1427.000000 0.0672 0.1013 0.1090 0.1224 0.1416
1432.000000 0.1613 0.1809 0.2005 0.2202 0.2398
1437.000000 0.2594 0.2791 0.2987 0.3183 0.3380
1442.000000 0.3576 0.3772 0.4160 0.4323 0.4513
1447.000000 0.4744 0.4869 0.4983 0.5096 0.5224
1452.000000 0.5356 0.5482 0.5583 0.5679 0.5744
1457.000000 0.5800 0.5826 0.5851 0.5869 0.5884
1462.000000 0.5885 0.5886 0.5879 0.5868 0.5856
1467.000000 0.5845 0.5819 0.5792 0.5752 0.5707
1472.000000 0.5626 0.5555 0.5480 0.5337 0.5203
1477.000000 0.5069 0.4936 0.4802 0.4668 0.4535
1482.000000 0.4401 0.4268 0.4134 0.4000 0.3867
1487.000000 0.3733 0.3599 0.3466 0.3332 0.3206
1492.000000 0.3073 0.2926 0.2831 0.2502 0.2380
1497.000000 0.2259 0.2135 0.2011 0.1898 0.1820
1502.000000 0.1742 0.1665 0.1587 0.1500 0.1414
1507.000000 0.1327 0.1241 0.1152 0.1059 0.0965
1512.000000 0.0872 0.0805 0.0741 0.0677 0.0613
1517.000000 0.0560 0.0521 0.0482 0.0443 0.0410
1522.000000 0.0384 0.0357 0.0330 0.0303 0.0278
1527.000000 0.0257 0.0236 0.0215 0.0195 0.0174
1532.000000 0.0161 0.0147 0.0134 0.0121 0.0112
1537.000000 0.0108 0.0103 0.0099 0.0095 0.0091
1542.000000 0.0089 0.0089 0.0089 0.0088 0.0088
1547.000000 0.0087 0.0086 0.0085 0.0084 0.0083
1552.000000 0.0082 0.0085 0.0087 0.0090 0.0093
1557.000000 0.0097 0.0101 0.0106 0.0112 0.0119
1562.000000 0.0132 0.0146 0.0159 0.0174 0.0190
1567.000000 0.0205 0.0218 0.0227 0.0235 0.0243
1572.000000 0.0251 0.0256 0.0261 0.0267 0.0272
1577.000000 0.0276 0.0281 0.0298 0.0317 0.0336
1582.000000 0.0354 0.0373 0.0392 0.0411 0.0460
1587.000000 0.0505 0.0553 0.0612 0.0670 0.0744
1592.000000 0.0820 0.0889 0.0955 0.1026 0.1120
1597.000000 0.1290 0.1732 0.2023 0.2307 0.2511
1602.000000 0.2785 0.3100 0.3293 0.3469 0.3621
1607.000000 0.3773 0.3924 0.4063 0.4202 0.4352
1612.000000 0.4533 0.4720 0.4931 0.5096 0.5252
1617.000000 0.5395 0.5527 0.5650 0.5768 0.5858
1622.000000 0.5931 0.6003 0.6075 0.6133 0.6188
1627.000000 0.6244 0.6299 0.6353 0.6388 0.6423
1632.000000 0.6458 0.6493 0.6511 0.6529 0.6547
1637.000000 0.6558 0.6560 0.6568 0.6563 0.6553
1642.000000 0.6544 0.6529 0.6509 0.6471 0.6433
1647.000000 0.6394 0.6350 0.6301 0.6251 0.6200
1652.000000 0.6145 0.6090 0.6030 0.5964 0.5898
1657.000000 0.5833 0.5771 0.5709 0.5648 0.5586
1662.000000 0.5520 0.5454 0.5389 0.5325 0.5264
1667.000000 0.5204 0.5141 0.5073 0.5004 0.4936
1672.000000 0.4868 0.4800 0.4732 0.4664 0.4596
1677.000000 0.4528 0.4459 0.4391 0.4323 0.4255
1682.000000 0.4184 0.4113 0.4006 0.3886 0.3794
1687.000000 0.3711 0.3629 0.3538 0.3431 0.3324
1692.000000 0.3216 0.3108 0.2999 0.2899 0.2808
1697.000000 0.2717 0.2625 0.2494 0.2323 0.2054
1702.000000 0.1700 0.1528 0.1307 0.1008 0.0749
1707.000000 0.0589 0.0451 0.0353 0.0268 0.0200
1712.000000 0.0141 0.0113 0.0088 0.0078 0.0075
1717.000000 0.0073 0.0071 0.0070 0.0068 0.0067
1722.000000 0.0067 0.0066 0.0066 0.0065 0.0065
1727.000000 0.0068 0.0065 0.0073 0.0075 0.0077
1732.000000 0.0080 0.0082 0.0087 0.0091 0.0095
1737.000000 0.0100 0.0104 0.0110 0.0116 0.0132
1742.000000 0.0169 0.0239 0.0297 0.0355 0.0429
1747.000000 0.0564 0.0669 0.0761 0.0853 0.1124
1752.000000 0.1323 0.1522 0.1721 0.1919 0.2118
1757.000000 0.2279 0.2402 0.2506 0.2603 0.2701
1762.000000 0.2789 0.2878 0.2967 0.3141 0.3316
1767.000000 0.3417 0.3518 0.3631 0.3780 0.3895
1772.000000 0.3986 0.4074 0.4161 0.4208 0.4237
1777.000000 0.4253 0.4261 0.4265 0.4260 0.4254
1782.000000 0.4241 0.4178 0.4096 0.4014 0.3933
1787.000000 0.3851 0.3769 0.3745 0.3763 0.3902
1792.000000 0.4042 0.4181 0.4320 0.4459 0.4599
1797.000000 0.4738 0.4877 0.4994 0.5048 0.5090
1802.000000 0.5114 0.5133 0.5143 0.5153 0.5164
1807.000000 0.5174 0.5184 0.5194 0.5204 0.5219
1812.000000 0.5239 0.5258 0.5286 0.5323 0.5364
1817.000000 0.5422 0.5509 0.5650 0.5763 0.5869
1822.000000 0.5956 0.6042 0.6120 0.6197 0.6254
1827.000000 0.6300 0.6347 0.6393 0.6428 0.6459
1832.000000 0.6490 0.6512 0.6532 0.6551 0.6570
1837.000000 0.6590 0.6609 0.6629 0.6648 0.6660
1842.000000 0.6672 0.6684 0.6695 0.6707 0.6715
1847.000000 0.6720 0.6725 0.6729 0.6734 0.6739
1852.000000 0.6748 0.6759 0.6769 0.6779 0.6790
1857.000000 0.6803 0.6820 0.6837 0.6854 0.6871
1862.000000 0.6896 0.6922 0.6948 0.6987 0.7013
1867.000000 0.7039 0.7065 0.7090 0.7116 0.7141
1872.000000 0.7163 0.7179 0.7195 0.7212 0.7228
1877.000000 0.7245 0.7261 0.7278 0.7292 0.7302
1882.000000 0.7312 0.7322 0.7332 0.7343 0.7352
1887.000000 0.7359 0.7366 0.7374 0.7381 0.7388
1892.000000 0.7396 0.7403 0.7408 0.7413 0.7419
1897.000000 0.7424 0.7429 0.7434 0.7440 0.7445
1902.000000 0.7450 0.7457 0.7465 0.7474 0.7483
1907.000000 0.7492 0.7503 0.7513 0.7523 0.7533
1912.000000 0.7543 0.7553 0.7564 0.7575 0.7586
1917.000000 0.7596 0.7601 0.7607 0.7613 0.7619
1922.000000 0.7625 0.7628 0.7628 0.7627 0.7626
1927.000000 0.7626 0.7625 0.7625 0.7624 0.7623
1932.000000 0.7621 0.7618 0.7616 0.7614 0.7611
1937.000000 0.7609 0.7607 0.7605 0.7601 0.7598
1942.000000 0.7594 0.7590 0.7587 0.7588 0.7599
1947.000000 0.7610 0.7662 0.7665 0.7626 0.7594
1952.000000 0.7562 0.7558 0.7558 0.7577 0.7923
1957.000000 0.8381 0.8840 0.9098 0.8943 0.8545
1962.000000 0.8148 0.7750 0.7514 0.7506 0.7502
1967.000000 0.7498 0.7493 0.7490 0.7487 0.7482
1972.000000 0.7476 0.7470 0.7464 0.7458 0.7452
1977.000000 0.7445 0.7439 0.7435 0.7430 0.7425
1982.000000 0.7420 0.7415 0.7408 0.7401 0.7393
1987.000000 0.7386 0.7378 0.7370 0.7354 0.7337
1992.000000 0.7301 0.7262 0.7216 0.7230 0.7245
1997.000000 0.7262 0.7280 0.7289 0.7295 0.7300
2002.000000 0.7306 0.7308 0.7311 0.7314 0.7317
2007.000000 0.7321 0.7326 0.7331 0.7336 0.7341
2012.000000 0.7346 0.7355 0.7364 0.7374 0.7385
2017.000000 0.7398 0.7411 0.7427 0.7443 0.7458
2022.000000 0.7473 0.7487 0.7501 0.7512 0.7524
2027.000000 0.7536 0.7548 0.7557 0.7566 0.7574
2032.000000 0.7582 0.7590 0.7598 0.7604 0.7611
2037.000000 0.7616 0.7622 0.7626 0.7631 0.7634
2042.000000 0.7638 0.7641 0.7645 0.7649 0.7653
2047.000000 0.7656 0.7659 0.7662 0.7665 0.7668
2052.000000 0.7671 0.7674 0.7678 0.7681 0.7684
2057.000000 0.7688 0.7692 0.7696 0.7701 0.7706
2062.000000 0.7711 0.7715 0.7719 0.7723 0.7728
2067.000000 0.7732 0.7736 0.7740 0.7744 0.7746
2072.000000 0.7748 0.7750 0.7752 0.7753 0.7755
2077.000000 0.7756 0.7758 0.7756 0.7755 0.7753
2082.000000 0.7752 0.7750 0.7748 0.7746 0.7744
2087.000000 0.7742 0.7741 0.7739 0.7737 0.7735
2092.000000 0.7734 0.7732 0.7730 0.7728 0.7727
2097.000000 0.7724 0.7722 0.7717 0.7712 0.7707
2102.000000 0.7703 0.7698 0.7693 0.7688 0.7684
2107.000000 0.7679 0.7674 0.7669 0.7665 0.7658
2112.000000 0.7651 0.7642 0.7634 0.7625 0.7617
2117.000000 0.7608 0.7600 0.7591 0.7583 0.7572
2122.000000 0.7562 0.7550 0.7539 0.7530 0.7527
2127.000000 0.7522 0.7524 0.7529 0.7535 0.7541
2132.000000 0.7547 0.7552 0.7558 0.7564 0.7571
2137.000000 0.7579 0.7587 0.7597 0.7608 0.7619
2142.000000 0.7630 0.7641 0.7652 0.7663 0.7674
2147.000000 0.7684 0.7695 0.7705 0.7716 0.7725
2152.000000 0.7734 0.7741 0.7748 0.7754 0.7761
2157.000000 0.7766 0.7771 0.7772 0.7773 0.7774
2162.000000 0.7775 0.7773 0.7772 0.7769 0.7766
2167.000000 0.7764 0.7762 0.7759 0.7757 0.7754
2172.000000 0.7752 0.7747 0.7743 0.7738 0.7733
2177.000000 0.7728 0.7723 0.7717 0.7712 0.7706
2182.000000 0.7700 0.7694 0.7688 0.7682 0.7676
2187.000000 0.7669 0.7663 0.7657 0.7651 0.7645
2192.000000 0.7639 0.7631 0.7624 0.7616 0.7609
2197.000000 0.7601 0.7594 0.7586 0.7579 0.7571
2202.000000 0.7564 0.7556 0.7549 0.7541 0.7534
2207.000000 0.7526 0.7519 0.7511 0.7504 0.7496
2212.000000 0.7489 0.7481 0.7473 0.7465 0.7458
2217.000000 0.7450 0.7442 0.7434 0.7426 0.7421
2222.000000 0.7417 0.7415 0.7414 0.7412 0.7411
2227.000000 0.7409 0.7408 0.7406 0.7405 0.7402
2232.000000 0.7400 0.7398 0.7396 0.7393 0.7391
2237.000000 0.7388 0.7386 0.7383 0.7381 0.7376
2242.000000 0.7371 0.7365 0.7359 0.7353 0.7348
2247.000000 0.7341 0.7334 0.7319 0.7304 0.7289
2252.000000 0.7274 0.7258 0.7243 0.7224 0.7205
2257.000000 0.7184 0.7164 0.7143 0.7123 0.7091
2262.000000 0.7059 0.7026 0.6994 0.6961 0.6928
2267.000000 0.6888 0.6848 0.6808 0.6769 0.6740
2272.000000 0.6711 0.6682 0.6653 0.6617 0.6582
2277.000000 0.6540 0.6499 0.6457 0.6416 0.6371
2282.000000 0.6327 0.6281 0.6235 0.6209 0.6184
2287.000000 0.6162 0.6140 0.6119 0.6098 0.6078
2292.000000 0.6059 0.6051 0.6029 0.6044 0.6044
2297.000000 0.6044 0.6045 0.6048 0.6051 0.6054
2302.000000 0.6057 0.6060 0.6063 0.6066 0.6070
2307.000000 0.6074 0.6079 0.6084 0.6089 0.6093
2312.000000 0.6097 0.6101 0.6105 0.6109 0.6113
2317.000000 0.6117 0.6122 0.6127 0.6132 0.6137
2322.000000 0.6142 0.6147 0.6152 0.6156 0.6161
2327.000000 0.6166 0.6171 0.6176 0.6181 0.6186
2332.000000 0.6191 0.6196 0.6201 0.6206 0.6211
2337.000000 0.6217 0.6223 0.6230 0.6237 0.6249
2342.000000 0.6261 0.6273 0.6286 0.6303 0.6321
2347.000000 0.6345 0.6369 0.6393 0.6418 0.6440
2352.000000 0.6463 0.6493 0.6524 0.6545 0.6567
2357.000000 0.6582 0.6597 0.6612 0.6628 0.6642
2362.000000 0.6656 0.6669 0.6682 0.6694 0.6706
2367.000000 0.6710 0.6714 0.6718 0.6723 0.6727
2372.000000 0.6731 0.6732 0.6734 0.6735 0.6736
2377.000000 0.6737 0.6735 0.6737 0.6736 0.6733
2382.000000 0.6731 0.6729 0.6727 0.6724 0.6721
2387.000000 0.6715 0.6710 0.6704 0.6699 0.6693
2392.000000 0.6688 0.6682 0.6677 0.6670 0.6664
2397.000000 0.6656 0.6648 0.6640 0.6632 0.6624
