##TITLE=1,1,2,2-Tetrabromoethane
##JCAMP-DX=4.24
$$ By DXEDIT 1.05 (RS McDonald)
##DATA TYPE=INFRARED SPECTRUM
##CLASS=COBLENTZ III
##ORIGIN=DOW CHEMICAL COMPANY
##OWNER=COPYRIGHT (C) 1988 by COBLENTZ SOCIETY INC.
Collection (C) 2018 copyright by the U.S. Secretary of Commerce
on behalf of the United States of America. All rights reserved.
##DATE=1961/07/31
##CAS REGISTRY NO=79-27-6
##MOLFORM=C2 H2 Br4
##SOURCE REFERENCE=COBLENTZ NO. 5708
##$NIST SOURCE=COBLENTZ
##$NIST IMAGE=cob5708
##SPECTROMETER/DATA SYSTEM=DOW KBr FOREPRISM-GRATING
##INSTRUMENT PARAMETERS=BLAZED AT 3.5, 12.0, 20.0 MICRON AND CHANGED AT 5.0, 7.5, 14.9 MICRON
##STATE=SOLUTION (10% CCl4 FOR 3800-1330, 10% CS2 FOR 1330-450)
##PATH LENGTH=0.0108 CM, 0.0114 CM
$$SPECTRAL CONTAMINATION DUE TO CS2 AROUND 850 AND CCl4 AROUND 1550 CM^-^1 HAVE BEEN SUBTRACTED
##SAMPLING PROCEDURE=TRANSMISSION
##RESOLUTION=2
##DATA PROCESSING=DIGITIZED BY COBLENTZ SOCIETY (BATCH I) FROM HARD COPY
##XUNITS=1/CM
##YUNITS=TRANSMITTANCE
##XFACTOR=1
##YFACTOR=1
##DELTAX=1
##FIRSTX=3790
##LASTX=442
##FIRSTY=0.9178
##MAXX=3790
##MINX=442
##MAXY=0.9337
##MINY=0.141
##NPOINTS=3349
##XYDATA=(X++(Y..Y))
3790.000000 0.9178 0.9179 0.9181 0.9186 0.9192
3785.000000 0.9197 0.9193 0.9194 0.9200 0.9218
3780.000000 0.9228 0.9213 0.9222 0.9221 0.9218
3775.000000 0.9200 0.9212 0.9209 0.9206 0.9206
3770.000000 0.9206 0.9206 0.9206 0.9215 0.9223
3765.000000 0.9231 0.9239 0.9238 0.9237 0.9236
3760.000000 0.9243 0.9241 0.9233 0.9230 0.9226
3755.000000 0.9221 0.9216 0.9211 0.9205 0.9201
3750.000000 0.9197 0.9192 0.9187 0.9182 0.9177
3745.000000 0.9172 0.9167 0.9164 0.9162 0.9159
3740.000000 0.9157 0.9157 0.9167 0.9172 0.9177
3735.000000 0.9184 0.9184 0.9183 0.9199 0.9212
3730.000000 0.9219 0.9225 0.9232 0.9238 0.9244
3725.000000 0.9251 0.9257 0.9262 0.9269 0.9273
3720.000000 0.9278 0.9267 0.9272 0.9290 0.9295
3715.000000 0.9299 0.9303 0.9306 0.9314 0.9321
3710.000000 0.9317 0.9320 0.9314 0.9306 0.9298
3705.000000 0.9291 0.9283 0.9276 0.9269 0.9260
3700.000000 0.9252 0.9243 0.9235 0.9227 0.9206
3695.000000 0.9196 0.9187 0.9181 0.9176 0.9170
3690.000000 0.9166 0.9160 0.9157 0.9148 0.9132
3685.000000 0.9129 0.9126 0.9125 0.9125 0.9129
3680.000000 0.9133 0.9136 0.9140 0.9148 0.9155
3675.000000 0.9169 0.9183 0.9201 0.9221 0.9221
3670.000000 0.9235 0.9224 0.9223 0.9223 0.9223
3665.000000 0.9223 0.9222 0.9221 0.9220 0.9218
3660.000000 0.9217 0.9214 0.9213 0.9212 0.9212
3655.000000 0.9212 0.9213 0.9213 0.9214 0.9214
3650.000000 0.9215 0.9227 0.9239 0.9249 0.9261
3645.000000 0.9261 0.9263 0.9262 0.9261 0.9259
3640.000000 0.9258 0.9244 0.9229 0.9219 0.9211
3635.000000 0.9208 0.9206 0.9207 0.9216 0.9216
3630.000000 0.9211 0.9199 0.9204 0.9211 0.9211
3625.000000 0.9210 0.9208 0.9208 0.9208 0.9207
3620.000000 0.9206 0.9205 0.9204 0.9202 0.9201
3615.000000 0.9199 0.9198 0.9196 0.9195 0.9194
3610.000000 0.9193 0.9192 0.9180 0.9193 0.9193
3605.000000 0.9193 0.9193 0.9190 0.9185 0.9197
3600.000000 0.9194 0.9188 0.9199 0.9210 0.9213
3595.000000 0.9213 0.9213 0.9211 0.9211 0.9210
3590.000000 0.9208 0.9208 0.9172 0.9205 0.9203
3585.000000 0.9202 0.9201 0.9200 0.9199 0.9196
3580.000000 0.9193 0.9189 0.9184 0.9180 0.9172
3575.000000 0.9162 0.9169 0.9164 0.9154 0.9140
3570.000000 0.9137 0.9132 0.9128 0.9124 0.9120
3565.000000 0.9116 0.9111 0.9107 0.9103 0.9097
3560.000000 0.9090 0.9084 0.9078 0.9071 0.9066
3555.000000 0.9073 0.9053 0.9047 0.9056 0.9050
3550.000000 0.9042 0.9030 0.9035 0.9030 0.9024
3545.000000 0.9012 0.9005 0.9008 0.9004 0.9004
3540.000000 0.8995 0.8999 0.8994 0.9000 0.9004
3535.000000 0.9004 0.9004 0.9004 0.9004 0.9004
3530.000000 0.9004 0.8989 0.8989 0.8989 0.8989
3525.000000 0.8989 0.8989 0.8989 0.8989 0.8988
3520.000000 0.8987 0.8984 0.8982 0.8979 0.8977
3515.000000 0.8973 0.8971 0.8968 0.8966 0.8963
3510.000000 0.8961 0.8956 0.8950 0.8940 0.8931
3505.000000 0.8924 0.8917 0.8910 0.8905 0.8900
3500.000000 0.8896 0.8894 0.8891 0.8889 0.8887
3495.000000 0.8884 0.8884 0.8882 0.8880 0.8877
3490.000000 0.8875 0.8871 0.8869 0.8866 0.8863
3485.000000 0.8860 0.8857 0.8853 0.8850 0.8847
3480.000000 0.8845 0.8842 0.8839 0.8835 0.8831
3475.000000 0.8829 0.8826 0.8823 0.8820 0.8815
3470.000000 0.8810 0.8804 0.8799 0.8793 0.8788
3465.000000 0.8782 0.8777 0.8770 0.8765 0.8759
3460.000000 0.8754 0.8748 0.8743 0.8737 0.8732
3455.000000 0.8725 0.8719 0.8713 0.8706 0.8700
3450.000000 0.8694 0.8686 0.8680 0.8673 0.8666
3445.000000 0.8660 0.8654 0.8646 0.8640 0.8633
3440.000000 0.8626 0.8620 0.8614 0.8608 0.8601
3435.000000 0.8595 0.8589 0.8581 0.8575 0.8569
3430.000000 0.8561 0.8555 0.8550 0.8543 0.8537
3425.000000 0.8519 0.8523 0.8516 0.8510 0.8505
3420.000000 0.8498 0.8491 0.8486 0.8478 0.8472
3415.000000 0.8465 0.8459 0.8453 0.8448 0.8444
3410.000000 0.8438 0.8435 0.8431 0.8434 0.8388
3405.000000 0.8422 0.8421 0.8418 0.8417 0.8414
3400.000000 0.8414 0.8412 0.8411 0.8411 0.8412
3395.000000 0.8412 0.8414 0.8414 0.8414 0.8414
3390.000000 0.8416 0.8416 0.8417 0.8417 0.8418
3385.000000 0.8420 0.8422 0.8426 0.8429 0.8432
3380.000000 0.8435 0.8438 0.8441 0.8444 0.8447
3375.000000 0.8450 0.8453 0.8456 0.8459 0.8463
3370.000000 0.8479 0.8472 0.8475 0.8479 0.8484
3365.000000 0.8489 0.8494 0.8498 0.8504 0.8508
3360.000000 0.8514 0.8518 0.8524 0.8528 0.8533
3355.000000 0.8539 0.8546 0.8552 0.8557 0.8563
3350.000000 0.8571 0.8578 0.8585 0.8592 0.8598
3345.000000 0.8616 0.8626 0.8620 0.8638 0.8631
3340.000000 0.8637 0.8642 0.8662 0.8668 0.8672
3335.000000 0.8665 0.8671 0.8675 0.8683 0.8687
3330.000000 0.8692 0.8694 0.8696 0.8698 0.8701
3325.000000 0.8704 0.8707 0.8709 0.8712 0.8712
3320.000000 0.8713 0.8713 0.8713 0.8713 0.8714
3315.000000 0.8714 0.8714 0.8714 0.8729 0.8730
3310.000000 0.8731 0.8733 0.8732 0.8726 0.8739
3305.000000 0.8742 0.8739 0.8732 0.8734 0.8736
3300.000000 0.8738 0.8741 0.8744 0.8747 0.8750
3295.000000 0.8753 0.8757 0.8760 0.8763 0.8766
3290.000000 0.8769 0.8772 0.8775 0.8778 0.8782
3285.000000 0.8784 0.8787 0.8805 0.8809 0.8800
3280.000000 0.8808 0.8824 0.8826 0.8819 0.8829
3275.000000 0.8843 0.8848 0.8853 0.8858 0.8862
3270.000000 0.8867 0.8871 0.8877 0.8881 0.8886
3265.000000 0.8890 0.8894 0.8899 0.8904 0.8908
3260.000000 0.8913 0.8917 0.8922 0.8925 0.8918
3255.000000 0.8935 0.8939 0.8944 0.8948 0.8953
3250.000000 0.8958 0.8962 0.8967 0.8969 0.8971
3245.000000 0.8966 0.8968 0.8977 0.8979 0.8981
3240.000000 0.8983 0.8985 0.8987 0.8990 0.8993
3235.000000 0.8995 0.8998 0.9000 0.9003 0.9006
3230.000000 0.9009 0.9013 0.9016 0.9016 0.9006
3225.000000 0.9012 0.9028 0.9033 0.9040 0.9045
3220.000000 0.9050 0.9055 0.9062 0.9062 0.9062
3215.000000 0.9061 0.9061 0.9060 0.9060 0.9058
3210.000000 0.9058 0.9052 0.9035 0.9028 0.9021
3205.000000 0.9024 0.9026 0.9029 0.9032 0.9033
3200.000000 0.9039 0.9053 0.9047 0.9058 0.9054
3195.000000 0.9068 0.9071 0.9074 0.9078 0.9081
3190.000000 0.9077 0.9081 0.9092 0.9095 0.9087
3185.000000 0.9085 0.9089 0.9092 0.9096 0.9098
3180.000000 0.9100 0.9102 0.9104 0.9106 0.9109
3175.000000 0.9111 0.9113 0.9115 0.9117 0.9119
3170.000000 0.9122 0.9124 0.9127 0.9129 0.9131
3165.000000 0.9133 0.9143 0.9152 0.9148 0.9152
3160.000000 0.9160 0.9163 0.9155 0.9162 0.9154
3155.000000 0.9151 0.9162 0.9164 0.9163 0.9162
3150.000000 0.9159 0.9159 0.9144 0.9144 0.9146
3145.000000 0.9146 0.9147 0.9148 0.9149 0.9155
3140.000000 0.9167 0.9167 0.9168 0.9169 0.9169
3135.000000 0.9170 0.9171 0.9172 0.9173 0.9174
3130.000000 0.9175 0.9175 0.9176 0.9177 0.9178
3125.000000 0.9179 0.9180 0.9180 0.9181 0.9182
3120.000000 0.9183 0.9183 0.9184 0.9185 0.9186
3115.000000 0.9187 0.9188 0.9188 0.9189 0.9190
3110.000000 0.9191 0.9191 0.9192 0.9201 0.9209
3105.000000 0.9209 0.9210 0.9210 0.9210 0.9210
3100.000000 0.9222 0.9225 0.9225 0.9239 0.9256
3095.000000 0.9272 0.9272 0.9272 0.9270 0.9256
3090.000000 0.9253 0.9237 0.9226 0.9230 0.9236
3085.000000 0.9219 0.9209 0.9208 0.9207 0.9206
3080.000000 0.9205 0.9204 0.9213 0.9227 0.9232
3075.000000 0.9231 0.9242 0.9244 0.9230 0.9227
3070.000000 0.9227 0.9211 0.9225 0.9208 0.9207
3065.000000 0.9206 0.9204 0.9189 0.9188 0.9186
3060.000000 0.9188 0.9197 0.9196 0.9187 0.9176
3055.000000 0.9180 0.9180 0.9170 0.9170 0.9177
3050.000000 0.9181 0.9178 0.9177 0.9173 0.9184
3045.000000 0.9184 0.9196 0.9208 0.9222 0.9236
3040.000000 0.9249 0.9246 0.9242 0.9237 0.9218
3035.000000 0.9201 0.9194 0.9173 0.9160 0.9155
3030.000000 0.9147 0.9135 0.9131 0.9113 0.9096
3025.000000 0.9086 0.9075 0.9059 0.9043 0.9023
3020.000000 0.9006 0.8992 0.8971 0.8939 0.8896
3015.000000 0.8864 0.8832 0.8799 0.8767 0.8734
3010.000000 0.8701 0.8675 0.8647 0.8609 0.8588
3005.000000 0.8559 0.8520 0.8464 0.8406 0.8363
3000.000000 0.8328 0.8291 0.8248 0.8217 0.8189
2995.000000 0.8059 0.7933 0.7745 0.7553 0.7508
2990.000000 0.7463 0.7458 0.7398 0.7447 0.7441
2985.000000 0.7443 0.7446 0.7473 0.7499 0.7601
2980.000000 0.7709 0.7822 0.7924 0.8019 0.8127
2975.000000 0.8227 0.8327 0.8426 0.8525 0.8624
2970.000000 0.8725 0.8832 0.8939 0.8998 0.9056
2965.000000 0.9078 0.9100 0.9120 0.9141 0.9147
2960.000000 0.9153 0.9174 0.9179 0.9171 0.9177
2955.000000 0.9182 0.9192 0.9208 0.9213 0.9217
2950.000000 0.9220 0.9222 0.9225 0.9222 0.9217
2945.000000 0.9219 0.9231 0.9232 0.9238 0.9234
2940.000000 0.9241 0.9245 0.9245 0.9244 0.9244
2935.000000 0.9230 0.9229 0.9229 0.9229 0.9229
2930.000000 0.9228 0.9227 0.9226 0.9225 0.9224
2925.000000 0.9223 0.9223 0.9222 0.9215 0.9205
2920.000000 0.9205 0.9204 0.9202 0.9201 0.9201
2915.000000 0.9200 0.9198 0.9198 0.9197 0.9194
2910.000000 0.9205 0.9193 0.9204 0.9205 0.9189
2905.000000 0.9188 0.9187 0.9185 0.9185 0.9189
2900.000000 0.9193 0.9196 0.9200 0.9203 0.9208
2895.000000 0.9211 0.9215 0.9218 0.9222 0.9225
2890.000000 0.9230 0.9232 0.9234 0.9236 0.9238
2885.000000 0.9240 0.9242 0.9243 0.9246 0.9248
2880.000000 0.9251 0.9250 0.9250 0.9236 0.9250
2875.000000 0.9250 0.9250 0.9250 0.9250 0.9250
2870.000000 0.9250 0.9250 0.9250 0.9249 0.9249
2865.000000 0.9246 0.9246 0.9243 0.9243 0.9241
2860.000000 0.9239 0.9236 0.9235 0.9233 0.9232
2855.000000 0.9229 0.9212 0.9205 0.9201 0.9196
2850.000000 0.9192 0.9187 0.9182 0.9180 0.9189
2845.000000 0.9184 0.9176 0.9165 0.9175 0.9175
2840.000000 0.9171 0.9171 0.9181 0.9183 0.9177
2835.000000 0.9173 0.9175 0.9177 0.9178 0.9181
2830.000000 0.9182 0.9197 0.9190 0.9203 0.9207
2825.000000 0.9195 0.9199 0.9218 0.9208 0.9226
2820.000000 0.9231 0.9231 0.9223 0.9227 0.9230
2815.000000 0.9232 0.9232 0.9232 0.9230 0.9229
2810.000000 0.9227 0.9227 0.9235 0.9237 0.9233
2805.000000 0.9228 0.9224 0.9220 0.9217 0.9212
2800.000000 0.9208 0.9205 0.9202 0.9200 0.9199
2795.000000 0.9197 0.9197 0.9197 0.9194 0.9188
2790.000000 0.9199 0.9190 0.9192 0.9194 0.9196
2785.000000 0.9205 0.9216 0.9211 0.9205 0.9216
2780.000000 0.9225 0.9226 0.9228 0.9228 0.9229
2775.000000 0.9229 0.9230 0.9230 0.9231 0.9231
2770.000000 0.9232 0.9232 0.9233 0.9233 0.9234
2765.000000 0.9234 0.9235 0.9235 0.9236 0.9236
2760.000000 0.9237 0.9237 0.9237 0.9237 0.9237
2755.000000 0.9237 0.9237 0.9237 0.9237 0.9237
2750.000000 0.9237 0.9237 0.9237 0.9236 0.9236
2745.000000 0.9236 0.9236 0.9236 0.9236 0.9236
2740.000000 0.9236 0.9236 0.9236 0.9236 0.9236
2735.000000 0.9236 0.9236 0.9235 0.9235 0.9235
2730.000000 0.9235 0.9234 0.9234 0.9232 0.9232
2725.000000 0.9231 0.9231 0.9230 0.9230 0.9229
2720.000000 0.9229 0.9229 0.9229 0.9228 0.9228
2715.000000 0.9227 0.9227 0.9226 0.9226 0.9226
2710.000000 0.9227 0.9227 0.9228 0.9228 0.9228
2705.000000 0.9228 0.9229 0.9229 0.9230 0.9230
2700.000000 0.9231 0.9231 0.9232 0.9232 0.9233
2695.000000 0.9233 0.9233 0.9233 0.9234 0.9234
2690.000000 0.9235 0.9235 0.9235 0.9234 0.9234
2685.000000 0.9234 0.9234 0.9233 0.9233 0.9233
2680.000000 0.9233 0.9232 0.9232 0.9231 0.9231
2675.000000 0.9231 0.9231 0.9230 0.9230 0.9230
2670.000000 0.9230 0.9228 0.9228 0.9227 0.9227
2665.000000 0.9227 0.9227 0.9226 0.9226 0.9226
2660.000000 0.9226 0.9225 0.9227 0.9239 0.9238
2655.000000 0.9237 0.9236 0.9235 0.9235 0.9228
2650.000000 0.9218 0.9217 0.9223 0.9230 0.9229
2645.000000 0.9219 0.9211 0.9210 0.9220 0.9212
2640.000000 0.9208 0.9207 0.9206 0.9205 0.9205
2635.000000 0.9205 0.9220 0.9220 0.9220 0.9206
2630.000000 0.9208 0.9221 0.9221 0.9221 0.9222
2625.000000 0.9222 0.9222 0.9222 0.9222 0.9222
2620.000000 0.9223 0.9223 0.9223 0.9223 0.9224
2615.000000 0.9224 0.9224 0.9224 0.9224 0.9224
2610.000000 0.9225 0.9225 0.9225 0.9225 0.9226
2605.000000 0.9226 0.9227 0.9227 0.9227 0.9227
2600.000000 0.9228 0.9228 0.9229 0.9229 0.9230
2595.000000 0.9230 0.9230 0.9230 0.9231 0.9231
2590.000000 0.9232 0.9232 0.9233 0.9233 0.9233
2585.000000 0.9233 0.9233 0.9233 0.9232 0.9231
2580.000000 0.9230 0.9229 0.9228 0.9227 0.9225
2575.000000 0.9224 0.9223 0.9221 0.9220 0.9219
2570.000000 0.9218 0.9217 0.9216 0.9215 0.9214
2565.000000 0.9212 0.9212 0.9208 0.9208 0.9206
2560.000000 0.9204 0.9201 0.9200 0.9198 0.9197
2555.000000 0.9195 0.9192 0.9191 0.9190 0.9190
2550.000000 0.9191 0.9192 0.9193 0.9195 0.9199
2545.000000 0.9203 0.9207 0.9211 0.9215 0.9220
2540.000000 0.9224 0.9228 0.9232 0.9237 0.9241
2535.000000 0.9245 0.9249 0.9252 0.9256 0.9259
2530.000000 0.9261 0.9261 0.9261 0.9261 0.9263
2525.000000 0.9263 0.9264 0.9264 0.9264 0.9264
2520.000000 0.9264 0.9264 0.9266 0.9266 0.9266
2515.000000 0.9266 0.9264 0.9260 0.9259 0.9256
2510.000000 0.9255 0.9252 0.9250 0.9248 0.9246
2505.000000 0.9242 0.9240 0.9237 0.9235 0.9235
2500.000000 0.9236 0.9236 0.9236 0.9236 0.9236
2495.000000 0.9236 0.9237 0.9237 0.9237 0.9237
2490.000000 0.9237 0.9237 0.9238 0.9238 0.9238
2485.000000 0.9237 0.9237 0.9237 0.9237 0.9245
2480.000000 0.9251 0.9251 0.9251 0.9250 0.9250
2475.000000 0.9250 0.9250 0.9249 0.9249 0.9249
2470.000000 0.9249 0.9248 0.9248 0.9247 0.9245
2465.000000 0.9243 0.9242 0.9241 0.9240 0.9239
2460.000000 0.9238 0.9237 0.9229 0.9226 0.9224
2455.000000 0.9216 0.9215 0.9223 0.9227 0.9225
2450.000000 0.9212 0.9219 0.9221 0.9218 0.9218
2445.000000 0.9214 0.9214 0.9212 0.9211 0.9210
2440.000000 0.9210 0.9209 0.9208 0.9207 0.9207
2435.000000 0.9206 0.9205 0.9204 0.9204 0.9203
2430.000000 0.9202 0.9201 0.9200 0.9199 0.9198
2425.000000 0.9197 0.9197 0.9196 0.9195 0.9195
2420.000000 0.9195 0.9195 0.9196 0.9196 0.9197
2415.000000 0.9197 0.9198 0.9198 0.9199 0.9199
2410.000000 0.9200 0.9204 0.9212 0.9207 0.9217
2405.000000 0.9217 0.9219 0.9218 0.9220 0.9220
2400.000000 0.9220 0.9219 0.9219 0.9219 0.9221
2395.000000 0.9220 0.9220 0.9220 0.9220 0.9220
2390.000000 0.9221 0.9237 0.9237 0.9237 0.9237
2385.000000 0.9234 0.9241 0.9236 0.9235 0.9241
2380.000000 0.9235 0.9235 0.9240 0.9241 0.9244
2375.000000 0.9239 0.9242 0.9244 0.9238 0.9233
2370.000000 0.9211 0.9215 0.9211 0.9211 0.9211
2365.000000 0.9209 0.9209 0.9209 0.9209 0.9209
2360.000000 0.9223 0.9225 0.9238 0.9242 0.9258
2355.000000 0.9272 0.9274 0.9275 0.9276 0.9271
2350.000000 0.9264 0.9265 0.9274 0.9290 0.9298
2345.000000 0.9298 0.9288 0.9283 0.9283 0.9283
2340.000000 0.9283 0.9270 0.9281 0.9278 0.9260
2335.000000 0.9253 0.9262 0.9256 0.9250 0.9252
2330.000000 0.9263 0.9262 0.9261 0.9264 0.9273
2325.000000 0.9278 0.9287 0.9284 0.9283 0.9279
2320.000000 0.9275 0.9270 0.9266 0.9262 0.9257
2315.000000 0.9253 0.9249 0.9244 0.9240 0.9236
2310.000000 0.9231 0.9227 0.9223 0.9219 0.9216
2305.000000 0.9213 0.9211 0.9207 0.9204 0.9202
2300.000000 0.9200 0.9202 0.9210 0.9208 0.9205
2295.000000 0.9203 0.9201 0.9199 0.9153 0.9197
2290.000000 0.9196 0.9194 0.9182 0.9177 0.9177
2285.000000 0.9177 0.9177 0.9163 0.9162 0.9162
2280.000000 0.9163 0.9162 0.9149 0.9149 0.9147
2275.000000 0.9135 0.9136 0.9136 0.9132 0.9122
2270.000000 0.9121 0.9117 0.9112 0.9114 0.9117
2265.000000 0.9110 0.9107 0.9108 0.9112 0.9102
2260.000000 0.9101 0.9105 0.9096 0.9101 0.9108
2255.000000 0.9115 0.9108 0.9113 0.9121 0.9127
2250.000000 0.9120 0.9127 0.9134 0.9140 0.9148
2245.000000 0.9150 0.9146 0.9152 0.9159 0.9166
2240.000000 0.9173 0.9179 0.9186 0.9192 0.9198
2235.000000 0.9189 0.9186 0.9187 0.9188 0.9190
2230.000000 0.9192 0.9193 0.9195 0.9196 0.9198
2225.000000 0.9199 0.9201 0.9202 0.9202 0.9190
2220.000000 0.9191 0.9192 0.9194 0.9196 0.9198
2215.000000 0.9200 0.9202 0.9203 0.9205 0.9206
2210.000000 0.9208 0.9210 0.9211 0.9213 0.9214
2205.000000 0.9216 0.9218 0.9218 0.9222 0.9224
2200.000000 0.9226 0.9226 0.9227 0.9227 0.9226
2195.000000 0.9215 0.9229 0.9225 0.9214 0.9214
2190.000000 0.9215 0.9215 0.9216 0.9216 0.9217
2185.000000 0.9217 0.9225 0.9223 0.9217 0.9217
2180.000000 0.9217 0.9217 0.9228 0.9232 0.9232
2175.000000 0.9231 0.9231 0.9231 0.9231 0.9231
2170.000000 0.9231 0.9229 0.9215 0.9216 0.9218
2165.000000 0.9221 0.9224 0.9226 0.9228 0.9230
2160.000000 0.9233 0.9235 0.9236 0.9236 0.9236
2155.000000 0.9236 0.9236 0.9235 0.9235 0.9234
2150.000000 0.9234 0.9233 0.9233 0.9233 0.9233
2145.000000 0.9231 0.9230 0.9228 0.9227 0.9224
2140.000000 0.9223 0.9222 0.9222 0.9222 0.9224
2135.000000 0.9225 0.9227 0.9230 0.9232 0.9234
2130.000000 0.9236 0.9238 0.9241 0.9247 0.9255
2125.000000 0.9261 0.9268 0.9275 0.9268 0.9286
2120.000000 0.9294 0.9299 0.9305 0.9311 0.9316
2115.000000 0.9321 0.9333 0.9332 0.9337 0.9336
2110.000000 0.9335 0.9334 0.9334 0.9333 0.9333
2105.000000 0.9324 0.9316 0.9303 0.9292 0.9281
2100.000000 0.9270 0.9268 0.9255 0.9249 0.9259
2095.000000 0.9260 0.9244 0.9255 0.9254 0.9254
2090.000000 0.9254 0.9254 0.9256 0.9256 0.9256
2085.000000 0.9256 0.9256 0.9256 0.9257 0.9257
2080.000000 0.9257 0.9257 0.9257 0.9259 0.9260
2075.000000 0.9260 0.9261 0.9262 0.9264 0.9263
2070.000000 0.9265 0.9267 0.9269 0.9269 0.9270
2065.000000 0.9266 0.9261 0.9256 0.9252 0.9249
2060.000000 0.9246 0.9244 0.9242 0.9244 0.9253
2055.000000 0.9251 0.9249 0.9247 0.9240 0.9239
2050.000000 0.9249 0.9245 0.9242 0.9246 0.9249
2045.000000 0.9254 0.9257 0.9262 0.9266 0.9270
2040.000000 0.9276 0.9281 0.9286 0.9291 0.9297
2035.000000 0.9301 0.9306 0.9311 0.9317 0.9317
2030.000000 0.9317 0.9317 0.9318 0.9319 0.9308
2025.000000 0.9310 0.9316 0.9310 0.9304 0.9298
2020.000000 0.9292 0.9285 0.9280 0.9274 0.9267
2015.000000 0.9263 0.9260 0.9258 0.9256 0.9254
2010.000000 0.9251 0.9249 0.9249 0.9249 0.9250
2005.000000 0.9251 0.9252 0.9253 0.9255 0.9249
2000.000000 0.9245 0.9240 0.9227 0.9199 0.9195
1995.000000 0.9190 0.9160 0.9119 0.9131 0.9142
1990.000000 0.9151 0.9147 0.9147 0.9145 0.9130
1985.000000 0.9127 0.9125 0.9123 0.9122 0.9121
1980.000000 0.9120 0.9117 0.9102 0.9102 0.9101
1975.000000 0.9100 0.9100 0.9100 0.9100 0.9101
1970.000000 0.9101 0.9102 0.9108 0.9115 0.9129
1965.000000 0.9134 0.9148 0.9188 0.9222 0.9250
1960.000000 0.9277 0.9271 0.9230 0.9201 0.9173
1955.000000 0.9160 0.9138 0.9132 0.9129 0.9128
1950.000000 0.9125 0.9112 0.9112 0.9112 0.9113
1945.000000 0.9115 0.9117 0.9120 0.9121 0.9123
1940.000000 0.9125 0.9125 0.9125 0.9126 0.9126
1935.000000 0.9126 0.9126 0.9126 0.9127 0.9127
1930.000000 0.9127 0.9127 0.9127 0.9126 0.9126
1925.000000 0.9124 0.9124 0.9124 0.9123 0.9123
1920.000000 0.9123 0.9122 0.9122 0.9122 0.9121
1915.000000 0.9121 0.9120 0.9119 0.9118 0.9117
1910.000000 0.9116 0.9114 0.9113 0.9123 0.9126
1905.000000 0.9123 0.9122 0.9121 0.9119 0.9119
1900.000000 0.9118 0.9116 0.9116 0.9115 0.9114
1895.000000 0.9112 0.9111 0.9109 0.9108 0.9101
1890.000000 0.9089 0.9088 0.9087 0.9085 0.9084
1885.000000 0.9083 0.9090 0.9095 0.9094 0.9091
1880.000000 0.9086 0.9083 0.9080 0.9076 0.9071
1875.000000 0.9077 0.9071 0.9065 0.9058 0.9052
1870.000000 0.9053 0.9054 0.9057 0.9059 0.9066
1865.000000 0.9074 0.9081 0.9091 0.9091 0.9092
1860.000000 0.9093 0.9088 0.9081 0.9085 0.9074
1855.000000 0.9062 0.9056 0.9050 0.9051 0.9051
1850.000000 0.9051 0.9052 0.9052 0.9053 0.9053
1845.000000 0.9053 0.9053 0.9052 0.9052 0.9052
1840.000000 0.9052 0.9052 0.9052 0.9052 0.9046
1835.000000 0.9035 0.9033 0.9032 0.9030 0.9029
1830.000000 0.9027 0.9026 0.9024 0.9021 0.9020
1825.000000 0.9020 0.9020 0.9021 0.9021 0.9022
1820.000000 0.9022 0.9037 0.9038 0.9038 0.9039
1815.000000 0.9040 0.9040 0.9041 0.9041 0.9042
1810.000000 0.9043 0.9038 0.9031 0.9033 0.9035
1805.000000 0.9038 0.9032 0.9027 0.9029 0.9033
1800.000000 0.9035 0.9037 0.9039 0.9042 0.9045
1795.000000 0.9047 0.9050 0.9054 0.9057 0.9060
1790.000000 0.9064 0.9069 0.9073 0.9077 0.9083
