##TITLE=2,3-DIMETHYLBUTANE
##JCAMP-DX=4.24
##DATA TYPE=INFRARED SPECTRUM
##CLASS=COBLENTZ III
##ORIGIN=DOW CHEMICAL COMPANY
##OWNER=COBLENTZ SOCIETY
Collection (C) 2018 copyright by the U.S. Secretary of Commerce
on behalf of the United States of America. All rights reserved.
##DATE=1960/12/30
##CAS REGISTRY NO=79-29-8
##MOLFORM=C6 H14
##SOURCE REFERENCE=COBLENTZ NO. 6477
##$NIST SOURCE=COBLENTZ
##$NIST IMAGE=cob6477
##SPECTROMETER/DATA SYSTEM=DOW KBr FOREPRISM-GRATING
##INSTRUMENT PARAMETERS=BLAZED AT 3.5, 12.0, 20.0 MICRON AND CHANGED AT 5.0, 7.5, 14.9 MICRON
##STATE=SOLUTION (10% CCl4 FOR 3800-1330, 10% CS2 FOR 1330-450 CM^-^1)
##PATH LENGTH=0.012 CM, 0.011 CM
$$SPECTRAL CONTAMINATION DUE TO CS2 AROUND 850, AND CCl4 AROUND 1550 CM^-^1
$$ SEE SPECTRUM NO. 6554 FOR "LIQUID(NEAT)" RUN
##SAMPLING PROCEDURE=TRANSMISSION
##RESOLUTION=2
##DATA PROCESSING=DIGITIZED BY NIST FROM HARD COPY (FROM TWO SEGMENTS)
##XUNITS=1/CM
##YUNITS=TRANSMITTANCE
##XFACTOR=1.000000
##YFACTOR=1
##DELTAX=0.875657
##FIRSTX=441.331
##LASTX=3800.35
##FIRSTY=0.964
##MAXX=3800.35
##MINX=441.331
##MAXY=1.076
##MINY=0.004
##NPOINTS=3837
##XYDATA=(X++(Y..Y))
441.331000 0.9640 0.9640 0.9650 0.9650 0.9670
445.709284 0.9670 0.9680 0.9680 0.9690 0.9690
450.087567 0.9710 0.9710 0.9720 0.9720 0.9730
454.465851 0.9730 0.9730 0.9750 0.9750 0.9760
458.844135 0.9760 0.9780 0.9780 0.9780 0.9790
463.222419 0.9800 0.9820 0.9820 0.9830 0.9840
467.600702 0.9840 0.9860 0.9870 0.9870 0.9890
471.978986 0.9900 0.9900 0.9910 0.9930 0.9930
476.357270 0.9940 0.9940 0.9950 0.9950 0.9970
480.735553 0.9980 1.0000 1.0000 1.0010 1.0010
485.113837 1.0020 1.0040 1.0040 1.0050 1.0050
489.492121 1.0060 1.0060 1.0080 1.0080 1.0090
493.870404 1.0090 1.0100 1.0100 1.0120 1.0120
498.248688 1.0130 1.0130 1.0160 1.0160 1.0170
502.626972 1.0170 1.0190 1.0190 1.0200 1.0200
507.005256 1.0200 1.0200 1.0200 1.0200 1.0200
511.383539 1.0200 1.0200 1.0200 1.0200 1.0200
515.761823 1.0200 1.0200 1.0200 1.0200 1.0200
520.140107 1.0200 1.0200 1.0200 1.0200 1.0210
524.518390 1.0200 1.0200 1.0190 1.0200 1.0200
528.896674 1.0190 1.0170 1.0150 1.0100 1.0060
533.274958 1.0010 0.9970 0.9930 0.9731 0.9720
537.653242 0.9730 0.9860 0.9890 1.0060 1.0150
542.031525 1.0230 1.0300 1.0310 1.0350 1.0360
546.409809 1.0410 1.0410 1.0420 1.0420 1.0420
550.788093 1.0430 1.0430 1.0430 1.0430 1.0430
555.166376 1.0430 1.0430 1.0420 1.0420 1.0420
559.544660 1.0420 1.0420 1.0420 1.0420 1.0420
563.922944 1.0420 1.0420 1.0420 1.0420 1.0420
568.301228 1.0430 1.0420 1.0420 1.0420 1.0420
572.679511 1.0420 1.0420 1.0420 1.0420 1.0410
577.057795 1.0410 1.0390 1.0390 1.0390 1.0390
581.436079 1.0390 1.0390 1.0390 1.0390 1.0410
585.814362 1.0420 1.0420 1.0420 1.0420 1.0430
590.192646 1.0450 1.0430 1.0450 1.0450 1.0450
594.570930 1.0450 1.0450 1.0460 1.0460 1.0460
598.949213 1.0460 1.0460 1.0470 1.0470 1.0470
603.327497 1.0470 1.0470 1.0470 1.0470 1.0470
607.705781 1.0470 1.0470 1.0460 1.0460 1.0460
612.084065 1.0460 1.0450 1.0430 1.0430 1.0430
616.462348 1.0430 1.0420 1.0420 1.0420 1.0420
620.840632 1.0420 1.0420 1.0420 1.0420 1.0420
625.218916 1.0410 1.0410 1.0390 1.0380 1.0380
629.597199 1.0360 1.0340 1.0320 1.0310 1.0300
633.975483 1.0280 1.0270 1.0260 1.0240 1.0210
638.353767 1.0200 1.0200 1.0200 1.0190 1.0190
642.732051 1.0160 1.0160 1.0160 1.0160 1.0160
647.110334 1.0160 1.0170 1.0170 1.0190 1.0190
651.488618 1.0200 1.0210 1.0230 1.0240 1.0260
655.866902 1.0280 1.0300 1.0310 1.0340 1.0350
660.245185 1.0380 1.0390 1.0410 1.0430 1.0460
664.623469 1.0490 1.0520 1.0560 1.0570 1.0580
669.001753 1.0600 1.0610 1.0630 1.0640 1.0650
673.380037 1.0650 1.0650 1.0650 1.0650 1.0650
677.758320 1.0650 1.0650 1.0650 1.0650 1.0650
682.136604 1.0650 1.0650 1.0650 1.0650 1.0650
686.514888 1.0650 1.0640 1.0640 1.0640 1.0640
690.893171 1.0640 1.0640 1.0630 1.0630 1.0630
695.271455 1.0630 1.0610 1.0610 1.0610 1.0610
699.649739 1.0610 1.0610 1.0610 1.0610 1.0600
704.028022 1.0600 1.0580 1.0580 1.0570 1.0570
708.406306 1.0570 1.0560 1.0560 1.0540 1.0540
712.784590 1.0540 1.0540 1.0540 1.0540 1.0530
717.162874 1.0490 1.0450 1.0410 1.0360 1.0340
721.541157 1.0310 1.0300 1.0310 1.0380 1.0430
725.919441 1.0490 1.0580 1.0670 1.0680 1.0690
730.297725 1.0690 1.0710 1.0720 1.0720 1.0720
734.676008 1.0730 1.0730 1.0730 1.0750 1.0750
739.054292 1.0760 1.0760 1.0760 1.0760 1.0760
743.432576 1.0760 1.0760 1.0760 1.0760 1.0760
747.810860 1.0760 1.0760 1.0760 1.0760 1.0760
752.189143 1.0760 1.0760 1.0760 1.0760 1.0760
756.567427 1.0760 1.0760 1.0760 1.0760 1.0760
760.945711 1.0760 1.0760 1.0760 1.0760 1.0750
765.323994 1.0750 1.0750 1.0750 1.0730 1.0730
769.702278 1.0730 1.0720 1.0720 1.0720 1.0690
774.080562 1.0690 1.0680 1.0680 1.0670 1.0650
778.458846 1.0650 1.0650 1.0650 1.0650 1.0650
782.837129 1.0650 1.0650 1.0650 1.0670 1.0670
787.215413 1.0670 1.0670 1.0670 1.0670 1.0670
791.593697 1.0670 1.0680 1.0680 1.0680 1.0680
795.971980 1.0680 1.0680 1.0670 1.0670 1.0650
800.350264 1.0640 1.0640 1.0640 1.0640 1.0640
804.728548 1.0640 1.0640 1.0640 1.0640 1.0640
809.106831 1.0650 1.0650 1.0650 1.0650 1.0640
813.485115 1.0640 1.0630 1.0630 1.0630 1.0630
817.863399 1.0630 1.0630 1.0610 1.0610 1.0600
822.241683 1.0600 1.0580 1.0580 1.0560 1.0560
826.619966 1.0540 1.0530 1.0500 1.0470 1.0460
830.998250 1.0430 1.0420 1.0360 1.0320 1.0300
835.376534 1.0240 1.0210 1.0160 1.0080 1.0020
839.754817 1.0000 0.9970 0.9910 0.9840 0.9780
844.133101 0.9670 0.9540 0.9360 0.9270 0.9170
848.511385 0.9080 0.9010 0.8940 0.8890 0.8830
852.889669 0.8800 0.8780 0.8750 0.8750 0.8730
857.267952 0.8720 0.8710 0.8680 0.8640 0.8580
861.646236 0.8530 0.8470 0.8420 0.8350 0.8310
866.024520 0.8300 0.8310 0.8469 0.8560 0.8938
870.402803 0.9210 0.9310 0.9450 0.9530 0.9600
874.781087 0.9680 0.9730 0.9760 0.9790 0.9870
879.159371 0.9940 0.9950 1.0040 1.0090 1.0130
883.537654 1.0170 1.0200 1.0240 1.0270 1.0280
887.915938 1.0280 1.0300 1.0310 1.0310 1.0320
892.294222 1.0310 1.0310 1.0310 1.0310 1.0300
896.672506 1.0280 1.0270 1.0260 1.0240 1.0240
901.050789 1.0240 1.0230 1.0200 1.0150 1.0040
905.429073 1.0010 0.9980 0.9940 0.9840 0.9820
909.807357 0.9820 0.9820 0.9820 0.9820 0.9830
914.185640 0.9830 0.9840 0.9860 0.9870 0.9930
918.563924 1.0000 1.0000 1.0060 1.0100 1.0130
922.942208 1.0170 1.0190 1.0190 1.0210 1.0230
927.320492 1.0240 1.0260 1.0260 1.0260 1.0260
931.698775 1.0270 1.0280 1.0280 1.0300 1.0310
936.077059 1.0310 1.0310 1.0310 1.0310 1.0310
940.455343 1.0310 1.0300 1.0300 1.0280 1.0270
944.833626 1.0260 1.0210 1.0200 1.0190 1.0190
949.211910 1.0190 1.0190 1.0210 1.0230 1.0240
953.590194 1.0260 1.0270 1.0300 1.0310 1.0320
957.968478 1.0340 1.0340 1.0340 1.0340 1.0340
962.346761 1.0340 1.0340 1.0340 1.0340 1.0340
966.725045 1.0340 1.0340 1.0320 1.0320 1.0320
971.103329 1.0310 1.0300 1.0280 1.0270 1.0210
975.481612 1.0200 1.0190 1.0160 1.0000 0.9950
979.859896 0.9910 0.9780 0.9601 0.8804 0.8720
984.238180 0.8640 0.8500 0.8470 0.8500 0.8560
988.616463 0.8610 0.8730 0.9378 0.9629 0.9829
992.994747 1.0080 1.0150 1.0200 1.0240 1.0260
997.373031 1.0280 1.0310 1.0340 1.0340 1.0350
1001.751315 1.0360 1.0360 1.0350 1.0360 1.0360
1006.129598 1.0360 1.0360 1.0350 1.0350 1.0340
1010.507882 1.0320 1.0310 1.0300 1.0270 1.0230
1014.886166 1.0210 1.0190 1.0150 1.0021 0.9980
1019.264449 0.9940 0.9890 0.9830 0.9750 0.9610
1023.642733 0.9490 0.9231 0.9041 0.8891 0.8761
1028.021017 0.8670 0.8570 0.8470 0.8360 0.8210
1032.399301 0.8021 0.7581 0.7421 0.7380 0.7360
1036.777584 0.7380 0.7750 0.8579 0.9079 0.9419
1041.155868 0.9729 0.9939 1.0060 1.0100 1.0160
1045.534152 1.0170 1.0170 1.0170 1.0170 1.0170
1049.912435 1.0170 1.0170 1.0160 1.0130 1.0130
1054.290719 1.0060 1.0000 0.9980 0.9950 0.9800
1058.669003 0.9720 0.9640 0.9560 0.9530 0.9540
1063.047287 0.9610 0.9680 0.9760 0.9830 0.9900
1067.425570 1.0100 1.0160 1.0190 1.0200 1.0210
1071.803854 1.0240 1.0260 1.0270 1.0300 1.0320
1076.182138 1.0340 1.0340 1.0350 1.0360 1.0360
1080.560421 1.0360 1.0360 1.0360 1.0360 1.0360
1084.938705 1.0360 1.0360 1.0360 1.0360 1.0360
1089.316989 1.0360 1.0360 1.0360 1.0360 1.0360
1093.695272 1.0360 1.0360 1.0350 1.0340 1.0320
1098.073556 1.0300 1.0270 1.0230 1.0210 1.0190
1102.451840 1.0190 1.0170 1.0160 1.0150 1.0080
1106.830124 1.0040 1.0010 0.9970 0.9940 0.9790
1111.208407 0.9710 0.9560 0.9421 0.9211 0.9041
1115.586691 0.8830 0.8580 0.8310 0.8011 0.7641
1119.964975 0.7241 0.6792 0.6272 0.5952 0.5940
1124.343258 0.5950 0.6130 0.6430 0.6939 0.7409
1128.721542 0.7829 0.8189 0.8519 0.8779 0.8999
1133.099826 0.9160 0.9270 0.9310 0.9320 0.9320
1137.478110 0.9320 0.9310 0.9270 0.9210 0.9170
1141.856393 0.9130 0.9080 0.9010 0.8930 0.8800
1146.234677 0.8640 0.8431 0.8350 0.8230 0.8210
1150.612961 0.8230 0.8410 0.8600 0.8820 0.9020
1154.991244 0.9190 0.9349 0.9489 0.9600 0.9709
1159.369528 0.9790 0.9840 0.9890 0.9940 0.9950
1163.747812 1.0000 1.0020 1.0060 1.0080 1.0100
1168.126096 1.0120 1.0150 1.0150 1.0160 1.0160
1172.504379 1.0190 1.0190 1.0190 1.0200 1.0200
1176.882663 1.0200 1.0210 1.0210 1.0230 1.0230
1181.260947 1.0230 1.0240 1.0240 1.0240 1.0240
1185.639230 1.0240 1.0260 1.0260 1.0260 1.0240
1190.017514 1.0260 1.0260 1.0270 1.0270 1.0280
1194.395798 1.0300 1.0300 1.0310 1.0340 1.0380
1198.774081 1.0410 1.0410 1.0420 1.0430 1.0430
1203.152365 1.0430 1.0450 1.0450 1.0450 1.0460
1207.530649 1.0460 1.0460 1.0460 1.0470 1.0470
1211.908933 1.0470 1.0470 1.0470 1.0470 1.0470
1216.287216 1.0470 1.0470 1.0470 1.0470 1.0470
1220.665500 1.0470 1.0470 1.0470 1.0470 1.0470
1225.043784 1.0470 1.0470 1.0470 1.0470 1.0460
1229.422067 1.0460 1.0450 1.0430 1.0430 1.0420
1233.800351 1.0410 1.0410 1.0410 1.0390 1.0390
1238.178635 1.0390 1.0380 1.0360 1.0340 1.0280
1242.556919 1.0240 1.0230 1.0230 1.0230 1.0230
1246.935202 1.0230 1.0210 1.0210 1.0210 1.0210
1251.313486 1.0210 1.0210 1.0200 1.0200 1.0200
1255.691770 1.0200 1.0200 1.0190 1.0190 1.0190
1260.070053 1.0170 1.0160 1.0120 1.0090 1.0060
1264.448337 1.0050 1.0010 1.0000 0.9970 0.9940
1268.826621 0.9890 0.9800 0.9790 0.9760 0.9690
1273.204904 0.9540 0.9380 0.9310 0.9230 0.9210
1277.583188 0.9230 0.9260 0.9320 0.9420 0.9490
1281.961472 0.9530 0.9570 0.9580 0.9580 0.9580
1286.339756 0.9580 0.9570 0.9520 0.9490 0.9420
1290.718039 0.9350 0.9280 0.9230 0.9190 0.9120
1295.096323 0.9090 0.9060 0.9060 0.9060 0.9060
1299.474607 0.9080 0.9080 0.9090 0.9120 0.9130
1303.852890 0.9150 0.9150 0.9160 0.9190 0.9200
1308.231174 0.9210 0.9270 0.9280 0.9310 0.9310
1312.609458 0.9320 0.9340 0.9380 0.9390 0.9410
1316.987742 0.9410 0.9420 0.9420 0.9410 0.9390
1321.366025 0.9380 0.9360 0.9350 0.9340 0.9320
1325.744309 0.9320 0.9310 0.9310 0.9300 0.9310
1330.122593 0.9300 0.9300 0.9300 0.9280 0.9280
1334.500876 0.9260 0.9230 0.9230 0.9210 0.9210
1338.879160 0.9200 0.9170 0.9130 0.9090 0.9050
1343.257444 0.9010 0.8980 0.8950 0.8910 0.8840
1347.635728 0.8780 0.8710 0.8650 0.8610 0.8600
1352.014011 0.8540 0.8490 0.8420 0.8350 0.8260
1356.392295 0.8150 0.8000 0.7731 0.7501 0.7261
1360.770579 0.6900 0.6411 0.5671 0.4413 0.3911
1365.148862 0.3531 0.2345 0.1105 0.1090 0.1100
1369.527146 0.1150 0.1490 0.2559 0.3339 0.3340
1373.905430 0.3340 0.3320 0.3320 0.1846 0.1084
1378.283713 0.1080 0.1080 0.1090 0.1339 0.1789
1382.661997 0.2418 0.4144 0.4150 0.4100 0.4050
1387.040281 0.4040 0.4000 0.3930 0.3900 0.3900
1391.418565 0.3910 0.4668 0.6892 0.7308 0.7579
1395.796848 0.7780 0.7910 0.8060 0.8230 0.8360
1400.175132 0.8460 0.8490 0.8520 0.8520 0.8560
1404.553416 0.8580 0.8600 0.8600 0.8600 0.8600
1408.931699 0.8600 0.8580 0.8570 0.8540 0.8500
1413.309983 0.8490 0.8490 0.8470 0.8470 0.8460
1417.688267 0.8430 0.8390 0.8310 0.8300 0.8270
1422.066551 0.8230 0.8170 0.8120 0.8050 0.8000
1426.444834 0.7930 0.7840 0.7760 0.7651 0.7561
1430.823118 0.7460 0.7380 0.7310 0.7230 0.7160
1435.201402 0.7060 0.6970 0.6840 0.6711 0.6541
1439.579685 0.6350 0.6120 0.5860 0.5541 0.5171
1443.957969 0.4831 0.4800 0.4800 0.4790 0.4790
1448.336253 0.4750 0.4540 0.4310 0.4050 0.3781
1452.714537 0.3461 0.3121 0.2731 0.2312 0.1862
1457.092820 0.1340 0.1120 0.0890 0.0461 0.0430
1461.471104 0.0430 0.0430 0.0430 0.0430 0.0430
1465.849388 0.0450 0.0540 0.1210 0.1609 0.2009
1470.227671 0.2389 0.2749 0.3089 0.3359 0.3599
1474.605955 0.3760 0.3910 0.4130 0.4429 0.4759
1478.984239 0.5119 0.5459 0.5799 0.6089 0.6319
1483.362522 0.6540 0.6730 0.6910 0.7080 0.7230
1487.740806 0.7350 0.7450 0.7530 0.7570 0.7570
1492.119090 0.7560 0.7570 0.7570 0.7570 0.7580
1496.497374 0.7580 0.7580 0.7580 0.7580 0.7600
1500.875657 0.7580 0.7580 0.7570 0.7560 0.7570
1505.253941 0.7570 0.7540 0.7520 0.7470 0.7430
1509.632225 0.7410 0.7380 0.7360 0.7360 0.7300
1514.010508 0.7260 0.7260 0.7240 0.7240 0.7200
1518.388792 0.7200 0.7190 0.7170 0.7150 0.7100
1522.767076 0.7060 0.7010 0.6970 0.6900 0.6840
1527.145360 0.6780 0.6710 0.6630 0.6540 0.6470
1531.523643 0.6390 0.6310 0.6210 0.6130 0.6050
1535.901927 0.5950 0.5860 0.5750 0.5640 0.5520
1540.280211 0.5420 0.5310 0.5230 0.5130 0.5060
1544.658494 0.5010 0.4970 0.4940 0.4930 0.4900
1549.036778 0.4890 0.4900 0.4930 0.4940 0.4980
1553.415062 0.5020 0.5080 0.5130 0.5210 0.5300
1557.793346 0.5410 0.5530 0.5669 0.5680 0.5730
1562.171629 0.5820 0.5930 0.6080 0.6160 0.6240
1566.549913 0.6360 0.6390 0.6450 0.6609 0.6680
1570.928197 0.6760 0.6780 0.6860 0.6910 0.6930
1575.306480 0.6940 0.6940 0.6950 0.6970 0.7000
1579.684764 0.7040 0.7060 0.7060 0.7080 0.7090
1584.063048 0.7130 0.7170 0.7230 0.7280 0.7350
1588.441331 0.7420 0.7500 0.7570 0.7650 0.7730
1592.819615 0.7820 0.7900 0.7980 0.8060 0.8150
1597.197899 0.8230 0.8310 0.8410 0.8520 0.8630
1601.576183 0.8730 0.8750 0.8840 0.8870 0.8940
1605.954466 0.9010 0.9090 0.9160 0.9210 0.9280
1610.332750 0.9320 0.9340 0.9340 0.9380 0.9390
1614.711034 0.9410 0.9420 0.9430 0.9450 0.9450
1619.089317 0.9460 0.9460 0.9460 0.9460 0.9460
1623.467601 0.9460 0.9460 0.9460 0.9460 0.9460
1627.845885 0.9460 0.9460 0.9460 0.9460 0.9460
1632.224169 0.9460 0.9460 0.9460 0.9460 0.9460
1636.602452 0.9460 0.9470 0.9470 0.9470 0.9470
1640.980736 0.9470 0.9470 0.9490 0.9490 0.9500
1645.359020 0.9500 0.9520 0.9520 0.9520 0.9530
1649.737303 0.9530 0.9540 0.9560 0.9560 0.9570
1654.115587 0.9570 0.9570 0.9580 0.9580 0.9600
1658.493871 0.9600 0.9610 0.9630 0.9630 0.9640
1662.872154 0.9640 0.9650 0.9670 0.9670 0.9680
1667.250438 0.9680 0.9690 0.9720 0.9720 0.9720
1671.628722 0.9730 0.9730 0.9730 0.9750 0.9750
1676.007006 0.9750 0.9750 0.9750 0.9760 0.9760
1680.385289 0.9760 0.9760 0.9780 0.9780 0.9760
1684.763573 0.9760 0.9760 0.9760 0.9760 0.9760
1689.141857 0.9760 0.9760 0.9760 0.9760 0.9760
1693.520140 0.9760 0.9760 0.9760 0.9760 0.9760
1697.898424 0.9780 0.9800 0.9820 0.9830 0.9820
1702.276708 0.9830 0.9830 0.9840 0.9840 0.9840
1706.654992 0.9840 0.9840 0.9840 0.9840 0.9860
1711.033275 0.9860 0.9870 0.9870 0.9870 0.9870
1715.411559 0.9870 0.9890 0.9890 0.9900 0.9900
1719.789843 0.9890 0.9890 0.9890 0.9870 0.9860
1724.168126 0.9840 0.9830 0.9830 0.9830 0.9830
1728.546410 0.9840 0.9830 0.9830 0.9830 0.9820
1732.924694 0.9820 0.9800 0.9820 0.9820 0.9830
1737.302978 0.9830 0.9840 0.9860 0.9870 0.9870
1741.681261 0.9890 0.9890 0.9900 0.9900 0.9910
1746.059545 0.9910 0.9930 0.9940 0.9950 0.9950
1750.437829 0.9970 0.9970 0.9970 0.9980 0.9980
1754.816112 0.9980 0.9980 0.9980 0.9980 0.9980
1759.194396 0.9980 0.9970 0.9950 0.9940 0.9930
1763.572680 0.9930 0.9930 0.9930 0.9940 0.9950
1767.950963 0.9950 0.9970 0.9970 0.9980 0.9980
1772.329247 0.9980 0.9980 0.9980 0.9980 0.9980
1776.707531 0.9980 0.9980 0.9980 0.9980 0.9980
1781.085815 0.9980 0.9980 0.9980 0.9980 0.9980
1785.464098 0.9980 0.9980 0.9980 0.9980 0.9980
1789.842382 0.9980 0.9980 0.9970 0.9970 0.9970
1794.220666 0.9970 0.9970 0.9970 0.9970 0.9970
1798.598949 0.9970 0.9970 0.9970 0.9970 0.9970
1802.977233 0.9970 0.9970 0.9970 0.9970 0.9970
1807.355517 0.9970 0.9970 0.9970 0.9970 0.9970
1811.733801 0.9970 0.9950 0.9950 0.9950 0.9950
1816.112084 0.9950 0.9950 0.9950 0.9950 0.9950
1820.490368 0.9950 0.9950 0.9950 0.9950 0.9950
1824.868652 0.9950 0.9950 0.9950 0.9950 0.9950
1829.246935 0.9950 0.9950 0.9950 0.9950 0.9950
1833.625219 0.9950 0.9950 0.9950 0.9950 0.9950
1838.003503 0.9950 0.9940 0.9940 0.9940 0.9940
1842.381787 0.9940 0.9940 0.9940 0.9940 0.9940
1846.760070 0.9930 0.9930 0.9930 0.9900 0.9900
1851.138354 0.9900 0.9900 0.9900 0.9900 0.9900
1855.516638 0.9900 0.9900 0.9900 0.9900 0.9900
1859.894921 0.9900 0.9900 0.9900 0.9930 0.9910
1864.273205 0.9930 0.9940 0.9940 0.9950 0.9950
1868.651489 0.9970 0.9980 0.9980 1.0000 1.0000
1873.029772 1.0000 1.0000 1.0000 1.0000 1.0000
1877.408056 1.0000 1.0000 0.9980 0.9950 0.9950
1881.786340 0.9940 0.9940 0.9940 0.9930 0.9930
1886.164624 0.9930 0.9930 0.9940 0.9940 0.9940
1890.542907 0.9950 0.9950 0.9970 0.9970 0.9970
1894.921191 0.9970 0.9980 0.9980 0.9980 0.9980
1899.299475 1.0000 1.0000 1.0000 1.0010 1.0010
1903.677758 1.0010 1.0010 1.0010 1.0010 1.0020
1908.056042 1.0020 1.0020 1.0020 1.0020 1.0020
1912.434326 1.0020 1.0020 1.0020 1.0020 1.0020
1916.812610 1.0020 1.0020 1.0020 1.0020 1.0020
1921.190893 1.0020 1.0020 1.0020 1.0020 1.0020
1925.569177 1.0020 1.0020 1.0020 1.0020 1.0020
1929.947461 1.0020 1.0020 1.0020 1.0020 1.0020
1934.325744 1.0020 1.0020 1.0020 1.0020 1.0020
1938.704028 1.0020 1.0020 1.0020 1.0020 1.0020
1943.082312 1.0020 1.0020 1.0020 1.0020 1.0020
1947.460596 1.0010 1.0010 1.0010 1.0010 1.0010
1951.838879 1.0010 1.0010 1.0010 1.0010 1.0010
1956.217163 1.0010 1.0010 1.0010 1.0010 1.0010
1960.595447 1.0010 1.0010 1.0010 1.0010 1.0010
1964.973730 1.0000 1.0000 1.0000 0.9980 0.9980
1969.352014 0.9980 0.9970 0.9970 0.9950 0.9950
1973.730298 0.9950 0.9940 0.9940 0.9930 0.9930
1978.108581 0.9930 0.9910 0.9900 0.9900 0.9900
1982.486865 0.9900 0.9900 0.9890 0.9890 0.9890
1986.865149 0.9890 0.9870 0.9870 0.9870 0.9870
1991.243433 0.9860 0.9860 0.9860 0.9860 0.9840
1995.621716 0.9840 0.9840 0.9830 0.9830 0.9830
2000.000000 0.9830 0.9830 0.9830 0.9830 0.9830
2004.378284 0.9830 0.9830 0.9830 0.9830 0.9830
2008.756567 0.9830 0.9830 0.9830 0.9830 0.9830
2013.134851 0.9835 0.9840 0.9840 0.9840 0.9840
2017.513135 0.9840 0.9840 0.9840 0.9840 0.9840
2021.891419 0.9840 0.9840 0.9840 0.9840 0.9840
2026.269702 0.9840 0.9840 0.9840 0.9850 0.9860
2030.647986 0.9860 0.9860 0.9860 0.9860 0.9865
2035.026270 0.9871 0.9881 0.9890 0.9890 0.9889
2039.404553 0.9879 0.9871 0.9881 0.9890 0.9890
2043.782837 0.9890 0.9890 0.9890 0.9890 0.9890
2048.161121 0.9895 0.9900 0.9900 0.9900 0.9900
2052.539404 0.9900 0.9900 0.9900 0.9900 0.9900
2056.917688 0.9900 0.9900 0.9900 0.9900 0.9900
2061.295972 0.9900 0.9900 0.9900 0.9895 0.9890
2065.674256 0.9890 0.9890 0.9890 0.9890 0.9890
2070.052539 0.9890 0.9890 0.9890 0.9890 0.9890
2074.430823 0.9890 0.9890 0.9890 0.9890 0.9890
2078.809107 0.9890 0.9890 0.9890 0.9890 0.9890
2083.187390 0.9890 0.9890 0.9890 0.9890 0.9890
2087.565674 0.9890 0.9890 0.9890 0.9890 0.9890
2091.943958 0.9890 0.9891 0.9896 0.9901 0.9906
2096.322242 0.9910 0.9910 0.9910 0.9910 0.9912
2100.700525 0.9922 0.9928 0.9918 0.9910 0.9910
2105.078809 0.9910 0.9910 0.9910 0.9910 0.9910
2109.457093 0.9910 0.9910 0.9910 0.9909 0.9904
2113.835376 0.9900 0.9900 0.9900 0.9900 0.9900
2118.213660 0.9900 0.9900 0.9900 0.9900 0.9900
2122.591944 0.9900 0.9900 0.9900 0.9900 0.9900
2126.970228 0.9900 0.9901 0.9906 0.9910 0.9910
2131.348511 0.9910 0.9910 0.9910 0.9910 0.9910
2135.726795 0.9910 0.9910 0.9910 0.9910 0.9910
2140.105079 0.9910 0.9910 0.9910 0.9910 0.9909
2144.483362 0.9904 0.9900 0.9900 0.9900 0.9900
2148.861646 0.9899 0.9894 0.9890 0.9890 0.9887
2153.239930 0.9877 0.9869 0.9864 0.9860 0.9860
2157.618213 0.9860 0.9860 0.9860 0.9860 0.9860
2161.996497 0.9860 0.9857 0.9847 0.9840 0.9840
2166.374781 0.9840 0.9840 0.9840 0.9840 0.9839
2170.753065 0.9834 0.9830 0.9830 0.9830 0.9830
2175.131348 0.9830 0.9830 0.9832 0.9837 0.9840
2179.509632 0.9840 0.9840 0.9840 0.9840 0.9840
2183.887916 0.9843 0.9853 0.9860 0.9860 0.9857
2188.266199 0.9847 0.9840 0.9840 0.9840 0.9840
2192.644483 0.9838 0.9833 0.9830 0.9830 0.9828
2197.022767 0.9823 0.9820 0.9820 0.9817 0.9807
2201.401051 0.9800 0.9800 0.9798 0.9793 0.9790
