##TITLE=ISOBUTYRIC ACID
$$ E.K. (W.L.)
##JCAMP-DX=4.24
##DATA TYPE=INFRARED SPECTRUM
##CLASS=COBLENTZ
##ORIGIN=WYANDOTTE CHEMICALS CORP., WYANDOTTE, MICHIGAN, USA
##OWNER=COBLENTZ SOCIETY
Collection (C) 2018 copyright by the U.S. Secretary of Commerce
on behalf of the United States of America. All rights reserved.
##DATE=Not specified, most likely prior to 1970
##NAMES=2-methylpropanoic acid
##CAS REGISTRY NO=79-31-2
##MOLFORM=C4 H8 O2
##SOURCE REFERENCE=COBLENTZ NO. 1274
##$NIST SOURCE=COBLENTZ
##$NIST IMAGE=cob1274
##SPECTROMETER/DATA SYSTEM=Not specified, most likely a prism, grating, or hybrid spectrometer.
##STATE=LIQUID
##PATH LENGTH=0.0015 CM
##SAMPLING PROCEDURE=TRANSMISSION
##RESOLUTION=4
##DATA PROCESSING=DIGITIZED BY NIST FROM HARD COPY
##XUNITS=MICROMETERS
##YUNITS=TRANSMITTANCE
##XFACTOR=1.000000
##YFACTOR=1
##DELTAX=000.006806
##FIRSTX=2.054
##LASTX=16.0206
##FIRSTY=0.965
##MAXX=16.0206
##MINX=2.054
##MAXY=0.967
##MINY=0.025
##NPOINTS=2053
##XYDATA=(X++(Y..Y))
2.054000 0.9650 0.9650 0.9650 0.9670 0.9650
2.088047 0.9640 0.9640 0.9620 0.9600 0.9590
2.123000 0.9590 0.9600 0.9600 0.9600 0.9600
2.157047 0.9590 0.9540 0.9480 0.9430 0.9420
2.191000 0.9380 0.9330 0.9300 0.9260 0.9230
2.225047 0.9210 0.9230 0.9250 0.9280 0.9300
2.259000 0.9300 0.9310 0.9300 0.9300 0.9300
2.293047 0.9300 0.9280 0.9260 0.9250 0.9250
2.327000 0.9230 0.9210 0.9210 0.9190 0.9180
2.361047 0.9180 0.9180 0.9160 0.9160 0.9180
2.395000 0.9180 0.9180 0.9190 0.9190 0.9190
2.429047 0.9190 0.9180 0.9160 0.9160 0.9160
2.463000 0.9180 0.9160 0.9140 0.9140 0.9140
2.497047 0.9160 0.9180 0.9210 0.9250 0.9260
2.531000 0.9260 0.9300 0.9300 0.9310 0.9310
2.565047 0.9310 0.9310 0.9300 0.9280 0.9250
2.599000 0.9230 0.9210 0.9210 0.9250 0.9280
2.633047 0.9280 0.9260 0.9260 0.9250 0.9230
2.667000 0.9230 0.9210 0.9190 0.9190 0.9190
2.701047 0.9180 0.9160 0.9140 0.9130 0.9130
2.735000 0.9110 0.9090 0.9080 0.9040 0.8970
2.769047 0.8890 0.8820 0.8730 0.8670 0.8600
2.803000 0.8530 0.8460 0.8390 0.8340 0.8310
2.837047 0.8270 0.8210 0.8140 0.8070 0.8000
2.871000 0.7920 0.7830 0.7750 0.7660 0.7580
2.905047 0.7470 0.7350 0.7250 0.7130 0.7010
2.939000 0.6880 0.6720 0.6660 0.6590 0.6420
2.973047 0.6250 0.6110 0.6010 0.5070 0.4950
3.007000 0.4820 0.4540 0.4270 0.4000 0.3730
3.041047 0.3710 0.3390 0.3060 0.2740 0.2400
3.075000 0.2380 0.2040 0.1850 0.1830 0.1820
3.109047 0.1750 0.1700 0.1630 0.1510 0.1390
3.143000 0.1260 0.1150 0.1090 0.1050 0.0980
3.177047 0.0900 0.0850 0.0800 0.0740 0.0690
3.211000 0.0640 0.0610 0.0610 0.0570 0.0560
3.245047 0.0560 0.0540 0.0540 0.0540 0.0540
3.280000 0.0540 0.0540 0.0540 0.0520 0.0510
3.314047 0.0470 0.0420 0.0390 0.0320 0.0300
3.348000 0.0300 0.0300 0.0300 0.0300 0.0320
3.382047 0.0340 0.0340 0.0350 0.0370 0.0390
3.416000 0.0400 0.0400 0.0420 0.0420 0.0420
3.450047 0.0440 0.0440 0.0450 0.0450 0.0450
3.484000 0.0470 0.0520 0.0610 0.0690 0.0740
3.518047 0.0810 0.0900 0.0980 0.1070 0.1140
3.552000 0.1190 0.1240 0.1270 0.1310 0.1340
3.586047 0.1390 0.1460 0.1480 0.1510 0.1530
3.620000 0.1530 0.1550 0.1560 0.1560 0.1600
3.654047 0.1610 0.1610 0.1610 0.1610 0.1610
3.688000 0.1630 0.1630 0.1630 0.1650 0.1650
3.722047 0.1680 0.1700 0.1700 0.1700 0.1630
3.756000 0.1560 0.1460 0.1440 0.1440 0.1440
3.790047 0.1440 0.1480 0.1530 0.1610 0.1870
3.824000 0.1950 0.2070 0.2180 0.2260 0.2330
3.858047 0.2360 0.2400 0.2400 0.2380 0.2360
3.892000 0.2350 0.2310 0.2240 0.2160 0.2090
3.926047 0.2090 0.2110 0.2190 0.2280 0.2360
3.960000 0.2470 0.2550 0.2650 0.2770 0.2890
3.994047 0.3010 0.3150 0.3320 0.3660 0.3740
4.028000 0.3830 0.3950 0.4030 0.4120 0.4190
4.062047 0.4240 0.4240 0.4250 0.4310 0.4320
4.096000 0.4340 0.4370 0.4420 0.4490 0.4590
4.130047 0.4660 0.4710 0.4800 0.4870 0.4970
4.164000 0.5140 0.5240 0.5330 0.5340 0.5380
4.198047 0.5460 0.5550 0.5600 0.5650 0.5680
4.232000 0.5680 0.5740 0.5770 0.5790 0.5820
4.266047 0.5870 0.5940 0.5960 0.6010 0.6030
4.300000 0.6040 0.6080 0.6110 0.6140 0.6200
4.334047 0.6230 0.6250 0.6280 0.6320 0.6370
4.368000 0.6400 0.6450 0.6500 0.6570 0.6600
4.402047 0.6710 0.6740 0.6740 0.6760 0.6740
4.437000 0.6740 0.6720 0.6720 0.6720 0.6740
4.471047 0.6780 0.6810 0.6840 0.6840 0.6830
4.505000 0.6790 0.6780 0.6760 0.6760 0.6760
4.539047 0.6780 0.6830 0.6880 0.6910 0.6930
4.573000 0.6950 0.6950 0.6980 0.7010 0.7010
4.607047 0.7010 0.7030 0.7030 0.7010 0.7000
4.641000 0.6950 0.6910 0.6890 0.6890 0.6910
4.675047 0.6950 0.6950 0.6930 0.6930 0.6930
4.709000 0.6930 0.6930 0.6950 0.6960 0.6980
4.743047 0.7010 0.7030 0.7050 0.7100 0.7120
4.777000 0.7130 0.7200 0.7240 0.7240 0.7220
4.811047 0.7220 0.7200 0.7180 0.7180 0.7180
4.845000 0.7180 0.7180 0.7180 0.7170 0.7170
4.879047 0.7150 0.7150 0.7130 0.7100 0.7050
4.913000 0.7030 0.7000 0.7000 0.6980 0.6950
4.947047 0.6890 0.6840 0.6830 0.6810 0.6810
4.981000 0.6810 0.6810 0.6810 0.6810 0.6810
5.015047 0.6810 0.6810 0.6830 0.6810 0.6790
5.049000 0.6760 0.6760 0.6740 0.6710 0.6690
5.083047 0.6690 0.6690 0.6670 0.6670 0.6660
5.117000 0.6660 0.6660 0.6640 0.6640 0.6640
5.151047 0.6640 0.6640 0.6620 0.6640 0.6640
5.185000 0.6640 0.6620 0.6600 0.6590 0.6590
5.219047 0.6570 0.6570 0.6550 0.6540 0.6520
5.253000 0.6520 0.6500 0.6500 0.6520 0.6520
5.287047 0.6520 0.6500 0.6500 0.6490 0.6470
5.321000 0.6470 0.6450 0.6430 0.6400 0.6370
5.355047 0.6320 0.6300 0.6280 0.6250 0.6250
5.389000 0.6200 0.6140 0.6090 0.6040 0.5990
5.423047 0.5970 0.5940 0.5910 0.5890 0.5870
5.457000 0.5890 0.5840 0.5820 0.5800 0.5740
5.491047 0.5700 0.5700 0.5630 0.5570 0.5510
5.526000 0.5500 0.5460 0.5460 0.5460 0.5450
5.560047 0.5450 0.5430 0.5410 0.5400 0.5380
5.594000 0.5340 0.5290 0.5260 0.5240 0.5170
5.628047 0.5110 0.5050 0.5000 0.4950 0.4900
5.662000 0.4770 0.4580 0.4290 0.3910 0.3490
5.696047 0.3180 0.2860 0.2330 0.1870 0.1660
5.730000 0.1460 0.1190 0.0950 0.0800 0.0660
5.764047 0.0570 0.0510 0.0470 0.0280 0.0250
5.798000 0.0250 0.0250 0.0250 0.0250 0.0250
5.832047 0.0250 0.0270 0.0270 0.0280 0.0300
5.866000 0.0340 0.0350 0.0370 0.0390 0.0400
5.900047 0.0420 0.0470 0.0570 0.0740 0.0930
5.934000 0.1170 0.1410 0.1610 0.2020 0.2190
5.968047 0.2430 0.2650 0.2890 0.3100 0.3160
6.002000 0.3270 0.3300 0.3690 0.3860 0.3980
6.036047 0.4120 0.4360 0.4480 0.4610 0.4730
6.070000 0.4800 0.4870 0.4940 0.5160 0.5260
6.104047 0.5330 0.5400 0.5460 0.5500 0.5570
6.138000 0.5650 0.5720 0.5750 0.5770 0.5800
6.172047 0.5840 0.5890 0.5910 0.5970 0.6030
6.206000 0.6040 0.6110 0.6130 0.6180 0.6230
6.240047 0.6250 0.6300 0.6330 0.6370 0.6400
6.274000 0.6420 0.6420 0.6430 0.6490 0.6490
6.308047 0.6500 0.6540 0.6540 0.6540 0.6520
6.342000 0.6520 0.6520 0.6500 0.6490 0.6430
6.376047 0.6420 0.6400 0.6420 0.6420 0.6450
6.410000 0.6450 0.6420 0.6400 0.6400 0.6370
6.444047 0.6350 0.6350 0.6350 0.6350 0.6320
6.478000 0.6300 0.6300 0.6300 0.6300 0.6300
6.512047 0.6300 0.6280 0.6260 0.6250 0.6250
6.546000 0.6230 0.6210 0.6210 0.6200 0.6180
6.580047 0.6180 0.6160 0.6140 0.6080 0.5990
6.614000 0.5870 0.5800 0.5770 0.5670 0.5530
6.648047 0.5400 0.5220 0.5090 0.4950 0.4540
6.683000 0.3930 0.3450 0.2960 0.2020 0.1770
6.717047 0.1490 0.1100 0.0680 0.0660 0.0680
6.751000 0.0780 0.0970 0.1120 0.1310 0.1460
6.785047 0.1600 0.1870 0.2040 0.2240 0.2350
6.819000 0.2450 0.2550 0.2690 0.2770 0.2790
6.853047 0.2790 0.2790 0.2770 0.2770 0.2840
6.887000 0.3010 0.3110 0.3180 0.3200 0.3210
6.921047 0.3210 0.3200 0.3040 0.2890 0.2750
6.955000 0.2600 0.2410 0.2230 0.2010 0.1820
6.989047 0.1730 0.1630 0.1490 0.1340 0.1220
7.023000 0.1150 0.1100 0.1070 0.1070 0.1100
7.057047 0.1290 0.1560 0.1990 0.2180 0.2380
7.091000 0.2620 0.2840 0.3060 0.3250 0.3500
7.125047 0.3610 0.3670 0.3710 0.3710 0.3690
7.159000 0.3560 0.3400 0.3280 0.3150 0.3060
7.193047 0.3040 0.3060 0.3180 0.3610 0.3860
7.227000 0.4070 0.4310 0.4410 0.4410 0.4410
7.261047 0.4340 0.3980 0.3730 0.3470 0.3440
7.295000 0.3440 0.3520 0.3740 0.3930 0.4200
7.329047 0.4420 0.4610 0.4730 0.4800 0.4800
7.363000 0.4800 0.4710 0.4610 0.4510 0.4340
7.397047 0.4100 0.3880 0.3690 0.3500 0.3330
7.431000 0.3250 0.3160 0.3040 0.2910 0.2820
7.465047 0.2740 0.2650 0.2640 0.2670 0.2690
7.499000 0.2720 0.2790 0.2820 0.2860 0.2890
7.533047 0.2930 0.2930 0.2940 0.2990 0.3010
7.567000 0.3060 0.3110 0.3150 0.3200 0.3200
7.601047 0.3200 0.3160 0.3060 0.2960 0.2840
7.635000 0.2690 0.2520 0.2310 0.2060 0.1900
7.669047 0.1780 0.1680 0.1580 0.1390 0.1270
7.703000 0.1140 0.1070 0.1000 0.0970 0.0950
7.737047 0.0950 0.0950 0.0970 0.1020 0.1090
7.772000 0.1140 0.1190 0.1290 0.1370 0.1480
7.806047 0.1560 0.1680 0.1770 0.1850 0.1940
7.840000 0.1990 0.2040 0.2090 0.2090 0.2090
7.874047 0.2090 0.2060 0.1990 0.1920 0.1820
7.908000 0.1660 0.1600 0.1510 0.1340 0.1220
7.942047 0.1070 0.0970 0.0850 0.0730 0.0610
7.976000 0.0540 0.0470 0.0400 0.0340 0.0320
8.010047 0.0320 0.0280 0.0280 0.0270 0.0270
8.044000 0.0270 0.0270 0.0270 0.0280 0.0280
8.078047 0.0280 0.0300 0.0340 0.0390 0.0450
8.112000 0.0520 0.0640 0.0730 0.0780 0.0880
8.146047 0.0980 0.1140 0.1290 0.1430 0.1580
8.180000 0.1800 0.1920 0.2060 0.2160 0.2280
8.214047 0.2400 0.2480 0.2580 0.2650 0.2700
8.248000 0.2750 0.2810 0.2870 0.2940 0.3010
8.282047 0.3060 0.3110 0.3200 0.3250 0.3300
8.316000 0.3390 0.3440 0.3500 0.3520 0.3540
8.350047 0.3590 0.3610 0.3660 0.3710 0.3760
8.384000 0.3830 0.3900 0.3930 0.4000 0.4020
8.418047 0.4070 0.4120 0.4150 0.4150 0.4150
8.452000 0.4130 0.4070 0.3960 0.3810 0.3610
8.486047 0.3440 0.3270 0.2840 0.2410 0.2070
8.520000 0.1820 0.1730 0.1630 0.1550 0.1530
8.554047 0.1560 0.1850 0.2060 0.2230 0.2450
8.588000 0.2650 0.2840 0.2980 0.3110 0.3160
8.622047 0.3300 0.3490 0.3590 0.3670 0.3760
8.656000 0.3860 0.3930 0.4020 0.4100 0.4190
8.690047 0.4250 0.4320 0.4410 0.4480 0.4530
8.724000 0.4590 0.4650 0.4700 0.4710 0.4730
8.758047 0.4780 0.4780 0.4800 0.4820 0.4820
8.792000 0.4820 0.4800 0.4800 0.4780 0.4750
8.826047 0.4660 0.4560 0.4490 0.4410 0.4290
8.860000 0.4170 0.4080 0.4000 0.3930 0.3850
8.894047 0.3760 0.3660 0.3570 0.3500 0.3440
8.929000 0.3390 0.3320 0.3250 0.3200 0.3180
8.963047 0.3180 0.3150 0.3150 0.3130 0.3130
8.997000 0.3060 0.2980 0.2820 0.2750 0.2580
9.031047 0.2480 0.2380 0.2240 0.2190 0.2190
9.065000 0.2230 0.2360 0.2500 0.2670 0.2840
9.099047 0.2980 0.3110 0.3210 0.3300 0.3400
9.133000 0.3400 0.3420 0.3420 0.3400 0.3350
9.167047 0.3280 0.3180 0.3080 0.3040 0.2980
9.201000 0.2860 0.2740 0.2690 0.2650 0.2640
9.235047 0.2650 0.2750 0.2860 0.2960 0.3150
9.269000 0.3180 0.3730 0.3930 0.4150 0.4290
9.303047 0.4460 0.4610 0.4730 0.4820 0.4920
9.337000 0.5120 0.5260 0.5360 0.5430 0.5480
9.371047 0.5510 0.5570 0.5630 0.5700 0.5770
9.405000 0.5800 0.5820 0.5840 0.5910 0.5960
9.439047 0.5990 0.6010 0.6030 0.6090 0.6130
9.473000 0.6200 0.6210 0.6230 0.6250 0.6280
9.507047 0.6300 0.6320 0.6330 0.6370 0.6400
9.541000 0.6420 0.6430 0.6470 0.6490 0.6490
9.575047 0.6500 0.6500 0.6500 0.6500 0.6500
9.609000 0.6500 0.6500 0.6500 0.6500 0.6500
9.643047 0.6500 0.6500 0.6500 0.6520 0.6520
9.677000 0.6520 0.6520 0.6520 0.6520 0.6520
9.711047 0.6540 0.6540 0.6540 0.6540 0.6540
9.745000 0.6540 0.6540 0.6540 0.6520 0.6500
9.779047 0.6490 0.6490 0.6450 0.6430 0.6420
9.813000 0.6420 0.6400 0.6400 0.6400 0.6400
9.847047 0.6380 0.6400 0.6380 0.6370 0.6350
9.881000 0.6320 0.6280 0.6250 0.6230 0.6210
9.915047 0.6210 0.6200 0.6160 0.6110 0.6090
9.949000 0.6040 0.6030 0.6010 0.5990 0.5970
9.983047 0.5940 0.5910 0.5820 0.5770 0.5740
10.018000 0.5720 0.5680 0.5650 0.5620 0.5580
10.052047 0.5550 0.5510 0.5460 0.5410 0.5330
10.086000 0.5240 0.5160 0.5140 0.5090 0.5040
10.120047 0.5000 0.4990 0.4950 0.4900 0.4850
10.154000 0.4750 0.4650 0.4610 0.4560 0.4490
10.188047 0.4420 0.4340 0.4250 0.4170 0.4080
10.222000 0.4000 0.3960 0.3880 0.3810 0.3730
10.256047 0.3570 0.3470 0.3400 0.3330 0.3320
10.290000 0.3300 0.3230 0.3160 0.3040 0.2960
10.324047 0.2890 0.2860 0.2790 0.2690 0.2580
10.358000 0.2530 0.2500 0.2480 0.2410 0.2400
10.392047 0.2330 0.2280 0.2240 0.2210 0.2140
10.426000 0.2090 0.2040 0.2010 0.1990 0.1950
10.460047 0.1890 0.1830 0.1800 0.1780 0.1770
10.494000 0.1720 0.1680 0.1660 0.1650 0.1610
10.528047 0.1530 0.1510 0.1510 0.1490 0.1490
10.562000 0.1480 0.1430 0.1390 0.1390 0.1370
10.596047 0.1340 0.1320 0.1320 0.1310 0.1310
10.630000 0.1310 0.1310 0.1310 0.1310 0.1310
10.664047 0.1290 0.1290 0.1290 0.1290 0.1290
10.698000 0.1290 0.1290 0.1290 0.1290 0.1290
10.732047 0.1290 0.1290 0.1320 0.1320 0.1340
10.766000 0.1360 0.1370 0.1390 0.1410 0.1430
10.800047 0.1460 0.1490 0.1530 0.1550 0.1550
10.834000 0.1600 0.1630 0.1650 0.1700 0.1720
10.868047 0.1750 0.1800 0.1820 0.1830 0.1830
10.902000 0.1850 0.1850 0.1800 0.1730 0.1660
10.936047 0.1610 0.1560 0.1480 0.1430 0.1370
10.970000 0.1360 0.1340 0.1370 0.1410 0.1460
11.004047 0.1530 0.1600 0.1770 0.1870 0.1950
11.038000 0.2040 0.2140 0.2230 0.2310 0.2380
11.072047 0.2450 0.2500 0.2530 0.2620 0.2670
11.106000 0.2720 0.2770 0.2820 0.2860 0.2890
11.140047 0.2930 0.2940 0.2960 0.2990 0.3030
11.175000 0.3080 0.3130 0.3180 0.3230 0.3300
11.209047 0.3370 0.3400 0.3420 0.3440 0.3450
11.243000 0.3470 0.3490 0.3500 0.3520 0.3540
11.277047 0.3560 0.3590 0.3620 0.3670 0.3710
11.311000 0.3740 0.3760 0.3780 0.3780 0.3780
11.345047 0.3790 0.3830 0.3880 0.3910 0.3930
11.379000 0.3950 0.3960 0.4000 0.4020 0.4030
11.413047 0.4070 0.4100 0.4130 0.4150 0.4170
11.447000 0.4170 0.4170 0.4190 0.4190 0.4200
11.481047 0.4240 0.4270 0.4290 0.4320 0.4340
11.515000 0.4370 0.4390 0.4390 0.4390 0.4410
11.549047 0.4420 0.4440 0.4480 0.4480 0.4490
11.583000 0.4510 0.4510 0.4530 0.4530 0.4540
11.617047 0.4540 0.4560 0.4580 0.4580 0.4590
11.651000 0.4590 0.4610 0.4630 0.4650 0.4660
11.685047 0.4700 0.4710 0.4730 0.4780 0.4800
11.719000 0.4800 0.4800 0.4800 0.4800 0.4800
11.753047 0.4800 0.4820 0.4820 0.4830 0.4830
11.787000 0.4830 0.4830 0.4830 0.4850 0.4850
11.821047 0.4870 0.4870 0.4880 0.4880 0.4880
11.855000 0.4880 0.4880 0.4880 0.4900 0.4920
11.889047 0.4920 0.4950 0.4970 0.5020 0.5020
11.923000 0.5000 0.5000 0.5000 0.5020 0.5040
11.957047 0.5040 0.5050 0.5050 0.5050 0.5050
11.991000 0.5050 0.5050 0.5050 0.5050 0.5050
12.025047 0.5050 0.5050 0.5050 0.5050 0.5050
12.059000 0.5050 0.5050 0.5050 0.5050 0.5050
12.093047 0.5050 0.5050 0.5040 0.5040 0.5040
12.127000 0.5020 0.5020 0.5020 0.5000 0.5000
12.161047 0.4990 0.4990 0.4970 0.4950 0.4950
12.195000 0.4920 0.4880 0.4820 0.4780 0.4730
12.229047 0.4660 0.4630 0.4540 0.4490 0.4420
12.263000 0.4240 0.4200 0.4020 0.3830 0.3730
12.297047 0.3570 0.3370 0.3250 0.3130 0.2890
12.332000 0.2650 0.2470 0.2290 0.2190 0.2070
12.366047 0.2010 0.1990 0.1990 0.2040 0.2160
12.400000 0.2280 0.2430 0.2550 0.2720 0.2870
12.434047 0.3010 0.3130 0.3250 0.3470 0.3590
12.468000 0.3690 0.3760 0.3930 0.4000 0.4070
12.502047 0.4170 0.4240 0.4310 0.4340 0.4370
12.536000 0.4410 0.4460 0.4490 0.4530 0.4580
12.570047 0.4610 0.4660 0.4700 0.4710 0.4730
12.604000 0.4750 0.4800 0.4830 0.4880 0.4920
12.638047 0.4940 0.4950 0.4990 0.4990 0.4990
12.672000 0.5000 0.5040 0.5070 0.5120 0.5160
12.706047 0.5190 0.5210 0.5240 0.5280 0.5290
12.740000 0.5340 0.5380 0.5400 0.5410 0.5430
12.774047 0.5480 0.5510 0.5550 0.5600 0.5630
12.808000 0.5650 0.5670 0.5680 0.5720 0.5750
12.842047 0.5800 0.5820 0.5840 0.5870 0.5870
12.876000 0.5890 0.5910 0.5910 0.5920 0.5940
12.910047 0.5970 0.5970 0.5990 0.5990 0.6010
12.944000 0.6030 0.6030 0.6040 0.6040 0.6040
12.978047 0.6040 0.6060 0.6080 0.6110 0.6140
13.012000 0.6160 0.6180 0.6180 0.6200 0.6210
13.046047 0.6230 0.6230 0.6230 0.6250 0.6230
13.080000 0.6230 0.6230 0.6250 0.6260 0.6300
13.114047 0.6320 0.6320 0.6300 0.6320 0.6320
13.148000 0.6320 0.6320 0.6320 0.6320 0.6320
13.182047 0.6320 0.6320 0.6330 0.6330 0.6330
13.216000 0.6320 0.6320 0.6320 0.6320 0.6320
13.250047 0.6320 0.6320 0.6330 0.6320 0.6320
13.284000 0.6300 0.6280 0.6260 0.6260 0.6280
13.318047 0.6280 0.6300 0.6300 0.6300 0.6300
13.352000 0.6320 0.6320 0.6300 0.6300 0.6300
13.386047 0.6300 0.6300 0.6300 0.6300 0.6300
13.421000 0.6300 0.6300 0.6320 0.6330 0.6330
13.455047 0.6350 0.6350 0.6380 0.6400 0.6420
13.489000 0.6450 0.6450 0.6470 0.6470 0.6470
13.523047 0.6470 0.6490 0.6470 0.6490 0.6500
13.557000 0.6500 0.6520 0.6540 0.6540 0.6550
13.591047 0.6570 0.6570 0.6590 0.6590 0.6590
13.625000 0.6600 0.6620 0.6620 0.6640 0.6660
13.659047 0.6660 0.6690 0.6710 0.6720 0.6720
13.693000 0.6740 0.6740 0.6740 0.6740 0.6740
13.727047 0.6740 0.6740 0.6740 0.6740 0.6760
13.761000 0.6740 0.6740 0.6740 0.6740 0.6740
13.795047 0.6760 0.6760 0.6760 0.6760 0.6760
13.829000 0.6780 0.6780 0.6780 0.6810 0.6810
13.863047 0.6810 0.6830 0.6810 0.6810 0.6810
13.897000 0.6810 0.6810 0.6810 0.6810 0.6810
13.931047 0.6830 0.6830 0.6810 0.6810 0.6840
13.965000 0.6840 0.6840 0.6840 0.6860 0.6860
13.999047 0.6840 0.6830 0.6840 0.6830 0.6810
14.033000 0.6830 0.6830 0.6840 0.6840 0.6840
14.067047 0.6840 0.6860 0.6880 0.6860 0.6860
14.101000 0.6860 0.6860 0.6860 0.6860 0.6840
14.135047 0.6840 0.6860 0.6860 0.6860 0.6860
14.169000 0.6860 0.6860 0.6880 0.6840 0.6840
14.203047 0.6860 0.6860 0.6880 0.6880 0.6890
14.237000 0.6890 0.6910 0.6910 0.6930 0.6910
14.271047 0.6910 0.6890 0.6890 0.6890 0.6880
14.305000 0.6880 0.6860 0.6880 0.6880 0.6880
14.339047 0.6860 0.6840 0.6830 0.6810 0.6810
14.373000 0.6830 0.6830 0.6840 0.6840 0.6830
14.407047 0.6840 0.6840 0.6830 0.6830 0.6830
14.441000 0.6830 0.6830 0.6830 0.6810 0.6780
14.475047 0.6780 0.6760 0.6790 0.6790 0.6780
14.509000 0.6780 0.6780 0.6780 0.6760 0.6760
14.543047 0.6760 0.6760 0.6760 0.6720 0.6710
14.578000 0.6690 0.6690 0.6670 0.6690 0.6690
14.612047 0.6690 0.6690 0.6690 0.6670 0.6670
14.646000 0.6670 0.6660 0.6660 0.6640 0.6620
14.680047 0.6600 0.6600 0.6600 0.6600 0.6600
14.714000 0.6600 0.6600 0.6600 0.6600 0.6590
14.748047 0.6590 0.6570 0.6520 0.6500 0.6500
14.782000 0.6500 0.6500 0.6540 0.6540 0.6520
14.816047 0.6500 0.6500 0.6470 0.6470 0.6490
14.850000 0.6500 0.6500 0.6490 0.6470 0.6450
14.884047 0.6450 0.6450 0.6450 0.6490 0.6490
14.918000 0.6490 0.6430 0.6400 0.6380 0.6380
14.952047 0.6380 0.6350 0.6330 0.6300 0.6260
14.986000 0.6210 0.6180 0.6130 0.6090 0.6060
15.020047 0.6010 0.5970 0.5960 0.5960 0.5960
15.054000 0.5960 0.5990 0.6010 0.6030 0.6030
15.088047 0.6040 0.6040 0.6090 0.6110 0.6130
15.122000 0.6140 0.6160 0.6180 0.6180 0.6180
15.156047 0.6180 0.6160 0.6160 0.6140 0.6130
15.190000 0.6130 0.6130 0.6130 0.6130 0.6130
15.224047 0.6090 0.6080 0.6060 0.6040 0.6030
15.258000 0.6010 0.6010 0.5990 0.5990 0.5970
15.292047 0.5960 0.5960 0.5940 0.5920 0.5920
15.326000 0.5890 0.5870 0.5860 0.5840 0.5800
15.360047 0.5800 0.5790 0.5790 0.5770 0.5720
15.394000 0.5700 0.5680 0.5630 0.5620 0.5600
15.428047 0.5620 0.5630 0.5630 0.5620 0.5570
15.462000 0.5550 0.5510 0.5510 0.5500 0.5480
15.496047 0.5460 0.5450 0.5450 0.5430 0.5410
15.530000 0.5400 0.5380 0.5380 0.5380 0.5360
15.564047 0.5360 0.5340 0.5340 0.5330 0.5330
15.598000 0.5290 0.5280 0.5280 0.5220 0.5210
15.632047 0.5170 0.5160 0.5120 0.5090 0.5050
15.667000 0.5050 0.5020 0.5020 0.5020 0.5000
15.701047 0.5000 0.5000 0.5000 0.4990 0.4970
15.735000 0.4970 0.4970 0.4970 0.4950 0.4940
15.769047 0.4940 0.4920 0.4900 0.4900 0.4900
15.803000 0.4880 0.4880 0.4880 0.4880 0.4880
15.837047 0.4880 0.4900 0.4900 0.4880 0.4880
15.871000 0.4880 0.4880 0.4880 0.4870 0.4870
15.905047 0.4850 0.4850 0.4850 0.4870 0.4870
15.939000 0.4870 0.4870 0.4870 0.4870 0.4880
15.973047 0.4880 0.4900 0.4900 0.4900 0.4900
16.007000 0.4900 0.4900 0.4900
##END=
