##TITLE=2-PROPENOIC ACID, 2-METHYL-
##JCAMP-DX=4.24
##DATA TYPE=INFRARED SPECTRUM
##CLASS=COBLENTZ III
##ORIGIN=DOW CORNING CORP.
##OWNER=COBLENTZ SOCIETY
Collection (C) 2018 copyright by the U.S. Secretary of Commerce
on behalf of the United States of America. All rights reserved.
##DATE=Not specified, most likely prior to 1970
##NAMES=2-methylacrylic acid
METHACRYLIC ACID
##CAS REGISTRY NO=79-41-4
##MOLFORM=C4 H6 O2
##SOURCE REFERENCE=COBLENTZ NO. 4288
##$NIST SOURCE=COBLENTZ
##$NIST IMAGE=cob4288
##SPECTROMETER/DATA SYSTEM=PERKIN-ELMER 521 (GRATING)
##INSTRUMENT PARAMETERS=FILTERS AT 3150, 2500, 2000, 1150, 700, 410; GRATING CHANGES AT 2000, 630 CM^-^1
##STATE=SOLUTION (5% IN CCl4 FOR 3800-1300, 5% IN CS2 FOR 1300-650, AND 5% IN CCl4 FOR 650-240 CM^-^1) VERSUS SOLVENT
##PATH LENGTH=0.010, 0.010, AND 0.019 CM (CsBr CELL)
##SAMPLING PROCEDURE=TRANSMISSION
##RESOLUTION=4
##DATA PROCESSING=DIGITIZED BY NIST FROM HARD COPY (FROM TWO SEGMENTS)
##XUNITS=1/CM
##YUNITS=TRANSMITTANCE
##XFACTOR=1.000000
##YFACTOR=1
##DELTAX=1.016520
##FIRSTX=228.208
##LASTX=3799.24
##FIRSTY=0.792
##MAXX=3799.24
##MINX=228.208
##MAXY=0.913
##MINY=0.001
##NPOINTS=3514
##XYDATA=(X++(Y..Y))
228.208000 0.7920 0.7920 0.7920 0.7920 0.7920
233.290600 0.7920 0.7920 0.7920 0.7920 0.7920
238.373200 0.7920 0.7920 0.7920 0.7900 0.7900
243.455800 0.7900 0.7900 0.7900 0.7900 0.7900
248.538399 0.7890 0.7890 0.7890 0.7890 0.7890
253.620999 0.7890 0.7890 0.7880 0.7880 0.7880
258.703599 0.7880 0.7880 0.7860 0.7860 0.7850
263.786199 0.7850 0.7850 0.7820 0.7810 0.7770
268.868799 0.7750 0.7750 0.7750 0.7750 0.7750
273.951399 0.7750 0.7740 0.7730 0.7730 0.7710
279.033998 0.7680 0.7670 0.7640 0.7600 0.7590
284.116598 0.7560 0.7560 0.7550 0.7550 0.7530
289.199198 0.7510 0.7440 0.7380 0.7370 0.7310
294.281798 0.7270 0.7240 0.7180 0.7130 0.7070
299.364398 0.7000 0.6940 0.6870 0.6800 0.6750
304.446998 0.6640 0.6511 0.6391 0.6271 0.6141
309.529598 0.6020 0.5770 0.5620 0.5550 0.5480
314.612197 0.5350 0.5151 0.5001 0.4851 0.4701
319.694797 0.4550 0.4400 0.4250 0.4090 0.3960
324.777397 0.3940 0.3960 0.4050 0.4179 0.4329
329.859997 0.4490 0.4670 0.4840 0.5149 0.5170
334.942597 0.5569 0.5769 0.6427 0.6599 0.6640
340.025197 0.6690 0.6760 0.6850 0.6870 0.6890
345.107796 0.6900 0.6910 0.6930 0.6930 0.6890
350.190396 0.6780 0.6720 0.6650 0.6610 0.6570
355.272996 0.6540 0.6530 0.6540 0.6580 0.6620
360.355596 0.6650 0.6710 0.6820 0.6970 0.7080
365.438196 0.7180 0.7379 0.7450 0.7510 0.7818
370.520796 0.7850 0.7950 0.7960 0.7960 0.7960
375.603395 0.7950 0.7920 0.7900 0.7890 0.7850
380.685995 0.7840 0.7770 0.7750 0.7730 0.7620
385.768595 0.7550 0.7530 0.7550 0.7640 0.7779
390.851195 0.7840 0.7890 0.7900 0.7920 0.7920
395.933795 0.7930 0.7960 0.7990 0.8010 0.8040
401.016395 0.8060 0.8070 0.8100 0.8110 0.8120
406.098995 0.8140 0.8150 0.8180 0.8180 0.8210
411.181594 0.8210 0.8210 0.8190 0.8190 0.8190
416.264194 0.8180 0.8180 0.8170 0.8150 0.8150
421.346794 0.8140 0.8140 0.8140 0.8140 0.8140
426.429394 0.8120 0.8120 0.8110 0.8100 0.8100
431.511994 0.8100 0.8080 0.8080 0.8080 0.8080
436.594594 0.8080 0.8070 0.8060 0.8060 0.8060
441.677193 0.8060 0.8040 0.8030 0.8010 0.8000
446.759793 0.7990 0.7990 0.7970 0.7970 0.7960
451.842393 0.7950 0.7950 0.7950 0.7950 0.7950
456.924993 0.7950 0.7950 0.7950 0.7960 0.7960
462.007593 0.7970 0.7970 0.7990 0.7990 0.8010
467.090193 0.8040 0.8060 0.8080 0.8110 0.8110
472.172793 0.8120 0.8120 0.8140 0.8140 0.8150
477.255392 0.8150 0.8150 0.8150 0.8150 0.8170
482.337992 0.8170 0.8180 0.8210 0.8210 0.8230
487.420592 0.8250 0.8260 0.8280 0.8290 0.8300
492.503192 0.8300 0.8320 0.8330 0.8330 0.8330
497.585792 0.8330 0.8330 0.8320 0.8320 0.8320
502.668392 0.8300 0.8300 0.8300 0.8280 0.8280
507.750991 0.8260 0.8230 0.8220 0.8180 0.8120
512.833591 0.8110 0.8100 0.8030 0.7960 0.7930
517.916191 0.7920 0.7900 0.7890 0.7860 0.7840
522.998791 0.7820 0.7780 0.7730 0.7670 0.7630
528.081391 0.7590 0.7441 0.7340 0.7240 0.7220
533.163991 0.7220 0.7200 0.7190 0.7180 0.7130
538.246591 0.6901 0.6830 0.6601 0.6461 0.6291
543.329190 0.6130 0.5950 0.5790 0.5720 0.5550
548.411790 0.5370 0.5001 0.4631 0.3704 0.3451
553.494390 0.3340 0.3210 0.2970 0.2950 0.2970
558.576990 0.3349 0.3559 0.3749 0.4089 0.4269
563.659590 0.4450 0.4640 0.5000 0.5140 0.5649
568.742190 0.5830 0.6009 0.6199 0.6379 0.6748
573.824789 0.6760 0.6800 0.6860 0.6910 0.6980
578.907389 0.7010 0.7040 0.7050 0.7070 0.7070
583.989989 0.7050 0.6910 0.6540 0.6181 0.5831
589.072589 0.4863 0.3893 0.3531 0.3172 0.3170
594.155189 0.3250 0.3250 0.3030 0.2810 0.2790
599.237789 0.2581 0.1922 0.4082 0.5822 0.5840
604.320389 0.6170 0.6490 0.7120 0.7130 0.7260
609.402988 0.7380 0.7619 0.7630 0.7670 0.7700
614.485588 0.7770 0.7820 0.7840 0.7860 0.7880
619.568188 0.7890 0.7900 0.7920 0.7920 0.7930
624.650788 0.7950 0.7960 0.7960 0.7960 0.7960
629.733388 0.7960 0.7960 0.7950 0.7930 0.7930
634.815988 0.7920 0.7890 0.7860 0.7840 0.7810
639.898587 0.7770 0.7730 0.7640 0.7550 0.7421
644.981187 0.7400 0.7340 0.7260 0.7150 0.7110
650.063787 0.7070 0.7050 0.7070 0.7120 0.7150
655.146387 0.7180 0.7240 0.7340 0.7450 0.7510
660.228987 0.7640 0.7849 0.7890 0.7920 0.7950
665.311587 0.7990 0.8010 0.8140 0.8300 0.8320
670.394186 0.8340 0.8340 0.8360 0.8360 0.8360
675.476786 0.8360 0.8360 0.8370 0.8390 0.8390
680.559386 0.8400 0.8430 0.8430 0.8440 0.8440
685.641986 0.8440 0.8440 0.8440 0.8440 0.8440
690.724586 0.8440 0.8440 0.8440 0.8440 0.8440
695.807186 0.8440 0.8440 0.8440 0.8450 0.8450
700.889786 0.8480 0.8500 0.8520 0.8540 0.8540
705.972385 0.8540 0.8540 0.8540 0.8540 0.8540
711.054985 0.8520 0.8520 0.8510 0.8500 0.8500
716.137585 0.8480 0.8480 0.8470 0.8470 0.8470
721.220185 0.8470 0.8450 0.8450 0.8440 0.8440
726.302785 0.8440 0.8440 0.8450 0.8450 0.8450
731.385385 0.8470 0.8470 0.8470 0.8470 0.8470
736.467984 0.8470 0.8470 0.8470 0.8450 0.8450
741.550584 0.8450 0.8440 0.8440 0.8440 0.8430
746.633184 0.8430 0.8410 0.8410 0.8400 0.8360
751.715784 0.8320 0.8300 0.8290 0.8280 0.8230
756.798384 0.8190 0.8180 0.8150 0.8150 0.8140
761.880984 0.8140 0.8120 0.8110 0.8100 0.8080
766.963584 0.8070 0.8040 0.8010 0.8000 0.7990
772.046183 0.7970 0.7960 0.7950 0.7920 0.7890
777.128783 0.7860 0.7840 0.7810 0.7790 0.7770
782.211383 0.7750 0.7740 0.7680 0.7620 0.7590
787.293983 0.7590 0.7570 0.7560 0.7510 0.7450
792.376583 0.7420 0.7400 0.7340 0.7231 0.7160
797.459183 0.7050 0.6940 0.6800 0.6580 0.6380
802.541782 0.6171 0.5961 0.5761 0.5541 0.5460
807.624382 0.5370 0.4780 0.4780 0.4910 0.5150
812.706982 0.5190 0.5499 0.5540 0.5580 0.5580
817.789582 0.5610 0.5680 0.5800 0.6060 0.6070
822.872182 0.6270 0.6639 0.6650 0.6779 0.6899
827.954782 0.7040 0.7080 0.7090 0.7110 0.7110
833.037382 0.7110 0.7110 0.7110 0.7110 0.7110
838.119981 0.7110 0.7110 0.7090 0.7070 0.7040
843.202581 0.7010 0.6960 0.6910 0.6890 0.6860
848.285181 0.6830 0.6800 0.6780 0.6750 0.6650
853.367781 0.6640 0.6620 0.6610 0.6580 0.6530
858.450381 0.6460 0.6400 0.6360 0.6310 0.6270
863.532981 0.6210 0.6170 0.6120 0.6070 0.6020
868.615580 0.5980 0.5910 0.5870 0.5840 0.5810
873.698180 0.5800 0.5790 0.5760 0.5740 0.5650
878.780780 0.5620 0.5500 0.5470 0.5440 0.5360
883.863380 0.5320 0.5280 0.5240 0.5170 0.5110
888.945980 0.5020 0.4970 0.4880 0.4800 0.4700
894.028580 0.4660 0.4600 0.4550 0.4490 0.4470
899.111180 0.4440 0.4070 0.4040 0.4030 0.3960
904.193779 0.3890 0.3790 0.3740 0.3700 0.3670
909.276379 0.3630 0.3540 0.3430 0.3370 0.3310
914.358979 0.3280 0.3240 0.3190 0.3160 0.3140
919.441579 0.3130 0.3120 0.3080 0.3010 0.2970
924.524179 0.2950 0.2920 0.2910 0.2880 0.2860
929.606779 0.2860 0.2810 0.2790 0.2720 0.2660
934.689378 0.2620 0.2580 0.2540 0.2480 0.2460
939.771978 0.2280 0.1810 0.1620 0.1400 0.1180
944.854578 0.1080 0.0970 0.0751 0.0551 0.0311
949.937178 0.0310 0.0640 0.1219 0.1510 0.1799
955.019778 0.2089 0.2439 0.2440 0.2699 0.3755
960.102378 0.3760 0.4010 0.4260 0.4520 0.4730
965.184977 0.4820 0.4890 0.4910 0.5059 0.5568
970.267577 0.5840 0.5850 0.6100 0.6160 0.6310
975.350177 0.6320 0.6400 0.6540 0.6640 0.6750
980.432777 0.6870 0.6930 0.6960 0.7040 0.7070
985.515377 0.7110 0.7130 0.7190 0.7200 0.7220
990.597977 0.7230 0.7200 0.7190 0.7160 0.7150
995.680577 0.7120 0.7090 0.7050 0.6970 0.6721
1000.763176 0.6460 0.6160 0.5850 0.5550 0.5400
1005.845776 0.5250 0.4951 0.4800 0.4641 0.4640
1010.928376 0.5020 0.5210 0.5830 0.6489 0.6500
1016.010976 0.6799 0.7089 0.7369 0.7480 0.7589
1021.093576 0.7620 0.7750 0.7770 0.7770 0.7780
1026.176176 0.7780 0.7790 0.7820 0.7850 0.7860
1031.258775 0.7860 0.7880 0.7880 0.7860 0.7860
1036.341375 0.7850 0.7850 0.7850 0.7850 0.7850
1041.423975 0.7860 0.7860 0.7860 0.7880 0.7880
1046.506575 0.7890 0.7900 0.7920 0.7970 0.8010
1051.589175 0.8060 0.8070 0.8070 0.8080 0.8080
1056.671775 0.8100 0.8100 0.8110 0.8110 0.8110
1061.754375 0.8120 0.8150 0.8150 0.8180 0.8190
1066.836974 0.8210 0.8210 0.8210 0.8220 0.8220
1071.919574 0.8230 0.8230 0.8230 0.8250 0.8260
1077.002174 0.8260 0.8260 0.8260 0.8280 0.8290
1082.084774 0.8300 0.8300 0.8300 0.8320 0.8320
1087.167374 0.8320 0.8320 0.8330 0.8330 0.8330
1092.249974 0.8330 0.8330 0.8330 0.8320 0.8320
1097.332573 0.8320 0.8320 0.8320 0.8300 0.8290
1102.415173 0.8290 0.8260 0.8220 0.8210 0.8170
1107.497773 0.8120 0.8110 0.8080 0.8000 0.7950
1112.580373 0.7790 0.7780 0.7710 0.7640 0.7600
1117.662973 0.7590 0.7590 0.7590 0.7600 0.7640
1122.745573 0.7660 0.7770 0.7780 0.7840 0.7890
1127.828173 0.7920 0.7930 0.7930 0.7950 0.7960
1132.910772 0.7960 0.7950 0.7950 0.7920 0.7920
1137.993372 0.7900 0.7900 0.7890 0.7880 0.7860
1143.075972 0.7840 0.7770 0.7750 0.7740 0.7730
1148.158572 0.7640 0.7600 0.7600 0.7530 0.7460
1153.241172 0.7410 0.7380 0.7340 0.7270 0.7230
1158.323772 0.7050 0.6940 0.6800 0.6571 0.6431
1163.406371 0.6310 0.6180 0.6060 0.5810 0.5520
1168.488971 0.5410 0.5290 0.5031 0.4751 0.4620
1173.571571 0.4470 0.4420 0.4330 0.4300 0.4270
1178.654171 0.4260 0.4250 0.4230 0.4200 0.4190
1183.736771 0.4110 0.4050 0.3980 0.3920 0.3850
1188.819371 0.3591 0.3351 0.3200 0.3031 0.2811
1193.901971 0.2620 0.2420 0.2210 0.1441 0.1080
1198.984570 0.0920 0.0740 0.0411 0.0410 0.0529
1204.067170 0.0590 0.0740 0.1150 0.1160 0.1480
1209.149770 0.2069 0.2090 0.2359 0.2330 0.2151
1214.232370 0.2000 0.1880 0.1440 0.1190 0.1030
1219.314970 0.1000 0.1030 0.1329 0.1629 0.1949
1224.397570 0.2250 0.2550 0.2790 0.3610 0.3750
1229.480169 0.4269 0.4749 0.5718 0.6199 0.6648
1234.562769 0.6760 0.6940 0.6970 0.7180 0.7290
1239.645369 0.7350 0.7440 0.7460 0.7520 0.7550
1244.727969 0.7560 0.7570 0.7570 0.7570 0.7590
1249.810569 0.7590 0.7560 0.7530 0.7520 0.7510
1254.893169 0.7490 0.7490 0.7460 0.7460 0.7450
1259.975768 0.7420 0.7370 0.7290 0.7240 0.7111
1265.058368 0.7090 0.6980 0.6870 0.6780 0.6680
1270.140968 0.6570 0.6470 0.6380 0.6340 0.6181
1275.223568 0.5980 0.5900 0.5770 0.5590 0.5370
1280.306168 0.5140 0.4920 0.4661 0.4401 0.4151
1285.388768 0.3890 0.3630 0.3370 0.3170 0.2980
1290.471368 0.2401 0.2131 0.1851 0.1581 0.1301
1295.553967 0.1260 0.1040 0.1030 0.1040 0.1190
1300.636567 0.1340 0.1490 0.1650 0.1799 0.1949
1305.719167 0.2070 0.2100 0.2180 0.2400 0.2440
1310.801767 0.2470 0.2460 0.2440 0.2420 0.2390
1315.884367 0.2350 0.2320 0.2310 0.2310 0.2320
1320.966967 0.2360 0.2510 0.2610 0.2660 0.2799
1326.049566 0.2870 0.3190 0.3480 0.3750 0.4290
1331.132166 0.4300 0.4520 0.4749 0.4969 0.5408
1336.214766 0.5570 0.5700 0.5980 0.6100 0.6120
1341.297366 0.6280 0.6430 0.6560 0.6620 0.6670
1346.379966 0.6760 0.6800 0.6870 0.7070 0.7120
1351.462566 0.7180 0.7300 0.7310 0.7340 0.7340
1356.545166 0.7350 0.7350 0.7350 0.7340 0.7330
1361.627765 0.7310 0.7310 0.7290 0.7230 0.7160
1366.710365 0.7130 0.6940 0.6740 0.6350 0.6060
1371.792965 0.5721 0.5361 0.4772 0.4192 0.3632
1376.875565 0.3631 0.4000 0.4360 0.4730 0.5080
1381.958165 0.6428 0.6739 0.6790 0.6800 0.6790
1387.040765 0.6780 0.6670 0.6620 0.6460 0.6360
1392.123364 0.6290 0.6180 0.6090 0.5980 0.5950
1397.205964 0.5900 0.5840 0.5610 0.5480 0.5350
1402.288564 0.5240 0.5180 0.5110 0.5040 0.5030
1407.371164 0.5000 0.4990 0.4840 0.4690 0.4590
1412.453764 0.4370 0.4121 0.3851 0.3571 0.3301
1417.536364 0.3160 0.3020 0.2750 0.2360 0.2210
1422.618964 0.2090 0.1960 0.1910 0.1880 0.1870
1427.701563 0.1810 0.1780 0.1760 0.1710 0.1700
1432.784163 0.1700 0.1710 0.1730 0.1760 0.1820
1437.866763 0.1960 0.2131 0.2620 0.3270 0.3560
1442.949363 0.3760 0.3820 0.3960 0.3960 0.3850
1448.031963 0.3380 0.2900 0.2320 0.1740 0.1400
1453.114563 0.1150 0.1150 0.1688 0.1949 0.2219
1458.197162 0.2481 0.3450 0.3750 0.4110 0.4470
1463.279762 0.5139 0.5170 0.5609 0.5720 0.5840
1468.362362 0.5920 0.6020 0.6030 0.6130 0.6200
1473.444962 0.6230 0.6320 0.6340 0.6420 0.6490
1478.527562 0.6580 0.6760 0.6930 0.6960 0.7240
1483.610162 0.7260 0.7300 0.7440 0.7570 0.7620
1488.692762 0.7810 0.7950 0.7960 0.8070 0.8080
1493.775361 0.8110 0.8110 0.8110 0.8120 0.8120
1498.857961 0.8120 0.8120 0.8110 0.8110 0.8110
1503.940561 0.8110 0.8110 0.8100 0.8100 0.8100
1509.023161 0.8100 0.8110 0.8110 0.8110 0.8110
1514.105761 0.8110 0.8100 0.8100 0.8080 0.8080
1519.188361 0.8070 0.8070 0.8070 0.8060 0.8060
1524.270960 0.8060 0.8040 0.8030 0.8030 0.8010
1529.353560 0.8000 0.8000 0.7990 0.7990 0.7990
1534.436160 0.7990 0.7970 0.7970 0.7970 0.7960
1539.518760 0.7960 0.7950 0.7930 0.7880 0.7880
1544.601360 0.7860 0.7860 0.7850 0.7850 0.7840
1549.683960 0.7810 0.7810 0.7790 0.7790 0.7790
1554.766559 0.7790 0.7790 0.7790 0.7780 0.7780
1559.849159 0.7780 0.7780 0.7770 0.7750 0.7750
1564.931759 0.7740 0.7730 0.7730 0.7710 0.7700
1570.014359 0.7670 0.7640 0.7630 0.7620 0.7600
1575.096959 0.7590 0.7590 0.7570 0.7570 0.7570
1580.179559 0.7560 0.7550 0.7530 0.7460 0.7410
1585.262159 0.7310 0.7290 0.7260 0.7240 0.7230
1590.344758 0.7120 0.7080 0.6940 0.6900 0.6870
1595.427358 0.6830 0.6790 0.6760 0.6710 0.6620
1600.509958 0.6510 0.6380 0.6320 0.6200 0.6180
1605.592558 0.6100 0.6030 0.5980 0.5920 0.5770
1610.675158 0.5510 0.5460 0.5390 0.5290 0.5240
1615.757758 0.4930 0.4890 0.4820 0.4690 0.4042
1620.840357 0.4000 0.3750 0.3560 0.3280 0.3140
1625.922957 0.2990 0.2571 0.2530 0.2141 0.1632
1631.005557 0.1510 0.1230 0.1010 0.0960 0.0890
1636.088157 0.0860 0.0830 0.0820 0.0810 0.0790
1641.170757 0.0810 0.1000 0.1210 0.1400 0.1600
1646.253357 0.2149 0.3538 0.3889 0.4299 0.4878
1651.335957 0.5540 0.5550 0.5540 0.5520 0.5500
1656.418556 0.5480 0.5470 0.5460 0.5430 0.5400
1661.501156 0.5300 0.5260 0.5130 0.5040 0.5020
1666.583756 0.5000 0.4930 0.4910 0.4840 0.4581
1671.666356 0.4560 0.4250 0.4090 0.4070 0.3870
1676.748956 0.3710 0.3560 0.3430 0.3161 0.2881
1681.831556 0.2570 0.2310 0.1960 0.1660 0.1320
1686.914155 0.1210 0.0821 0.0441 0.0300 0.0170
1691.996755 0.0050 0.0040 0.0020 0.0010 0.0010
1697.079355 0.0010 0.0010 0.0010 0.0010 0.0010
1702.161955 0.0010 0.0010 0.0010 0.0020 0.0020
1707.244555 0.0040 0.0060 0.0110 0.0120 0.0339
1712.327155 0.0450 0.0530 0.0850 0.1140 0.1300
1717.409755 0.1550 0.1959 0.2070 0.2499 0.2789
1722.492354 0.3380 0.3530 0.3600 0.3720 0.3890
1727.574954 0.4000 0.4120 0.4230 0.4300 0.4330
1732.657554 0.4330 0.4330 0.4340 0.4340 0.4340
1737.740154 0.4340 0.4340 0.4360 0.4400 0.4470
1742.822754 0.4560 0.4640 0.4800 0.4920 0.5040
1747.905354 0.5130 0.5210 0.5499 0.5650 0.5730
1752.987953 0.5840 0.6010 0.6050 0.6160 0.6170
1758.070553 0.6230 0.6290 0.6310 0.6320 0.6390
1763.153153 0.6490 0.6570 0.6610 0.6620 0.6680
1768.235753 0.6760 0.6800 0.6870 0.6900 0.6940
1773.318353 0.7010 0.7040 0.7070 0.7080 0.7080
1778.400953 0.7090 0.7110 0.7120 0.7160 0.7190
1783.483553 0.7200 0.7220 0.7230 0.7240 0.7260
1788.566152 0.7270 0.7270 0.7290 0.7290 0.7300
1793.648752 0.7310 0.7330 0.7330 0.7330 0.7340
1798.731352 0.7340 0.7340 0.7340 0.7340 0.7330
1803.813952 0.7330 0.7330 0.7340 0.7340 0.7340
1808.896552 0.7350 0.7350 0.7380 0.7380 0.7400
1813.979152 0.7400 0.7410 0.7420 0.7440 0.7440
1819.061751 0.7460 0.7480 0.7490 0.7490 0.7520
1824.144351 0.7530 0.7530 0.7550 0.7550 0.7560
1829.226951 0.7560 0.7570 0.7590 0.7600 0.7620
1834.309551 0.7630 0.7640 0.7640 0.7660 0.7660
1839.392151 0.7670 0.7670 0.7680 0.7700 0.7710
1844.474751 0.7730 0.7740 0.7740 0.7750 0.7750
1849.557350 0.7750 0.7770 0.7770 0.7780 0.7780
1854.639950 0.7780 0.7780 0.7790 0.7810 0.7810
1859.722550 0.7810 0.7810 0.7790 0.7790 0.7790
1864.805150 0.7790 0.7790 0.7780 0.7780 0.7780
1869.887750 0.7780 0.7770 0.7770 0.7770 0.7750
1874.970350 0.7750 0.7750 0.7740 0.7730 0.7730
1880.052950 0.7710 0.7700 0.7680 0.7670 0.7660
1885.135549 0.7630 0.7600 0.7590 0.7530 0.7510
1890.218149 0.7480 0.7450 0.7440 0.7420 0.7410
1895.300749 0.7400 0.7400 0.7380 0.7380 0.7370
1900.383349 0.7340 0.7310 0.7240 0.7220 0.7220
1905.465949 0.7230 0.7270 0.7310 0.7330 0.7370
1910.548549 0.7460 0.7570 0.7620 0.7700 0.7710
1915.631148 0.7750 0.7770 0.7780 0.7810 0.7820
1920.713748 0.7840 0.7850 0.7850 0.7860 0.7860
1925.796348 0.7860 0.7880 0.7880 0.7880 0.7880
1930.878948 0.7890 0.7900 0.7920 0.7930 0.7930
1935.961548 0.7930 0.7930 0.7930 0.7930 0.7930
1941.044148 0.7930 0.7930 0.7930 0.7930 0.7920
1946.126748 0.7920 0.7920 0.7920 0.7900 0.7900
1951.209347 0.7900 0.7900 0.7890 0.7900 0.7900
1956.291947 0.7900 0.7920 0.7920 0.7920 0.7930
1961.374547 0.7930 0.7950 0.7950 0.7950 0.7950
1966.457147 0.7950 0.7950 0.7950 0.7950 0.7950
1971.539747 0.7930 0.7930 0.7930 0.7930 0.7920
1976.622347 0.7920 0.7920 0.7900 0.7890 0.7890
1981.704946 0.7890 0.7890 0.7900 0.7900 0.7900
1986.787546 0.7900 0.7900 0.7920 0.7920 0.7920
1991.870146 0.7930 0.7930 0.7930 0.7950 0.7960
1996.952746 0.7970 0.7990 0.8000 0.8010 0.8020
2002.035346 0.8030 0.8035 0.8040 0.8056 0.8070
2007.117946 0.8075 0.8081 0.8096 0.8110 0.8115
2012.200546 0.8121 0.8131 0.8140 0.8146 0.8151
2017.283145 0.8161 0.8171 0.8176 0.8180 0.8180
2022.365745 0.8181 0.8186 0.8192 0.8202 0.8211
2027.448345 0.8216 0.8220 0.8220 0.8221 0.8226
2032.530945 0.8230 0.8230 0.8232 0.8243 0.8250
2037.613545 0.8250 0.8251 0.8256 0.8260 0.8260
2042.696145 0.8260 0.8260 0.8260 0.8260 0.8260
2047.778744 0.8260 0.8260 0.8260 0.8264 0.8274
2052.861344 0.8280 0.8280 0.8276 0.8266 0.8260
2057.943944 0.8260 0.8258 0.8253 0.8250 0.8250
2063.026544 0.8250 0.8250 0.8245 0.8235 0.8230
2068.109144 0.8230 0.8227 0.8222 0.8220 0.8220
2073.191744 0.8212 0.8197 0.8187 0.8182 0.8177
2078.274344 0.8172 0.8164 0.8154 0.8126 0.8085
2083.356943 0.8061 0.8046 0.8030 0.8015 0.8003
2088.439543 0.7993 0.7983 0.7973 0.7967 0.7962
2093.522143 0.7960 0.7960 0.7956 0.7951 0.7939
2098.604743 0.7924 0.7909 0.7894 0.7886 0.7881
2103.687343 0.7872 0.7862 0.7856 0.7851 0.7846
2108.769943 0.7841 0.7840 0.7840 0.7832 0.7822
2113.852542 0.7820 0.7820 0.7820 0.7820 0.7829
2118.935142 0.7839 0.7840 0.7840 0.7845 0.7850
2124.017742 0.7855 0.7860 0.7874 0.7889 0.7919
2129.100342 0.7949 0.7960 0.7970 0.7999 0.8030
2134.182942 0.8045 0.8060 0.8070 0.8080 0.8090
2139.265542 0.8100 0.8110 0.8121 0.8131 0.8140
2144.348141 0.8140 0.8140 0.8140 0.8140 0.8140
2149.430741 0.8140 0.8140 0.8140 0.8140 0.8140
2154.513341 0.8140 0.8140 0.8140 0.8140 0.8140
2159.595941 0.8140 0.8140 0.8140 0.8140 0.8138
2164.678541 0.8128 0.8120 0.8120 0.8119 0.8114
2169.761141 0.8109 0.8104 0.8096 0.8081 0.8069
2174.843741 0.8064 0.8057 0.8047 0.8038 0.8033
2179.926340 0.8027 0.8016 0.8010 0.8010 0.8008
2185.008940 0.8003 0.7998 0.7993 0.7990 0.7990
2190.091540 0.7990 0.7990 0.7986 0.7976 0.7968
2195.174140 0.7963 0.7960 0.7960 0.7951 0.7930
2200.256740 0.7913 0.7897 0.7887 0.7882 0.7872
2205.339340 0.7857 0.7842 0.7827 0.7817 0.7812
2210.421939 0.7810 0.7810 0.7813 0.7818 0.7826
2215.504539 0.7836 0.7843 0.7848 0.7853 0.7858
2220.587139 0.7866 0.7877 0.7883 0.7888 0.7893
2225.669739 0.7898 0.7907 0.7917 0.7920 0.7920
2230.752339 0.7924 0.7929 0.7930 0.7930 0.7937
2235.834939 0.7948 0.7950 0.7950 0.7950 0.7950
2240.917539 0.7950 0.7950 0.7950 0.7950 0.7950
2246.000138 0.7950 0.7950 0.7950 0.7950 0.7950
2251.082738 0.7950 0.7950 0.7950 0.7950 0.7950
2256.165338 0.7950 0.7950 0.7950 0.7941 0.7931
2261.247938 0.7930 0.7930 0.7930 0.7930 0.7930
2266.330538 0.7930 0.7925 0.7920 0.7920 0.7920
2271.413138 0.7920 0.7920 0.7910 0.7900 0.7900
