##TITLE=DITHIO OXAMIDE
##JCAMP-DX=4.24
##DATA TYPE=INFRARED SPECTRUM
##CLASS=COBLENTZ
##ORIGIN=WYANDOTTE CHEMICALS CORP., WYANDOTTE, MICHIGAN, USA
##OWNER=COBLENTZ SOCIETY
Collection (C) 2018 copyright by the U.S. Secretary of Commerce
on behalf of the United States of America. All rights reserved.
##DATE=Not specified, most likely prior to 1970
##NAMES=ethanedithioamide
##CAS REGISTRY NO=79-40-3
##MOLFORM=C2 H4 N2 S2
##SOURCE REFERENCE=COBLENTZ NO. 1375
##$NIST SOURCE=COBLENTZ
##$NIST IMAGE=cob1375
##SPECTROMETER/DATA SYSTEM=Not specified, most likely a prism, grating, or hybrid spectrometer.
##STATE=SOLID (MINERAL OIL MULL)
##SAMPLING PROCEDURE=TRANSMISSION
##RESOLUTION=4
##DATA PROCESSING=DIGITIZED BY NIST FROM HARD COPY
##XUNITS=MICROMETERS
##YUNITS=TRANSMITTANCE
##XFACTOR=1.000000
##YFACTOR=1
##DELTAX=000.006799
##FIRSTX=2.027
##LASTX=15.9796
##FIRSTY=0.424
##MAXX=15.9796
##MINX=2.027
##MAXY=0.936
##MINY=0.023
##NPOINTS=2053
##XYDATA=(X++(Y..Y))
2.027000 0.4240 0.4240 0.4240 0.4240 0.4250
2.061014 0.4270 0.4270 0.4270 0.4270 0.4290
2.095000 0.4290 0.4290 0.4310 0.4310 0.4310
2.129014 0.4310 0.4310 0.4310 0.4310 0.4320
2.163000 0.4340 0.4340 0.4320 0.4320 0.4320
2.197014 0.4320 0.4310 0.4290 0.4290 0.4290
2.231000 0.4290 0.4290 0.4290 0.4290 0.4290
2.265014 0.4290 0.4290 0.4290 0.4290 0.4290
2.299000 0.4290 0.4290 0.4290 0.4310 0.4340
2.333014 0.4340 0.4340 0.4340 0.4340 0.4370
2.367000 0.4390 0.4420 0.4420 0.4440 0.4440
2.401014 0.4440 0.4490 0.4510 0.4510 0.4530
2.435000 0.4530 0.4540 0.4540 0.4540 0.4580
2.469014 0.4590 0.4590 0.4590 0.4590 0.4590
2.503000 0.4590 0.4590 0.4610 0.4610 0.4650
2.537014 0.4650 0.4650 0.4700 0.4730 0.4780
2.571000 0.4830 0.4880 0.4920 0.4920 0.4940
2.605014 0.4940 0.4940 0.4940 0.4950 0.4970
2.639000 0.4990 0.5000 0.5000 0.5020 0.5040
2.673014 0.5040 0.5110 0.5120 0.5120 0.5120
2.707000 0.5140 0.5140 0.5140 0.5140 0.5140
2.741014 0.5170 0.5210 0.5220 0.5240 0.5280
2.775000 0.5290 0.5290 0.5310 0.5310 0.5310
2.809014 0.5330 0.5330 0.5330 0.5340 0.5380
2.843000 0.5400 0.5430 0.5450 0.5510 0.5530
2.877014 0.5620 0.5630 0.5680 0.5720 0.5740
2.911000 0.5800 0.5840 0.5920 0.5970 0.6010
2.945014 0.6030 0.6030 0.6110 0.6140 0.6200
2.979000 0.6210 0.6210 0.6180 0.6110 0.5990
3.013014 0.5680 0.5220 0.4610 0.3810 0.3030
3.047000 0.2820 0.2810 0.2820 0.2930 0.3110
3.081014 0.3280 0.3390 0.3440 0.3390 0.3230
3.115000 0.3200 0.3130 0.3100 0.3150 0.3200
3.149014 0.3280 0.3440 0.3440 0.3280 0.3180
3.183000 0.2980 0.2740 0.2450 0.2410 0.2450
3.217014 0.2640 0.2690 0.2790 0.2910 0.3010
3.251000 0.3100 0.3130 0.3150 0.3150 0.3180
3.285014 0.3180 0.3150 0.3030 0.2890 0.2640
3.319000 0.2400 0.2040 0.1510 0.1030 0.0630
3.353014 0.0440 0.0300 0.0230 0.0230 0.0230
3.387000 0.0230 0.0250 0.0270 0.0270 0.0280
3.421014 0.0300 0.0320 0.0340 0.0350 0.0350
3.455000 0.0350 0.0350 0.0340 0.0340 0.0340
3.489014 0.0340 0.0350 0.0350 0.0510 0.0710
3.523000 0.1100 0.1430 0.1830 0.2410 0.2890
3.557014 0.3210 0.3420 0.3640 0.3810 0.3980
3.591000 0.4030 0.4120 0.4220 0.4270 0.4340
3.625014 0.4410 0.4420 0.4440 0.4490 0.4510
3.659000 0.4510 0.4510 0.4510 0.4510 0.4510
3.693014 0.4510 0.4530 0.4540 0.4540 0.4590
3.727000 0.4610 0.4610 0.4630 0.4650 0.4680
3.761014 0.4700 0.4710 0.4750 0.4750 0.4780
3.795000 0.4780 0.4800 0.4820 0.4820 0.4830
3.829014 0.4830 0.4850 0.4900 0.4940 0.4940
3.863000 0.4950 0.4990 0.5000 0.5040 0.5040
3.897014 0.5110 0.5120 0.5140 0.5140 0.5140
3.931000 0.5170 0.5190 0.5190 0.5190 0.5210
3.965014 0.5240 0.5240 0.5240 0.5280 0.5280
3.999000 0.5290 0.5290 0.5290 0.5290 0.5290
4.033014 0.5290 0.5290 0.5290 0.5310 0.5310
4.067000 0.5330 0.5330 0.5340 0.5340 0.5340
4.101014 0.5340 0.5340 0.5340 0.5340 0.5340
4.135000 0.5340 0.5340 0.5340 0.5340 0.5340
4.169014 0.5340 0.5340 0.5340 0.5380 0.5410
4.203000 0.5430 0.5450 0.5460 0.5480 0.5480
4.237014 0.5430 0.5380 0.5340 0.5340 0.5330
4.271000 0.5340 0.5340 0.5380 0.5410 0.5480
4.305014 0.5510 0.5530 0.5550 0.5600 0.5630
4.339000 0.5680 0.5740 0.5770 0.5820 0.5840
4.373014 0.5840 0.5860 0.5860 0.5860 0.5860
4.407000 0.5840 0.5840 0.5840 0.5820 0.5800
4.441014 0.5790 0.5790 0.5800 0.5790 0.5790
4.475000 0.5800 0.5820 0.5820 0.5820 0.5820
4.509014 0.5820 0.5820 0.5820 0.5820 0.5840
4.543000 0.5860 0.5860 0.5890 0.5890 0.5890
4.577014 0.5910 0.5910 0.5910 0.5920 0.5920
4.611000 0.5920 0.5920 0.5920 0.5920 0.5920
4.645014 0.5940 0.5940 0.5990 0.5990 0.5990
4.679000 0.5990 0.5990 0.5990 0.5990 0.5990
4.713014 0.6010 0.6010 0.6010 0.6010 0.6030
4.747000 0.6030 0.6030 0.6030 0.6030 0.6030
4.781014 0.6030 0.6030 0.6030 0.6030 0.6040
4.815000 0.6060 0.6090 0.6110 0.6110 0.6130
4.849014 0.6140 0.6140 0.6160 0.6160 0.6160
4.883000 0.6160 0.6160 0.6160 0.6160 0.6160
4.917014 0.6160 0.6160 0.6160 0.6160 0.6160
4.951000 0.6180 0.6200 0.6210 0.6210 0.6230
4.985014 0.6250 0.6250 0.6260 0.6260 0.6260
5.019000 0.6260 0.6250 0.6260 0.6260 0.6280
5.053014 0.6300 0.6320 0.6330 0.6350 0.6350
5.087000 0.6400 0.6420 0.6430 0.6450 0.6450
5.121014 0.6450 0.6450 0.6450 0.6490 0.6490
5.155000 0.6540 0.6540 0.6540 0.6540 0.6540
5.189014 0.6520 0.6500 0.6520 0.6540 0.6540
5.223000 0.6540 0.6540 0.6550 0.6550 0.6550
5.257014 0.6550 0.6590 0.6590 0.6590 0.6590
5.291000 0.6600 0.6600 0.6620 0.6620 0.6660
5.325014 0.6660 0.6710 0.6710 0.6710 0.6720
5.359000 0.6720 0.6740 0.6740 0.6740 0.6740
5.393014 0.6760 0.6760 0.6780 0.6780 0.6780
5.427000 0.6780 0.6780 0.6790 0.6810 0.6810
5.461014 0.6840 0.6840 0.6890 0.6930 0.6930
5.495000 0.6890 0.6890 0.6910 0.6930 0.6930
5.529014 0.6960 0.6980 0.7000 0.7010 0.7010
5.563000 0.7010 0.7010 0.7010 0.7010 0.7010
5.597014 0.7010 0.7030 0.7080 0.7120 0.7130
5.631000 0.7130 0.7130 0.7130 0.7130 0.7130
5.665014 0.7130 0.7130 0.7130 0.7130 0.7120
5.699000 0.7120 0.7080 0.7080 0.7010 0.7010
5.733014 0.7080 0.7120 0.7130 0.7180 0.7220
5.767000 0.7290 0.7370 0.7460 0.7470 0.7490
5.801014 0.7490 0.7520 0.7540 0.7580 0.7630
5.835000 0.7630 0.7610 0.7610 0.7590 0.7610
5.869014 0.7630 0.7630 0.7730 0.7810 0.7870
5.903000 0.7870 0.7870 0.7800 0.7800 0.7870
5.937014 0.7980 0.8070 0.8140 0.8140 0.8140
5.971000 0.8210 0.8240 0.8290 0.8340 0.8390
6.005014 0.8440 0.8510 0.8530 0.8530 0.8530
6.039000 0.8600 0.8670 0.8770 0.8870 0.8870
6.073014 0.8720 0.8630 0.8620 0.8530 0.8390
6.107000 0.8210 0.8020 0.7980 0.7780 0.7590
6.141014 0.7490 0.7320 0.7180 0.7000 0.6780
6.175000 0.6660 0.6200 0.5970 0.5210 0.4700
6.209014 0.4190 0.3520 0.3100 0.2500 0.2400
6.243000 0.2020 0.1990 0.2020 0.2310 0.2400
6.277014 0.2690 0.2820 0.3100 0.3390 0.3690
6.311000 0.3900 0.4030 0.4190 0.4310 0.4420
6.345014 0.4490 0.4530 0.4610 0.4780 0.4970
6.379000 0.5090 0.5210 0.5290 0.5400 0.5430
6.413014 0.5450 0.5480 0.5500 0.5510 0.5530
6.447000 0.5580 0.5680 0.5770 0.5820 0.5870
6.481014 0.5890 0.5890 0.5910 0.5910 0.5910
6.515000 0.5910 0.5910 0.5920 0.5990 0.5990
6.549014 0.6030 0.6110 0.6130 0.6130 0.6110
6.583000 0.6030 0.6030 0.6110 0.6140 0.6180
6.617014 0.6210 0.6210 0.6210 0.6200 0.6200
6.651000 0.6200 0.6200 0.6140 0.6110 0.6030
6.685014 0.6010 0.5920 0.5870 0.5770 0.5580
6.719000 0.5400 0.5210 0.5000 0.4710 0.4410
6.753014 0.4000 0.3300 0.2700 0.2570 0.2110
6.787000 0.1730 0.1430 0.1410 0.1360 0.1340
6.821014 0.1360 0.1390 0.1430 0.1510 0.1610
6.855000 0.1780 0.1890 0.2010 0.2090 0.2190
6.889014 0.2240 0.2290 0.2350 0.2430 0.2500
6.923000 0.2520 0.2530 0.2530 0.2580 0.2600
6.957014 0.2620 0.2690 0.2770 0.3010 0.3200
6.991000 0.3390 0.3610 0.3810 0.4000 0.4200
7.025014 0.4370 0.4410 0.4530 0.4630 0.4730
7.059000 0.4780 0.4820 0.4830 0.4850 0.4880
7.093014 0.4880 0.4880 0.4880 0.4880 0.4880
7.127000 0.4880 0.4880 0.4880 0.4880 0.4830
7.161014 0.4750 0.4700 0.4680 0.4460 0.4220
7.195000 0.4000 0.3710 0.3470 0.3110 0.2910
7.229014 0.2620 0.2500 0.2260 0.2230 0.2210
7.263000 0.2230 0.2450 0.3010 0.3230 0.3500
7.297014 0.3590 0.3690 0.3710 0.3810 0.4020
7.331000 0.4200 0.4410 0.4590 0.4710 0.4730
7.365014 0.4750 0.4770 0.4800 0.4820 0.4850
7.399000 0.4900 0.4920 0.4940 0.4940 0.4950
7.433014 0.4990 0.4990 0.5000 0.5000 0.5020
7.467000 0.5040 0.5090 0.5110 0.5120 0.5140
7.501014 0.5140 0.5160 0.5190 0.5220 0.5220
7.535000 0.5220 0.5240 0.5240 0.5240 0.5240
7.569014 0.5240 0.5240 0.5240 0.5240 0.5240
7.603000 0.5240 0.5240 0.5240 0.5240 0.5260
7.637014 0.5260 0.5260 0.5280 0.5280 0.5290
7.671000 0.5290 0.5290 0.5310 0.5330 0.5340
7.705014 0.5340 0.5400 0.5410 0.5430 0.5450
7.739000 0.5480 0.5510 0.5580 0.5600 0.5620
7.773014 0.5630 0.5650 0.5670 0.5680 0.5700
7.807000 0.5720 0.5740 0.5750 0.5770 0.5790
7.841014 0.5800 0.5820 0.5840 0.5840 0.5860
7.875000 0.5860 0.5890 0.5890 0.5920 0.5940
7.909014 0.5940 0.5990 0.6010 0.6010 0.6030
7.943000 0.6030 0.6040 0.6040 0.6060 0.6080
7.977014 0.6080 0.6090 0.6090 0.6110 0.6140
8.011000 0.6160 0.6200 0.6210 0.6230 0.6250
8.045014 0.6280 0.6300 0.6320 0.6330 0.6350
8.079000 0.6400 0.6430 0.6490 0.6520 0.6540
8.113014 0.6590 0.6590 0.6600 0.6620 0.6640
8.147000 0.6690 0.6720 0.6740 0.6790 0.6830
8.181014 0.6880 0.6910 0.6950 0.6980 0.6980
8.215000 0.6980 0.6980 0.6980 0.6910 0.6720
8.249014 0.6590 0.6420 0.6200 0.5990 0.5720
8.283000 0.5500 0.5220 0.5020 0.4920 0.4820
8.317014 0.4750 0.4710 0.4660 0.4660 0.4700
8.351000 0.4730 0.4770 0.4880 0.4990 0.5090
8.385014 0.5190 0.5290 0.5340 0.5450 0.5550
8.419000 0.5670 0.5680 0.5740 0.5790 0.5800
8.453014 0.5820 0.5840 0.5840 0.5910 0.5990
8.487000 0.5990 0.6010 0.6010 0.6030 0.6030
8.521014 0.6040 0.6040 0.6040 0.6040 0.6040
8.555000 0.6040 0.6040 0.6040 0.6040 0.6060
8.589014 0.6080 0.6080 0.6110 0.6140 0.6180
8.623000 0.6200 0.6210 0.6210 0.6250 0.6250
8.657014 0.6280 0.6320 0.6330 0.6350 0.6400
8.691000 0.6430 0.6450 0.6500 0.6540 0.6540
8.725014 0.6590 0.6620 0.6640 0.6660 0.6690
8.759000 0.6710 0.6720 0.6720 0.6720 0.6740
8.793014 0.6780 0.6790 0.6810 0.6810 0.6810
8.827000 0.6810 0.6810 0.6830 0.6830 0.6840
8.861014 0.6840 0.6890 0.6890 0.6910 0.6910
8.895000 0.6910 0.6910 0.6910 0.6930 0.6950
8.929014 0.6950 0.7000 0.7010 0.7030 0.7030
8.963000 0.7050 0.7080 0.7080 0.7080 0.7080
8.997014 0.7080 0.7080 0.7060 0.7060 0.7060
9.031000 0.7060 0.7060 0.7060 0.7060 0.7060
9.065014 0.7060 0.7030 0.7030 0.7030 0.7010
9.099000 0.7010 0.7010 0.7010 0.7010 0.7010
9.133014 0.7010 0.7000 0.7000 0.7000 0.7000
9.167000 0.7000 0.7000 0.7000 0.6980 0.6980
9.201014 0.6960 0.6980 0.6980 0.6980 0.6980
9.235000 0.6980 0.7000 0.7000 0.7000 0.7000
9.269014 0.7000 0.7010 0.7030 0.7050 0.7050
9.303000 0.7060 0.7060 0.7060 0.7080 0.7080
9.337014 0.7080 0.7100 0.7100 0.7120 0.7120
9.371000 0.7120 0.7120 0.7120 0.7120 0.7120
9.405014 0.7120 0.7130 0.7150 0.7170 0.7180
9.439000 0.7180 0.7220 0.7240 0.7290 0.7290
9.473014 0.7290 0.7290 0.7290 0.7290 0.7290
9.507000 0.7290 0.7290 0.7290 0.7290 0.7290
9.541014 0.7290 0.7290 0.7290 0.7290 0.7290
9.575000 0.7290 0.7290 0.7290 0.7290 0.7290
9.609014 0.7290 0.7290 0.7290 0.7290 0.7300
9.643000 0.7300 0.7320 0.7340 0.7340 0.7320
9.677014 0.7320 0.7320 0.7320 0.7320 0.7320
9.711000 0.7320 0.7320 0.7340 0.7340 0.7340
9.745014 0.7370 0.7370 0.7390 0.7410 0.7410
9.779000 0.7410 0.7410 0.7410 0.7420 0.7420
9.813014 0.7420 0.7420 0.7420 0.7420 0.7420
9.847000 0.7420 0.7440 0.7440 0.7470 0.7470
9.881014 0.7510 0.7520 0.7560 0.7580 0.7590
9.915000 0.7590 0.7590 0.7590 0.7590 0.7590
9.949014 0.7590 0.7590 0.7610 0.7630 0.7630
9.983000 0.7630 0.7640 0.7660 0.7680 0.7680
10.017014 0.7700 0.7700 0.7700 0.7710 0.7710
10.051000 0.7710 0.7710 0.7710 0.7710 0.7710
10.085014 0.7710 0.7730 0.7730 0.7730 0.7730
10.119000 0.7730 0.7730 0.7730 0.7730 0.7730
10.153014 0.7730 0.7730 0.7730 0.7730 0.7710
10.186000 0.7710 0.7710 0.7710 0.7710 0.7700
10.220014 0.7700 0.7700 0.7680 0.7660 0.7640
10.254000 0.7640 0.7640 0.7640 0.7640 0.7660
10.288014 0.7680 0.7680 0.7700 0.7700 0.7700
10.322000 0.7700 0.7700 0.7700 0.7710 0.7710
10.356014 0.7710 0.7730 0.7730 0.7730 0.7750
10.390000 0.7760 0.7780 0.7800 0.7800 0.7800
10.424014 0.7810 0.7810 0.7810 0.7800 0.7800
10.458000 0.7800 0.7800 0.7800 0.7810 0.7830
10.492014 0.7830 0.7830 0.7870 0.7880 0.7900
10.526000 0.7920 0.7930 0.7930 0.7930 0.7930
10.560014 0.7930 0.7930 0.7920 0.7920 0.7920
10.594000 0.7920 0.7920 0.7930 0.7930 0.7930
10.628014 0.7950 0.7950 0.7970 0.7980 0.8000
10.662000 0.8000 0.8000 0.8020 0.8020 0.8020
10.696014 0.8020 0.8020 0.8020 0.8040 0.8040
10.730000 0.8050 0.8050 0.8070 0.8070 0.8090
10.764014 0.8100 0.8120 0.8120 0.8140 0.8160
10.798000 0.8160 0.8160 0.8160 0.8170 0.8170
10.832014 0.8170 0.8170 0.8170 0.8170 0.8190
10.866000 0.8220 0.8220 0.8240 0.8240 0.8240
10.900014 0.8240 0.8240 0.8240 0.8240 0.8240
10.934000 0.8260 0.8270 0.8270 0.8310 0.8330
10.968014 0.8340 0.8380 0.8380 0.8380 0.8410
11.002000 0.8430 0.8440 0.8460 0.8480 0.8500
11.036014 0.8510 0.8530 0.8530 0.8530 0.8530
11.070000 0.8580 0.8580 0.8580 0.8600 0.8600
11.104014 0.8600 0.8620 0.8630 0.8650 0.8650
11.138000 0.8670 0.8670 0.8670 0.8670 0.8670
11.172014 0.8670 0.8670 0.8670 0.8670 0.8670
11.206000 0.8670 0.8680 0.8680 0.8700 0.8700
11.240014 0.8720 0.8720 0.8730 0.8730 0.8730
11.274000 0.8730 0.8730 0.8730 0.8790 0.8820
11.308014 0.8840 0.8890 0.8900 0.8940 0.8990
11.342000 0.8990 0.9010 0.9020 0.9020 0.9060
11.376014 0.9080 0.9090 0.9110 0.9130 0.9140
11.410000 0.9180 0.9210 0.9230 0.9230 0.9260
11.444014 0.9280 0.9280 0.9300 0.9300 0.9300
11.478000 0.9310 0.9330 0.9330 0.9330 0.9330
11.512014 0.9330 0.9330 0.9330 0.9330 0.9330
11.546000 0.9330 0.9350 0.9350 0.9350 0.9360
11.580014 0.9360 0.9360 0.9360 0.9360 0.9360
11.614000 0.9350 0.9350 0.9330 0.9330 0.9300
11.648014 0.9280 0.9230 0.9160 0.9130 0.9090
11.682000 0.9060 0.9010 0.8990 0.8890 0.8820
11.716014 0.8800 0.8670 0.8530 0.8480 0.8330
11.750000 0.8190 0.8020 0.8000 0.7970 0.7760
11.784014 0.7540 0.7300 0.7180 0.7000 0.6790
11.818000 0.6590 0.6430 0.6280 0.6110 0.5990
11.852014 0.5790 0.5680 0.5580 0.5410 0.5310
11.886000 0.5190 0.5040 0.5000 0.4820 0.4710
11.920014 0.4610 0.4530 0.4530 0.4480 0.4480
11.954000 0.4440 0.4420 0.4420 0.4440 0.4460
11.988014 0.4490 0.4530 0.4590 0.4650 0.4710
12.022000 0.4730 0.4780 0.4880 0.4920 0.5000
12.056014 0.5090 0.5110 0.5140 0.5210 0.5290
12.090000 0.5400 0.5500 0.5530 0.5630 0.5680
12.124014 0.5740 0.5800 0.5890 0.5920 0.5990
12.158000 0.6090 0.6130 0.6140 0.6230 0.6280
12.192014 0.6320 0.6330 0.6420 0.6450 0.6490
12.226000 0.6520 0.6540 0.6600 0.6640 0.6640
12.260014 0.6690 0.6720 0.6780 0.6830 0.6840
12.294000 0.6880 0.6890 0.6910 0.6930 0.6930
12.328014 0.6950 0.7000 0.7000 0.7010 0.7030
12.362000 0.7080 0.7100 0.7130 0.7150 0.7170
12.396014 0.7170 0.7180 0.7180 0.7200 0.7220
12.430000 0.7240 0.7270 0.7270 0.7290 0.7300
12.464014 0.7300 0.7320 0.7340 0.7340 0.7350
12.498000 0.7340 0.7370 0.7370 0.7390 0.7390
12.532014 0.7410 0.7410 0.7420 0.7420 0.7440
12.566000 0.7440 0.7440 0.7460 0.7460 0.7460
12.600014 0.7470 0.7470 0.7470 0.7470 0.7490
12.634000 0.7490 0.7490 0.7490 0.7490 0.7490
12.668014 0.7490 0.7490 0.7490 0.7490 0.7490
12.702000 0.7490 0.7510 0.7510 0.7520 0.7520
12.736014 0.7520 0.7520 0.7520 0.7520 0.7520
12.770000 0.7520 0.7520 0.7520 0.7520 0.7520
12.804014 0.7510 0.7510 0.7490 0.7490 0.7490
12.838000 0.7490 0.7490 0.7490 0.7490 0.7490
12.872014 0.7490 0.7490 0.7490 0.7490 0.7510
12.906000 0.7510 0.7510 0.7490 0.7490 0.7490
12.940014 0.7490 0.7490 0.7490 0.7490 0.7490
12.974000 0.7490 0.7490 0.7490 0.7490 0.7490
13.008014 0.7490 0.7490 0.7490 0.7490 0.7490
13.042000 0.7510 0.7510 0.7510 0.7510 0.7510
13.076014 0.7510 0.7510 0.7510 0.7510 0.7510
13.110000 0.7510 0.7510 0.7510 0.7520 0.7520
13.144014 0.7520 0.7520 0.7520 0.7510 0.7510
13.178000 0.7510 0.7510 0.7490 0.7490 0.7490
13.212014 0.7490 0.7490 0.7490 0.7490 0.7470
13.246000 0.7420 0.7420 0.7410 0.7410 0.7410
13.280014 0.7410 0.7390 0.7390 0.7350 0.7340
13.314000 0.7320 0.7320 0.7320 0.7300 0.7290
13.348014 0.7270 0.7250 0.7250 0.7240 0.7240
13.382000 0.7220 0.7220 0.7200 0.7200 0.7180
13.416014 0.7170 0.7130 0.7130 0.7120 0.7100
13.450000 0.7080 0.7010 0.7010 0.7000 0.6980
13.484014 0.6910 0.6890 0.6880 0.6860 0.6810
13.518000 0.6780 0.6720 0.6720 0.6710 0.6690
13.552014 0.6670 0.6670 0.6620 0.6590 0.6550
13.586000 0.6500 0.6470 0.6420 0.6420 0.6400
13.620014 0.6370 0.6330 0.6320 0.6300 0.6300
13.654000 0.6280 0.6230 0.6230 0.6230 0.6200
13.688014 0.6130 0.6110 0.6030 0.6010 0.5990
13.722000 0.5970 0.5920 0.5910 0.5890 0.5820
13.756014 0.5790 0.5750 0.5740 0.5720 0.5650
13.790000 0.5620 0.5580 0.5570 0.5510 0.5500
13.824014 0.5480 0.5430 0.5380 0.5310 0.5290
13.858000 0.5280 0.5220 0.5220 0.5210 0.5190
13.892014 0.5170 0.5160 0.5140 0.5120 0.5120
13.926000 0.5120 0.5120 0.5120 0.5140 0.5160
13.960014 0.5160 0.5160 0.5160 0.5160 0.5170
13.994000 0.5170 0.5190 0.5190 0.5210 0.5210
14.028014 0.5210 0.5210 0.5210 0.5210 0.5210
14.062000 0.5210 0.5210 0.5220 0.5220 0.5220
14.096014 0.5220 0.5220 0.5220 0.5210 0.5210
14.130000 0.5210 0.5210 0.5210 0.5210 0.5190
14.164014 0.5190 0.5190 0.5190 0.5190 0.5190
14.198000 0.5190 0.5190 0.5190 0.5210 0.5210
14.232014 0.5220 0.5220 0.5220 0.5280 0.5290
14.266000 0.5290 0.5290 0.5290 0.5290 0.5290
14.300014 0.5310 0.5310 0.5330 0.5360 0.5400
14.334000 0.5410 0.5430 0.5460 0.5480 0.5480
14.368014 0.5500 0.5500 0.5570 0.5570 0.5600
14.402000 0.5620 0.5630 0.5650 0.5670 0.5680
14.436014 0.5700 0.5720 0.5750 0.5790 0.5800
14.470000 0.5820 0.5820 0.5860 0.5860 0.5870
14.504014 0.5870 0.5890 0.5910 0.5910 0.5970
14.538000 0.5970 0.5990 0.6010 0.6010 0.6060
14.572014 0.6080 0.6090 0.6090 0.6110 0.6130
14.606000 0.6140 0.6140 0.6140 0.6160 0.6160
14.640014 0.6180 0.6200 0.6210 0.6230 0.6260
14.674000 0.6260 0.6280 0.6280 0.6280 0.6280
14.708014 0.6280 0.6300 0.6300 0.6300 0.6320
14.742000 0.6320 0.6330 0.6330 0.6330 0.6330
14.776014 0.6370 0.6370 0.6370 0.6380 0.6380
14.810000 0.6380 0.6380 0.6380 0.6370 0.6370
14.844014 0.6350 0.6350 0.6350 0.6350 0.6330
14.878000 0.6330 0.6330 0.6320 0.6320 0.6320
14.912014 0.6320 0.6320 0.6320 0.6320 0.6300
14.946000 0.6300 0.6230 0.6200 0.6130 0.6090
14.980014 0.6060 0.6030 0.5990 0.5960 0.5940
15.014000 0.5870 0.5840 0.5800 0.5790 0.5750
15.048014 0.5720 0.5670 0.5620 0.5600 0.5550
15.082000 0.5510 0.5510 0.5500 0.5480 0.5480
15.116014 0.5460 0.5460 0.5460 0.5460 0.5460
15.150000 0.5460 0.5460 0.5460 0.5460 0.5450
15.184014 0.5410 0.5400 0.5360 0.5330 0.5290
15.218000 0.5280 0.5220 0.5210 0.5190 0.5170
15.252014 0.5160 0.5120 0.5090 0.5020 0.5000
15.286000 0.5000 0.4990 0.4970 0.4940 0.4920
15.320014 0.4900 0.4880 0.4870 0.4850 0.4830
15.354000 0.4820 0.4820 0.4800 0.4800 0.4750
15.388014 0.4700 0.4680 0.4680 0.4660 0.4650
15.422000 0.4630 0.4610 0.4610 0.4610 0.4610
15.456014 0.4610 0.4610 0.4610 0.4610 0.4610
15.490000 0.4590 0.4580 0.4560 0.4540 0.4530
15.524014 0.4510 0.4510 0.4510 0.4510 0.4510
15.558000 0.4490 0.4490 0.4490 0.4490 0.4490
15.592014 0.4490 0.4480 0.4480 0.4480 0.4480
15.626000 0.4480 0.4480 0.4480 0.4480 0.4480
15.660014 0.4480 0.4480 0.4480 0.4480 0.4480
15.694000 0.4480 0.4480 0.4480 0.4480 0.4480
15.728014 0.4480 0.4480 0.4480 0.4480 0.4480
15.762000 0.4480 0.4480 0.4460 0.4460 0.4460
15.796014 0.4460 0.4460 0.4460 0.4460 0.4460
15.830000 0.4460 0.4460 0.4460 0.4460 0.4460
15.864014 0.4460 0.4460 0.4460 0.4460 0.4460
15.898000 0.4440 0.4440 0.4440 0.4440 0.4440
15.932014 0.4440 0.4440 0.4440 0.4440 0.4440
15.966000 0.4440 0.4440 0.4440
##END=
