##TITLE=Propane, 1,2,3-tribromo-
##JCAMP-DX=4.24
$$ By DXEDIT 1.05 (RS McDonald)
##DATA TYPE=INFRARED SPECTRUM
##CLASS=COBLENTZ
##ORIGIN=DOW CHEMICAL COMPANY
##OWNER=COPYRIGHT (C) 1988 by COBLENTZ SOCIETY INC.
Collection (C) 2018 copyright by the U.S. Secretary of Commerce
on behalf of the United States of America. All rights reserved.
##DATE=1960/02/02
##NAMES=1,2,3-tribromopropane
##CAS REGISTRY NO=96-11-7
##MOLFORM=C3 H5 Br3
##SOURCE REFERENCE=COBLENTZ NO. 5697
##$NIST SOURCE=COBLENTZ
##$NIST IMAGE=cob5697
##SPECTROMETER/DATA SYSTEM=DOW KBr FOREPRISM-GRATING
##INSTRUMENT PARAMETERS=BLAZED AT 3.5, 12.0, 20.0 MICRON AND CHANGED AT 5.0, 7.5, 14.9 MICRON
##STATE=SOLUTION (10% CCl4 FOR 2.7-7.4, 10% CS2 FOR 7.4-22)
##PATH LENGTH=0.011 CM, 0.011 CM
$$SPECTRAL CONTAMINATION DUE TO CCl4 AROUND 1550 CM^-^1 HAS BEEN SUBTRACTED
##SAMPLING PROCEDURE=TRANSMISSION
##RESOLUTION=2
##DATA PROCESSING=DIGITIZED BY COBLENTZ SOCIETY (BATCH I) FROM HARD COPY
##XUNITS=1/CM
##YUNITS=TRANSMITTANCE
##XFACTOR=1
##YFACTOR=1
##DELTAX=1
##FIRSTX=3722
##LASTX=419
##FIRSTY=0.9219
##MAXX=3722
##MINX=419
##MAXY=0.9323
##MINY=0.2689
##NPOINTS=3304
##XYDATA=(X++(Y..Y))
3722.000000 0.9219 0.9217 0.9216 0.9198 0.9196
3717.000000 0.9206 0.9202 0.9199 0.9198 0.9195
3712.000000 0.9196 0.9198 0.9190 0.9197 0.9194
3707.000000 0.9190 0.9187 0.9184 0.9182 0.9179
3702.000000 0.9176 0.9173 0.9172 0.9172 0.9174
3697.000000 0.9176 0.9165 0.9164 0.9166 0.9167
3692.000000 0.9169 0.9173 0.9179 0.9184 0.9190
3687.000000 0.9191 0.9187 0.9192 0.9199 0.9204
3682.000000 0.9210 0.9215 0.9221 0.9226 0.9231
3677.000000 0.9236 0.9241 0.9247 0.9252 0.9257
3672.000000 0.9262 0.9264 0.9280 0.9269 0.9269
3667.000000 0.9268 0.9270 0.9261 0.9254 0.9239
3662.000000 0.9228 0.9214 0.9200 0.9194 0.9189
3657.000000 0.9187 0.9187 0.9186 0.9184 0.9184
3652.000000 0.9182 0.9179 0.9179 0.9178 0.9176
3647.000000 0.9175 0.9174 0.9172 0.9170 0.9168
3642.000000 0.9166 0.9163 0.9161 0.9159 0.9158
3637.000000 0.9156 0.9154 0.9152 0.9150 0.9150
3632.000000 0.9160 0.9158 0.9152 0.9140 0.9145
3627.000000 0.9153 0.9152 0.9148 0.9148 0.9145
3622.000000 0.9145 0.9148 0.9154 0.9167 0.9182
3617.000000 0.9188 0.9193 0.9201 0.9207 0.9213
3612.000000 0.9220 0.9226 0.9233 0.9238 0.9233
3607.000000 0.9248 0.9250 0.9252 0.9253 0.9251
3602.000000 0.9247 0.9258 0.9253 0.9245 0.9253
3597.000000 0.9259 0.9257 0.9255 0.9253 0.9250
3592.000000 0.9249 0.9245 0.9244 0.9242 0.9240
3587.000000 0.9235 0.9230 0.9222 0.9216 0.9209
3582.000000 0.9202 0.9196 0.9190 0.9182 0.9176
3577.000000 0.9168 0.9155 0.9144 0.9150 0.9157
3572.000000 0.9159 0.9159 0.9168 0.9175 0.9184
3567.000000 0.9185 0.9190 0.9189 0.9188 0.9185
3562.000000 0.9184 0.9182 0.9181 0.9180 0.9178
3557.000000 0.9177 0.9175 0.9188 0.9174 0.9174
3552.000000 0.9185 0.9184 0.9180 0.9173 0.9183
3547.000000 0.9182 0.9182 0.9175 0.9173 0.9180
3542.000000 0.9180 0.9179 0.9170 0.9173 0.9168
3537.000000 0.9173 0.9177 0.9176 0.9175 0.9174
3532.000000 0.9174 0.9173 0.9173 0.9158 0.9158
3527.000000 0.9157 0.9157 0.9157 0.9157 0.9158
3522.000000 0.9159 0.9159 0.9160 0.9160 0.9161
3517.000000 0.9161 0.9162 0.9162 0.9163 0.9164
3512.000000 0.9165 0.9165 0.9166 0.9166 0.9167
3507.000000 0.9167 0.9168 0.9168 0.9169 0.9170
3502.000000 0.9171 0.9171 0.9172 0.9172 0.9173
3497.000000 0.9173 0.9174 0.9174 0.9174 0.9174
3492.000000 0.9176 0.9176 0.9176 0.9176 0.9177
3487.000000 0.9177 0.9177 0.9177 0.9177 0.9177
3482.000000 0.9177 0.9177 0.9177 0.9177 0.9179
3477.000000 0.9179 0.9179 0.9179 0.9179 0.9179
3472.000000 0.9180 0.9180 0.9180 0.9180 0.9181
3467.000000 0.9181 0.9181 0.9183 0.9184 0.9184
3462.000000 0.9184 0.9186 0.9187 0.9188 0.9189
3457.000000 0.9189 0.9190 0.9191 0.9192 0.9193
3452.000000 0.9194 0.9194 0.9195 0.9196 0.9197
3447.000000 0.9198 0.9200 0.9200 0.9201 0.9202
3442.000000 0.9203 0.9204 0.9205 0.9205 0.9206
3437.000000 0.9207 0.9208 0.9209 0.9210 0.9210
3432.000000 0.9211 0.9211 0.9212 0.9212 0.9213
3427.000000 0.9213 0.9213 0.9200 0.9212 0.9214
3422.000000 0.9215 0.9215 0.9216 0.9216 0.9216
3417.000000 0.9216 0.9217 0.9217 0.9218 0.9218
3412.000000 0.9218 0.9218 0.9219 0.9219 0.9220
3407.000000 0.9227 0.9227 0.9221 0.9221 0.9221
3402.000000 0.9222 0.9222 0.9223 0.9223 0.9224
3397.000000 0.9224 0.9224 0.9224 0.9225 0.9225
3392.000000 0.9225 0.9225 0.9225 0.9225 0.9227
3387.000000 0.9227 0.9228 0.9228 0.9228 0.9228
3382.000000 0.9228 0.9228 0.9230 0.9230 0.9231
3377.000000 0.9231 0.9231 0.9231 0.9232 0.9232
3372.000000 0.9232 0.9232 0.9245 0.9233 0.9232
3367.000000 0.9232 0.9232 0.9232 0.9232 0.9232
3362.000000 0.9234 0.9234 0.9234 0.9234 0.9234
3357.000000 0.9234 0.9235 0.9235 0.9235 0.9235
3352.000000 0.9235 0.9235 0.9235 0.9235 0.9235
3347.000000 0.9235 0.9237 0.9249 0.9251 0.9239
3342.000000 0.9250 0.9238 0.9238 0.9238 0.9252
3337.000000 0.9252 0.9250 0.9238 0.9238 0.9238
3332.000000 0.9238 0.9237 0.9237 0.9237 0.9237
3327.000000 0.9237 0.9237 0.9234 0.9234 0.9234
3322.000000 0.9234 0.9234 0.9234 0.9234 0.9234
3317.000000 0.9234 0.9234 0.9233 0.9233 0.9233
3312.000000 0.9248 0.9246 0.9246 0.9246 0.9243
3307.000000 0.9234 0.9246 0.9246 0.9241 0.9231
3302.000000 0.9231 0.9231 0.9231 0.9230 0.9230
3297.000000 0.9230 0.9230 0.9230 0.9230 0.9229
3292.000000 0.9229 0.9229 0.9229 0.9229 0.9229
3287.000000 0.9227 0.9227 0.9227 0.9227 0.9241
3282.000000 0.9239 0.9227 0.9229 0.9241 0.9237
3277.000000 0.9226 0.9231 0.9241 0.9241 0.9240
3272.000000 0.9240 0.9240 0.9240 0.9240 0.9240
3267.000000 0.9238 0.9238 0.9238 0.9238 0.9238
3262.000000 0.9238 0.9238 0.9238 0.9238 0.9238
3257.000000 0.9237 0.9224 0.9237 0.9237 0.9237
3252.000000 0.9237 0.9237 0.9237 0.9237 0.9237
3247.000000 0.9235 0.9235 0.9228 0.9228 0.9235
3242.000000 0.9235 0.9235 0.9235 0.9234 0.9234
3237.000000 0.9234 0.9234 0.9234 0.9234 0.9234
3232.000000 0.9234 0.9234 0.9234 0.9234 0.9234
3227.000000 0.9231 0.9218 0.9222 0.9233 0.9232
3222.000000 0.9232 0.9231 0.9231 0.9231 0.9231
3217.000000 0.9230 0.9230 0.9229 0.9229 0.9228
3212.000000 0.9228 0.9227 0.9227 0.9226 0.9213
3207.000000 0.9210 0.9210 0.9209 0.9209 0.9208
3202.000000 0.9207 0.9206 0.9207 0.9215 0.9206
3197.000000 0.9212 0.9204 0.9214 0.9213 0.9211
3192.000000 0.9210 0.9208 0.9200 0.9200 0.9206
3187.000000 0.9206 0.9198 0.9193 0.9194 0.9194
3182.000000 0.9194 0.9194 0.9195 0.9189 0.9183
3177.000000 0.9176 0.9169 0.9158 0.9148 0.9138
3172.000000 0.9128 0.9125 0.9120 0.9120 0.9123
3167.000000 0.9128 0.9135 0.9141 0.9155 0.9169
3162.000000 0.9168 0.9176 0.9187 0.9191 0.9188
3157.000000 0.9196 0.9191 0.9189 0.9203 0.9208
3152.000000 0.9210 0.9211 0.9212 0.9209 0.9192
3147.000000 0.9189 0.9187 0.9184 0.9182 0.9179
3142.000000 0.9177 0.9179 0.9187 0.9186 0.9184
3137.000000 0.9183 0.9182 0.9179 0.9178 0.9176
3132.000000 0.9175 0.9173 0.9172 0.9170 0.9169
3127.000000 0.9168 0.9167 0.9166 0.9165 0.9165
3122.000000 0.9165 0.9165 0.9165 0.9164 0.9164
3117.000000 0.9163 0.9163 0.9162 0.9162 0.9162
3112.000000 0.9162 0.9161 0.9161 0.9161 0.9161
3107.000000 0.9168 0.9175 0.9175 0.9175 0.9174
3102.000000 0.9174 0.9174 0.9186 0.9187 0.9187
3097.000000 0.9200 0.9215 0.9229 0.9229 0.9228
3092.000000 0.9226 0.9212 0.9208 0.9192 0.9181
3087.000000 0.9184 0.9189 0.9173 0.9164 0.9163
3082.000000 0.9162 0.9160 0.9159 0.9155 0.9165
3077.000000 0.9179 0.9181 0.9180 0.9191 0.9192
3072.000000 0.9179 0.9174 0.9174 0.9158 0.9171
3067.000000 0.9155 0.9154 0.9152 0.9149 0.9134
3062.000000 0.9133 0.9130 0.9132 0.9138 0.9134
3057.000000 0.9123 0.9110 0.9112 0.9106 0.9094
3052.000000 0.9090 0.9094 0.9094 0.9089 0.9084
3047.000000 0.9079 0.9087 0.9081 0.9086 0.9088
3042.000000 0.9090 0.9091 0.9093 0.9080 0.9068
3037.000000 0.9056 0.9031 0.9009 0.8960 0.8971
3032.000000 0.8952 0.8954 0.8951 0.8945 0.8947
3027.000000 0.8942 0.8938 0.8940 0.8942 0.8944
3022.000000 0.8948 0.8949 0.8952 0.8965 0.8970
3017.000000 0.8973 0.8962 0.8963 0.8965 0.8967
3012.000000 0.8970 0.8973 0.8975 0.8977 0.8977
3007.000000 0.8968 0.8975 0.8987 0.8989 0.8986
3002.000000 0.8980 0.8983 0.8994 0.8996 0.8994
2997.000000 0.8999 0.9003 0.9007 0.9013 0.9022
2992.000000 0.9024 0.9021 0.9050 0.9015 0.9013
2987.000000 0.9010 0.9008 0.9003 0.8997 0.8985
2982.000000 0.8972 0.8925 0.8881 0.8846 0.8797
2977.000000 0.8749 0.8716 0.8715 0.8714 0.8713
2972.000000 0.8713 0.8713 0.8714 0.8724 0.8731
2967.000000 0.8732 0.8733 0.8734 0.8735 0.8735
2962.000000 0.8734 0.8629 0.8525 0.8500 0.8459
2957.000000 0.8438 0.8429 0.8427 0.8400 0.8435
2952.000000 0.8433 0.8433 0.8434 0.8447 0.8459
2947.000000 0.8493 0.8526 0.8569 0.8621 0.8665
2942.000000 0.8717 0.8763 0.8820 0.8856 0.8888
2937.000000 0.8914 0.8939 0.8952 0.8976 0.8992
2932.000000 0.9008 0.9021 0.9034 0.9046 0.9059
2927.000000 0.9072 0.9084 0.9097 0.9109 0.9122
2922.000000 0.9128 0.9127 0.9135 0.9139 0.9143
2917.000000 0.9148 0.9152 0.9156 0.9160 0.9164
2912.000000 0.9169 0.9172 0.9177 0.9181 0.9198
2907.000000 0.9202 0.9191 0.9192 0.9194 0.9195
2902.000000 0.9197 0.9198 0.9200 0.9201 0.9203
2897.000000 0.9204 0.9188 0.9207 0.9209 0.9210
2892.000000 0.9212 0.9213 0.9215 0.9216 0.9218
2887.000000 0.9219 0.9221 0.9222 0.9224 0.9224
2882.000000 0.9227 0.9227 0.9230 0.9231 0.9233
2877.000000 0.9220 0.9234 0.9234 0.9234 0.9233
2872.000000 0.9231 0.9231 0.9231 0.9230 0.9229
2867.000000 0.9227 0.9227 0.9227 0.9227 0.9224
2862.000000 0.9223 0.9219 0.9217 0.9215 0.9213
2857.000000 0.9211 0.9209 0.9206 0.9191 0.9187
2852.000000 0.9185 0.9183 0.9180 0.9178 0.9176
2847.000000 0.9175 0.9185 0.9181 0.9173 0.9163
2842.000000 0.9169 0.9164 0.9154 0.9148 0.9152
2837.000000 0.9148 0.9136 0.9127 0.9124 0.9120
2832.000000 0.9117 0.9116 0.9116 0.9132 0.9127
2827.000000 0.9141 0.9147 0.9138 0.9142 0.9164
2822.000000 0.9159 0.9181 0.9180 0.9175 0.9155
2817.000000 0.9141 0.9127 0.9110 0.9093 0.9079
2812.000000 0.9065 0.9069 0.9073 0.9080 0.9096
2807.000000 0.9108 0.9116 0.9121 0.9127 0.9133
2802.000000 0.9140 0.9145 0.9151 0.9157 0.9164
2797.000000 0.9170 0.9176 0.9181 0.9185 0.9189
2792.000000 0.9191 0.9186 0.9198 0.9191 0.9195
2787.000000 0.9195 0.9196 0.9203 0.9211 0.9204
2782.000000 0.9196 0.9205 0.9211 0.9211 0.9211
2777.000000 0.9211 0.9211 0.9211 0.9211 0.9211
2772.000000 0.9211 0.9211 0.9211 0.9211 0.9211
2767.000000 0.9211 0.9212 0.9212 0.9212 0.9212
2762.000000 0.9212 0.9212 0.9212 0.9211 0.9211
2757.000000 0.9210 0.9209 0.9208 0.9208 0.9208
2752.000000 0.9208 0.9207 0.9207 0.9206 0.9206
2747.000000 0.9206 0.9206 0.9205 0.9205 0.9204
2742.000000 0.9204 0.9204 0.9204 0.9203 0.9203
2737.000000 0.9202 0.9202 0.9202 0.9202 0.9201
2732.000000 0.9201 0.9201 0.9201 0.9201 0.9201
2727.000000 0.9201 0.9201 0.9201 0.9201 0.9201
2722.000000 0.9201 0.9201 0.9201 0.9201 0.9201
2717.000000 0.9201 0.9201 0.9201 0.9200 0.9200
2712.000000 0.9200 0.9200 0.9200 0.9200 0.9200
2707.000000 0.9200 0.9200 0.9200 0.9200 0.9200
2702.000000 0.9201 0.9201 0.9201 0.9201 0.9201
2697.000000 0.9201 0.9201 0.9201 0.9202 0.9202
2692.000000 0.9202 0.9202 0.9203 0.9203 0.9203
2687.000000 0.9203 0.9203 0.9203 0.9203 0.9203
2682.000000 0.9203 0.9203 0.9203 0.9202 0.9202
2677.000000 0.9200 0.9199 0.9196 0.9194 0.9190
2672.000000 0.9188 0.9184 0.9179 0.9176 0.9171
2667.000000 0.9168 0.9164 0.9160 0.9157 0.9148
2662.000000 0.9141 0.9126 0.9114 0.9109 0.9107
2657.000000 0.9126 0.9133 0.9139 0.9147 0.9153
2652.000000 0.9159 0.9159 0.9155 0.9156 0.9165
2647.000000 0.9175 0.9177 0.9170 0.9166 0.9168
2642.000000 0.9180 0.9175 0.9173 0.9175 0.9177
2637.000000 0.9178 0.9182 0.9183 0.9199 0.9201
2632.000000 0.9203 0.9190 0.9193 0.9207 0.9208
2627.000000 0.9209 0.9210 0.9211 0.9212 0.9213
2622.000000 0.9214 0.9214 0.9215 0.9216 0.9217
2617.000000 0.9218 0.9219 0.9219 0.9220 0.9221
2612.000000 0.9222 0.9223 0.9225 0.9227 0.9229
2607.000000 0.9230 0.9233 0.9234 0.9235 0.9237
2602.000000 0.9238 0.9240 0.9242 0.9244 0.9245
2597.000000 0.9247 0.9249 0.9249 0.9250 0.9250
2592.000000 0.9251 0.9251 0.9251 0.9251 0.9252
2587.000000 0.9252 0.9252 0.9249 0.9245 0.9242
2582.000000 0.9240 0.9236 0.9234 0.9231 0.9228
2577.000000 0.9225 0.9222 0.9217 0.9214 0.9214
2572.000000 0.9214 0.9215 0.9216 0.9216 0.9217
2567.000000 0.9218 0.9219 0.9219 0.9220 0.9221
2562.000000 0.9222 0.9222 0.9223 0.9225 0.9226
2557.000000 0.9227 0.9228 0.9230 0.9233 0.9234
2552.000000 0.9237 0.9237 0.9240 0.9241 0.9244
2547.000000 0.9244 0.9247 0.9249 0.9251 0.9253
2542.000000 0.9255 0.9255 0.9255 0.9255 0.9252
2537.000000 0.9246 0.9241 0.9234 0.9229 0.9223
2532.000000 0.9218 0.9214 0.9209 0.9208 0.9208
2527.000000 0.9208 0.9208 0.9208 0.9208 0.9207
2522.000000 0.9207 0.9207 0.9207 0.9207 0.9207
2517.000000 0.9207 0.9207 0.9207 0.9207 0.9207
2512.000000 0.9207 0.9206 0.9206 0.9206 0.9206
2507.000000 0.9206 0.9206 0.9206 0.9206 0.9206
2502.000000 0.9206 0.9205 0.9205 0.9205 0.9205
2497.000000 0.9204 0.9203 0.9202 0.9200 0.9199
2492.000000 0.9198 0.9197 0.9196 0.9195 0.9194
2487.000000 0.9193 0.9191 0.9190 0.9188 0.9188
2482.000000 0.9187 0.9195 0.9198 0.9198 0.9197
2477.000000 0.9195 0.9195 0.9195 0.9195 0.9195
2472.000000 0.9195 0.9195 0.9195 0.9195 0.9195
2467.000000 0.9195 0.9197 0.9197 0.9197 0.9197
2462.000000 0.9197 0.9197 0.9198 0.9198 0.9191
2457.000000 0.9190 0.9190 0.9183 0.9183 0.9193
2452.000000 0.9198 0.9198 0.9186 0.9195 0.9198
2447.000000 0.9197 0.9197 0.9196 0.9196 0.9196
2442.000000 0.9196 0.9194 0.9194 0.9194 0.9194
2437.000000 0.9194 0.9194 0.9194 0.9194 0.9193
2432.000000 0.9193 0.9193 0.9193 0.9193 0.9193
2427.000000 0.9193 0.9194 0.9194 0.9194 0.9194
2422.000000 0.9194 0.9194 0.9194 0.9194 0.9194
2417.000000 0.9194 0.9194 0.9194 0.9194 0.9194
2412.000000 0.9194 0.9194 0.9194 0.9197 0.9203
2407.000000 0.9197 0.9206 0.9206 0.9206 0.9205
2402.000000 0.9205 0.9205 0.9205 0.9205 0.9205
2397.000000 0.9205 0.9206 0.9207 0.9208 0.9208
2392.000000 0.9210 0.9211 0.9211 0.9228 0.9229
2387.000000 0.9229 0.9229 0.9231 0.9244 0.9244
2382.000000 0.9248 0.9257 0.9255 0.9261 0.9269
2377.000000 0.9273 0.9281 0.9287 0.9300 0.9309
2372.000000 0.9309 0.9309 0.9307 0.9292 0.9289
2367.000000 0.9286 0.9284 0.9281 0.9281 0.9279
2362.000000 0.9277 0.9275 0.9288 0.9288 0.9299
2357.000000 0.9299 0.9314 0.9323 0.9321 0.9319
2352.000000 0.9318 0.9309 0.9298 0.9296 0.9302
2347.000000 0.9315 0.9321 0.9316 0.9302 0.9292
2342.000000 0.9286 0.9280 0.9275 0.9256 0.9261
2337.000000 0.9256 0.9237 0.9229 0.9239 0.9233
2332.000000 0.9227 0.9225 0.9234 0.9230 0.9227
2327.000000 0.9228 0.9235 0.9237 0.9243 0.9240
2322.000000 0.9237 0.9234 0.9230 0.9226 0.9223
2317.000000 0.9220 0.9216 0.9213 0.9210 0.9208
2312.000000 0.9206 0.9203 0.9201 0.9199 0.9197
2307.000000 0.9195 0.9194 0.9191 0.9189 0.9187
2302.000000 0.9185 0.9183 0.9182 0.9184 0.9191
2297.000000 0.9189 0.9187 0.9183 0.9181 0.9178
2292.000000 0.9175 0.9171 0.9168 0.9165 0.9152
2287.000000 0.9145 0.9142 0.9138 0.9136 0.9121
2282.000000 0.9117 0.9115 0.9113 0.9110 0.9093
2277.000000 0.9092 0.9086 0.9073 0.9071 0.9069
2272.000000 0.9062 0.9064 0.9078 0.9083 0.9085
2267.000000 0.9092 0.9099 0.9098 0.9100 0.9107
2262.000000 0.9114 0.9111 0.9115 0.9120 0.9115
2257.000000 0.9121 0.9129 0.9136 0.9129 0.9135
2252.000000 0.9143 0.9149 0.9143 0.9150 0.9157
2247.000000 0.9161 0.9165 0.9164 0.9158 0.9161
2242.000000 0.9165 0.9168 0.9171 0.9175 0.9178
2237.000000 0.9182 0.9187 0.9180 0.9178 0.9182
2232.000000 0.9186 0.9189 0.9193 0.9196 0.9201
2227.000000 0.9204 0.9206 0.9209 0.9213 0.9216
2222.000000 0.9217 0.9205 0.9206 0.9206 0.9206
2217.000000 0.9206 0.9207 0.9207 0.9207 0.9207
2212.000000 0.9208 0.9208 0.9208 0.9208 0.9209
2207.000000 0.9209 0.9210 0.9210 0.9210 0.9210
2202.000000 0.9211 0.9211 0.9211 0.9211 0.9212
2197.000000 0.9212 0.9210 0.9200 0.9213 0.9210
2192.000000 0.9199 0.9200 0.9201 0.9201 0.9203
2187.000000 0.9204 0.9205 0.9205 0.9214 0.9212
2182.000000 0.9208 0.9208 0.9209 0.9210 0.9222
2177.000000 0.9225 0.9226 0.9227 0.9228 0.9228
2172.000000 0.9230 0.9231 0.9232 0.9230 0.9218
2167.000000 0.9218 0.9219 0.9220 0.9221 0.9221
2162.000000 0.9222 0.9223 0.9224 0.9224 0.9225
2157.000000 0.9226 0.9227 0.9227 0.9228 0.9228
2152.000000 0.9230 0.9230 0.9231 0.9231 0.9234
2147.000000 0.9234 0.9235 0.9236 0.9236 0.9236
2142.000000 0.9238 0.9238 0.9239 0.9239 0.9241
2137.000000 0.9241 0.9242 0.9243 0.9244 0.9244
2132.000000 0.9245 0.9245 0.9246 0.9246 0.9246
2127.000000 0.9246 0.9247 0.9247 0.9247 0.9247
2122.000000 0.9233 0.9243 0.9243 0.9237 0.9231
2117.000000 0.9226 0.9220 0.9215 0.9210 0.9206
2112.000000 0.9201 0.9202 0.9204 0.9204 0.9205
2107.000000 0.9206 0.9207 0.9208 0.9209 0.9210
2102.000000 0.9211 0.9211 0.9212 0.9213 0.9203
2097.000000 0.9200 0.9213 0.9216 0.9204 0.9216
2092.000000 0.9218 0.9219 0.9220 0.9220 0.9221
2087.000000 0.9221 0.9222 0.9223 0.9224 0.9224
2082.000000 0.9225 0.9226 0.9227 0.9227 0.9227
2077.000000 0.9227 0.9227 0.9227 0.9227 0.9227
2072.000000 0.9227 0.9227 0.9227 0.9227 0.9227
2067.000000 0.9226 0.9226 0.9224 0.9222 0.9220
2062.000000 0.9218 0.9215 0.9213 0.9210 0.9208
2057.000000 0.9210 0.9221 0.9219 0.9218 0.9217
2052.000000 0.9211 0.9208 0.9215 0.9206 0.9200
2047.000000 0.9198 0.9197 0.9197 0.9198 0.9199
2042.000000 0.9200 0.9200 0.9201 0.9203 0.9204
2037.000000 0.9204 0.9205 0.9205 0.9206 0.9206
2032.000000 0.9207 0.9207 0.9208 0.9208 0.9213
2027.000000 0.9218 0.9210 0.9216 0.9225 0.9225
2022.000000 0.9226 0.9226 0.9227 0.9227 0.9228
2017.000000 0.9228 0.9228 0.9228 0.9229 0.9229
2012.000000 0.9230 0.9230 0.9230 0.9228 0.9226
2007.000000 0.9223 0.9221 0.9218 0.9216 0.9213
2002.000000 0.9211 0.9194 0.9179 0.9166 0.9150
1997.000000 0.9131 0.9123 0.9114 0.9105 0.9106
1992.000000 0.9107 0.9120 0.9131 0.9138 0.9142
1987.000000 0.9147 0.9140 0.9142 0.9144 0.9144
1982.000000 0.9144 0.9143 0.9143 0.9141 0.9129
1977.000000 0.9120 0.9112 0.9102 0.9092 0.9083
1972.000000 0.9075 0.9079 0.9084 0.9090 0.9095
1967.000000 0.9099 0.9111 0.9114 0.9113 0.9127
1962.000000 0.9137 0.9138 0.9139 0.9138 0.9136
1957.000000 0.9134 0.9130 0.9126 0.9107 0.9107
1952.000000 0.9115 0.9121 0.9125 0.9120 0.9117
1947.000000 0.9115 0.9112 0.9110 0.9106 0.9104
1942.000000 0.9101 0.9099 0.9098 0.9097 0.9100
1937.000000 0.9103 0.9105 0.9108 0.9111 0.9115
1932.000000 0.9118 0.9121 0.9123 0.9124 0.9124
1927.000000 0.9124 0.9124 0.9124 0.9125 0.9125
1922.000000 0.9125 0.9125 0.9124 0.9122 0.9121
1917.000000 0.9119 0.9116 0.9115 0.9113 0.9111
1912.000000 0.9110 0.9108 0.9104 0.9100 0.9095
1907.000000 0.9102 0.9101 0.9101 0.9101 0.9104
1902.000000 0.9108 0.9111 0.9113 0.9114 0.9115
1897.000000 0.9113 0.9111 0.9109 0.9105 0.9103
1892.000000 0.9100 0.9092 0.9083 0.9091 0.9098
1887.000000 0.9107 0.9115 0.9116 0.9121 0.9123
1882.000000 0.9119 0.9115 0.9110 0.9105 0.9100
1877.000000 0.9094 0.9089 0.9104 0.9107 0.9108
1872.000000 0.9110 0.9110 0.9111 0.9110 0.9105
1867.000000 0.9102 0.9098 0.9087 0.9074 0.9062
1862.000000 0.9055 0.9055 0.9057 0.9057 0.9055
1857.000000 0.9061 0.9056 0.9049 0.9047 0.9047
1852.000000 0.9050 0.9052 0.9057 0.9059 0.9062
1847.000000 0.9062 0.9062 0.9062 0.9062 0.9062
1842.000000 0.9062 0.9062 0.9062 0.9064 0.9065
1837.000000 0.9068 0.9063 0.9056 0.9057 0.9062
1832.000000 0.9065 0.9069 0.9072 0.9076 0.9079
1827.000000 0.9081 0.9065 0.9048 0.9035 0.9026
1822.000000 0.9028 0.9030 0.9032 0.9048 0.9052
1817.000000 0.9059 0.9065 0.9073 0.9080 0.9086
1812.000000 0.9085 0.9084 0.9083 0.9077 0.9066
1807.000000 0.9065 0.9064 0.9063 0.9053 0.9046
1802.000000 0.9046 0.9046 0.9052 0.9057 0.9063
1797.000000 0.9068 0.9074 0.9078 0.9084 0.9085
1792.000000 0.9085 0.9085 0.9088 0.9089 0.9090
1787.000000 0.9090 0.9092 0.9096 0.9101 0.9105
1782.000000 0.9110 0.9113 0.9114 0.9115 0.9115
1777.000000 0.9116 0.9108 0.9103 0.9104 0.9104
1772.000000 0.9104 0.9104 0.9104 0.9105 0.9105
1767.000000 0.9105 0.9105 0.9105 0.9107 0.9109
1762.000000 0.9113 0.9115 0.9116 0.9122 0.9134
1757.000000 0.9137 0.9137 0.9137 0.9137 0.9137
1752.000000 0.9136 0.9134 0.9133 0.9130 0.9130
1747.000000 0.9127 0.9126 0.9124 0.9122 0.9120
1742.000000 0.9120 0.9120 0.9119 0.9119 0.9118
1737.000000 0.9118 0.9118 0.9117 0.9116 0.9116
1732.000000 0.9116 0.9116 0.9114 0.9112 0.9109
1727.000000 0.9108 0.9106 0.9105 0.9106 0.9106
