##TITLE=Propane, 1,2,3-trichloro-,
##JCAMP-DX=4.24
##DATA TYPE=INFRARED SPECTRUM
##CLASS=COBLENTZ III
##ORIGIN=WYANDOTTE CHEMICALS CORP.
##OWNER=Copyright (C) 1987 by the Coblentz Society
Collection (C) 2018 copyright by the U.S. Secretary of Commerce
on behalf of the United States of America. All rights reserved.
##DATE=Not specified, most likely prior to 1970
##NAMES=1,2,3-trichloropropane
##CAS REGISTRY NO=96-18-4
##MOLFORM=C3 H5 Cl3
##BP=154-155 C
##SOURCE REFERENCE=COBLENTZ NO. 5859
##$NIST SOURCE=COBLENTZ
##$NIST IMAGE=cob5859
##SPECTROMETER/DATA SYSTEM=BAIRD (GRATING)
##INSTRUMENT PARAMETERS=NaCl PRISM
##STATE=LIQUID (NEAT)
##PATH LENGTH=0.005 CM
##RESOLUTION=2
##XUNITS=1/CM
##YUNITS=TRANSMITTANCE
##XFACTOR=1.0
##YFACTOR=1
##FIRSTX=626
##LASTX=4000
##FIRSTY=0.633
##MAXX=4000
##MINX=626
##MAXY=0.9319
##MINY=0.0277
##NPOINTS=3375
##XYDATA=(X++(Y..Y))
626.000000 0.6330 0.6235 0.6189 0.6141 0.6099
631.000000 0.6057 0.6023 0.6050 0.5964 0.5938
636.000000 0.5910 0.5882 0.5853 0.5797 0.5699
641.000000 0.5520 0.5262 0.5028 0.4774 0.4513
646.000000 0.4259 0.4012 0.3791 0.3522 0.3215
651.000000 0.3026 0.2902 0.2799 0.2697 0.2601
656.000000 0.2515 0.2480 0.2462 0.2472 0.2575
661.000000 0.2712 0.2889 0.2918 0.2979 0.2618
666.000000 0.2432 0.2280 0.2231 0.2211 0.2281
671.000000 0.2368 0.2534 0.2805 0.3122 0.3439
676.000000 0.3754 0.4069 0.4383 0.4728 0.4990
681.000000 0.5182 0.5364 0.5514 0.5579 0.5610
686.000000 0.5634 0.5631 0.5615 0.5590 0.5553
691.000000 0.5487 0.5377 0.5070 0.4751 0.4434
696.000000 0.4118 0.3801 0.3487 0.3173 0.2934
701.000000 0.2530 0.2132 0.1717 0.1474 0.1267
706.000000 0.1098 0.0955 0.0836 0.0719 0.0654
711.000000 0.0596 0.0563 0.0548 0.0545 0.0543
716.000000 0.0543 0.0546 0.0548 0.0552 0.0571
721.000000 0.0591 0.0613 0.0659 0.0713 0.0810
726.000000 0.0926 0.1060 0.1144 0.1157 0.1121
731.000000 0.1053 0.0980 0.0916 0.0854 0.0807
736.000000 0.0760 0.0723 0.0702 0.0683 0.0669
741.000000 0.0654 0.0628 0.0596 0.0562 0.0518
746.000000 0.0473 0.0440 0.0411 0.0409 0.0412
751.000000 0.0421 0.0415 0.0446 0.0463 0.0489
756.000000 0.0517 0.0553 0.0620 0.0734 0.0900
761.000000 0.1177 0.1519 0.1831 0.2140 0.2450
766.000000 0.2932 0.3337 0.3612 0.3777 0.3783
771.000000 0.3784 0.3592 0.3429 0.3199 0.2993
776.000000 0.2842 0.2756 0.2741 0.2747 0.2885
781.000000 0.3124 0.3482 0.3838 0.4194 0.4548
786.000000 0.4902 0.5230 0.5766 0.6595 0.6880
791.000000 0.7038 0.7158 0.7261 0.7335 0.7392
796.000000 0.7439 0.7452 0.7465 0.7479 0.7486
801.000000 0.7491 0.7505 0.7521 0.7544 0.7582
806.000000 0.7668 0.7762 0.7871 0.7963 0.8041
811.000000 0.8081 0.8105 0.8110 0.8116 0.8115
816.000000 0.8114 0.8114 0.8114 0.8114 0.8114
821.000000 0.8112 0.8110 0.8108 0.8108 0.8144
826.000000 0.8114 0.8117 0.8119 0.8122 0.8129
831.000000 0.8138 0.8147 0.8158 0.8175 0.8193
836.000000 0.8201 0.8197 0.8180 0.8157 0.8128
841.000000 0.8098 0.8065 0.8023 0.7979 0.7933
846.000000 0.7894 0.7857 0.7803 0.7733 0.7665
851.000000 0.7598 0.7523 0.7406 0.7282 0.7125
856.000000 0.6957 0.6754 0.6535 0.6295 0.5775
861.000000 0.5293 0.4760 0.4229 0.3698 0.3169
866.000000 0.2649 0.2194 0.1779 0.1572 0.1545
871.000000 0.1624 0.2125 0.2650 0.3174 0.3696
876.000000 0.4217 0.4737 0.5172 0.5552 0.5868
881.000000 0.6226 0.6428 0.6579 0.6695 0.6755
886.000000 0.6813 0.6842 0.6888 0.6849 0.6833
891.000000 0.6811 0.6750 0.6639 0.6498 0.6348
896.000000 0.5929 0.5259 0.4591 0.3924 0.3259
901.000000 0.2595 0.1932 0.1261 0.0849 0.0729
906.000000 0.0707 0.0716 0.0827 0.1225 0.1739
911.000000 0.2250 0.2762 0.3272 0.3781 0.4290
916.000000 0.4534 0.4561 0.4407 0.4037 0.3667
921.000000 0.3299 0.2931 0.2563 0.2197 0.1900
926.000000 0.1905 0.2489 0.3121 0.3750 0.4378
931.000000 0.5005 0.5672 0.5928 0.6174 0.6383
936.000000 0.6556 0.6731 0.6894 0.7020 0.7100
941.000000 0.7154 0.7191 0.7219 0.7230 0.7239
946.000000 0.7288 0.7238 0.7226 0.7211 0.7196
951.000000 0.7160 0.7105 0.7026 0.6919 0.6779
956.000000 0.6606 0.6363 0.6198 0.6064 0.5976
961.000000 0.5921 0.6037 0.6253 0.6469 0.6685
966.000000 0.6917 0.7062 0.7127 0.7149 0.7161
971.000000 0.7154 0.7154 0.7125 0.7106 0.7075
976.000000 0.6981 0.6849 0.6692 0.6523 0.6119
981.000000 0.5679 0.5085 0.4492 0.3901 0.3311
986.000000 0.2722 0.2134 0.1547 0.1328 0.1211
991.000000 0.1137 0.1112 0.1079 0.1648 0.2091
996.000000 0.2534 0.2975 0.3416 0.3855 0.4294
1001.000000 0.4732 0.5341 0.6030 0.6345 0.6579
1006.000000 0.6734 0.6879 0.7015 0.7146 0.7246
1011.000000 0.7338 0.7395 0.7434 0.7447 0.7448
1016.000000 0.7452 0.7410 0.7352 0.7284 0.7212
1021.000000 0.7088 0.6966 0.6853 0.6748 0.6624
1026.000000 0.6583 0.6571 0.6592 0.6535 0.6907
1031.000000 0.7070 0.7235 0.7398 0.7589 0.7633
1036.000000 0.7637 0.7632 0.7625 0.7608 0.7588
1041.000000 0.7566 0.7544 0.7525 0.7507 0.7511
1046.000000 0.7525 0.7549 0.7572 0.7591 0.7608
1051.000000 0.7626 0.7642 0.7657 0.7671 0.7681
1056.000000 0.7691 0.7687 0.7698 0.7695 0.7691
1061.000000 0.7685 0.7672 0.7657 0.7635 0.7613
1066.000000 0.7572 0.7523 0.7456 0.7391 0.7339
1071.000000 0.7288 0.7242 0.7206 0.7175 0.7167
1076.000000 0.7157 0.7149 0.7114 0.7052 0.6978
1081.000000 0.6864 0.6768 0.6690 0.6633 0.6619
1086.000000 0.6630 0.6638 0.6643 0.6642 0.6634
1091.000000 0.6592 0.6492 0.6355 0.6021 0.5854
1096.000000 0.5801 0.5771 0.5755 0.6128 0.6420
1101.000000 0.6711 0.7002 0.7292 0.7581 0.7839
1106.000000 0.7978 0.8106 0.8222 0.8290 0.8352
1111.000000 0.8390 0.8415 0.8440 0.8452 0.8462
1116.000000 0.8471 0.8446 0.8473 0.8471 0.8452
1121.000000 0.8432 0.8412 0.8390 0.8364 0.8338
1126.000000 0.8312 0.8285 0.8259 0.8231 0.8205
1131.000000 0.8173 0.8142 0.8110 0.8071 0.8021
1136.000000 0.7969 0.7895 0.7820 0.7740 0.7618
1141.000000 0.7479 0.7230 0.6977 0.6726 0.6474
1146.000000 0.6224 0.5983 0.5908 0.5942 0.6190
1151.000000 0.6485 0.6780 0.7066 0.7195 0.7269
1156.000000 0.7333 0.7378 0.7409 0.7419 0.7430
1161.000000 0.7437 0.7438 0.7442 0.7433 0.7427
1166.000000 0.7414 0.7397 0.7372 0.7334 0.7283
1171.000000 0.7212 0.7093 0.6964 0.6686 0.6305
1176.000000 0.5924 0.5544 0.5163 0.4785 0.4406
1181.000000 0.4216 0.4239 0.4457 0.4823 0.5188
1186.000000 0.5554 0.5918 0.6281 0.6591 0.6668
1191.000000 0.6646 0.6635 0.6606 0.6569 0.6512
1196.000000 0.6390 0.6080 0.5742 0.5404 0.5067
1201.000000 0.4731 0.4586 0.4611 0.4567 0.4800
1206.000000 0.4896 0.4993 0.5037 0.5019 0.5005
1211.000000 0.4607 0.4185 0.3764 0.3343 0.2923
1216.000000 0.2503 0.2085 0.1667 0.1249 0.0832
1221.000000 0.0427 0.0314 0.0307 0.0514 0.0955
1226.000000 0.1396 0.1836 0.2274 0.2713 0.3151
1231.000000 0.3588 0.4024 0.4460 0.4894 0.5170
1236.000000 0.5191 0.5193 0.5191 0.5155 0.4926
1241.000000 0.4614 0.4302 0.3990 0.3680 0.3369
1246.000000 0.3059 0.2749 0.2557 0.2538 0.2520
1251.000000 0.2778 0.3229 0.3679 0.4129 0.4577
1256.000000 0.5025 0.5457 0.5618 0.5642 0.5636
1261.000000 0.5595 0.5313 0.4979 0.4644 0.4311
1266.000000 0.3979 0.3647 0.3315 0.2984 0.2740
1271.000000 0.2696 0.2672 0.2669 0.2667 0.2651
1276.000000 0.2504 0.2292 0.2081 0.1870 0.1660
1281.000000 0.1449 0.1239 0.1031 0.0853 0.0732
1286.000000 0.0701 0.0681 0.0662 0.0643 0.0622
1291.000000 0.0606 0.0593 0.0586 0.0585 0.0583
1296.000000 0.0939 0.1355 0.1771 0.2186 0.2602
1301.000000 0.3016 0.3429 0.3842 0.4254 0.4665
1306.000000 0.5067 0.5258 0.5404 0.5554 0.5709
1311.000000 0.5857 0.5994 0.6133 0.6327 0.6544
1316.000000 0.6706 0.6772 0.6793 0.6808 0.6812
1321.000000 0.6791 0.6781 0.6760 0.6732 0.6700
1326.000000 0.6654 0.6516 0.6385 0.6091 0.5780
1331.000000 0.5475 0.5170 0.4865 0.4561 0.4257
1336.000000 0.3954 0.3652 0.3349 0.3047 0.2746
1341.000000 0.2445 0.2145 0.1919 0.1886 0.1864
1346.000000 0.2474 0.2914 0.3354 0.3793 0.4231
1351.000000 0.4668 0.5105 0.5499 0.5667 0.5844
1356.000000 0.6109 0.6240 0.6329 0.6403 0.6468
1361.000000 0.6523 0.6578 0.6623 0.6661 0.6699
1366.000000 0.6737 0.6771 0.6797 0.6823 0.6848
1371.000000 0.6873 0.6893 0.6907 0.6919 0.6933
1376.000000 0.6945 0.6958 0.6969 0.6978 0.6986
1381.000000 0.6994 0.7002 0.7010 0.7017 0.7025
1386.000000 0.7033 0.7049 0.7071 0.7097 0.7124
1391.000000 0.7140 0.7151 0.7156 0.7160 0.7161
1396.000000 0.7181 0.7158 0.7156 0.7148 0.7139
1401.000000 0.7131 0.7118 0.7100 0.7081 0.7058
1406.000000 0.7032 0.7003 0.6972 0.6940 0.6901
1411.000000 0.6855 0.6808 0.6755 0.6673 0.6397
1416.000000 0.5982 0.5567 0.5154 0.4740 0.4328
1421.000000 0.3916 0.3504 0.3093 0.2683 0.2274
1426.000000 0.1864 0.1456 0.1048 0.0695 0.0514
1431.000000 0.0424 0.0370 0.0390 0.0396 0.0409
1436.000000 0.0428 0.0441 0.0447 0.0452 0.0496
1441.000000 0.0439 0.0396 0.0346 0.0303 0.0283
1446.000000 0.0281 0.0277 0.0584 0.1032 0.1480
1451.000000 0.1926 0.2373 0.2818 0.3263 0.3707
1456.000000 0.4151 0.4587 0.4961 0.5472 0.5909
1461.000000 0.6129 0.6340 0.6534 0.6708 0.6861
1466.000000 0.6999 0.7122 0.7195 0.7254 0.7312
1471.000000 0.7371 0.7418 0.7453 0.7487 0.7520
1476.000000 0.7556 0.7601 0.7649 0.7696 0.7741
1481.000000 0.7775 0.7807 0.7839 0.7871 0.7897
1486.000000 0.7916 0.7934 0.7951 0.7969 0.7986
1491.000000 0.8003 0.8018 0.8030 0.8042 0.8053
1496.000000 0.8065 0.8088 0.8114 0.8140 0.8166
1501.000000 0.8192 0.8220 0.8256 0.8293 0.8314
1506.000000 0.8333 0.8351 0.8369 0.8387 0.8405
1511.000000 0.8423 0.8441 0.8460 0.8483 0.8505
1516.000000 0.8520 0.8532 0.8545 0.8557 0.8569
1521.000000 0.8582 0.8594 0.8605 0.8615 0.8625
1526.000000 0.8635 0.8645 0.8655 0.8665 0.8675
1531.000000 0.8685 0.8695 0.8705 0.8714 0.8722
1536.000000 0.8730 0.8738 0.8745 0.8750 0.8752
1541.000000 0.8753 0.8755 0.8756 0.8757 0.8758
1546.000000 0.8759 0.8760 0.8763 0.8764 0.8765
1551.000000 0.8766 0.8767 0.8768 0.8770 0.8771
1556.000000 0.8773 0.8774 0.8776 0.8777 0.8779
1561.000000 0.8780 0.8781 0.8783 0.8785 0.8786
1566.000000 0.8787 0.8787 0.8787 0.8787 0.8787
1571.000000 0.8787 0.8786 0.8786 0.8786 0.8786
1576.000000 0.8786 0.8786 0.8786 0.8786 0.8785
1581.000000 0.8785 0.8785 0.8785 0.8783 0.8781
1586.000000 0.8778 0.8775 0.8772 0.8769 0.8767
1591.000000 0.8765 0.8762 0.8759 0.8756 0.8754
1596.000000 0.8751 0.8748 0.8745 0.8742 0.8740
1601.000000 0.8734 0.8725 0.8716 0.8707 0.8698
1606.000000 0.8688 0.8680 0.8672 0.8665 0.8658
1611.000000 0.8651 0.8644 0.8637 0.8634 0.8638
1616.000000 0.8641 0.8645 0.8649 0.8654 0.8663
1621.000000 0.8677 0.8693 0.8711 0.8732 0.8754
1626.000000 0.8775 0.8795 0.8813 0.8828 0.8840
1631.000000 0.8852 0.8864 0.8876 0.8889 0.8901
1636.000000 0.8913 0.8926 0.8931 0.8935 0.8940
1641.000000 0.8944 0.8947 0.8951 0.8955 0.8959
1646.000000 0.8963 0.8967 0.8972 0.8975 0.8978
1651.000000 0.8979 0.8980 0.8981 0.8982 0.8983
1656.000000 0.8984 0.8985 0.8986 0.8987 0.8987
1661.000000 0.8988 0.8989 0.8990 0.8990 0.8991
1666.000000 0.8992 0.8993 0.8994 0.8995 0.8995
1671.000000 0.8996 0.8997 0.8998 0.8999 0.8997
1676.000000 0.8995 0.8993 0.8990 0.8987 0.8986
1681.000000 0.8983 0.8980 0.8978 0.8976 0.8974
1686.000000 0.8972 0.8969 0.8967 0.8965 0.8962
1691.000000 0.8960 0.8958 0.8955 0.8950 0.8946
1696.000000 0.8941 0.8936 0.8932 0.8927 0.8922
1701.000000 0.8918 0.8914 0.8908 0.8904 0.8900
1706.000000 0.8896 0.8893 0.8893 0.8892 0.8891
1711.000000 0.8891 0.8890 0.8889 0.8889 0.8888
1716.000000 0.8887 0.8887 0.8887 0.8891 0.8898
1721.000000 0.8904 0.8910 0.8917 0.8924 0.8930
1726.000000 0.8936 0.8943 0.8949 0.8955 0.8959
1731.000000 0.8962 0.8966 0.8971 0.8975 0.8979
1736.000000 0.8983 0.8986 0.8989 0.8990 0.8991
1741.000000 0.8992 0.8993 0.8994 0.8995 0.8996
1746.000000 0.8997 0.8998 0.8999 0.9000 0.9001
1751.000000 0.9003 0.9004 0.9004 0.9006 0.9007
1756.000000 0.9008 0.9009 0.9010 0.9011 0.9011
1761.000000 0.9012 0.9012 0.9012 0.9013 0.9014
1766.000000 0.9014 0.9015 0.9015 0.9015 0.9016
1771.000000 0.9016 0.9017 0.9017 0.9016 0.9014
1776.000000 0.9013 0.9011 0.9010 0.9008 0.9006
1781.000000 0.9005 0.9003 0.9002 0.9000 0.8999
1786.000000 0.8997 0.8994 0.8993 0.8991 0.8990
1791.000000 0.8989 0.8989 0.8989 0.8989 0.8989
1796.000000 0.8990 0.8990 0.8990 0.8990 0.8990
1801.000000 0.8990 0.8991 0.8991 0.8991 0.8991
1806.000000 0.8992 0.8994 0.8998 0.9001 0.9004
1811.000000 0.9007 0.9010 0.9013 0.9022 0.9036
1816.000000 0.9048 0.9056 0.9057 0.9059 0.9060
1821.000000 0.9062 0.9062 0.9064 0.9065 0.9067
1826.000000 0.9067 0.9068 0.9068 0.9068 0.9068
1831.000000 0.9068 0.9067 0.9067 0.9067 0.9067
1836.000000 0.9067 0.9067 0.9067 0.9067 0.9068
1841.000000 0.9069 0.9070 0.9071 0.9072 0.9072
1846.000000 0.9073 0.9074 0.9075 0.9076 0.9077
1851.000000 0.9078 0.9079 0.9079 0.9080 0.9080
1856.000000 0.9070 0.9079 0.9078 0.9077 0.9077
1861.000000 0.9077 0.9076 0.9075 0.9075 0.9075
1866.000000 0.9074 0.9074 0.9073 0.9073 0.9072
1871.000000 0.9072 0.9071 0.9070 0.9070 0.9070
1876.000000 0.9069 0.9069 0.9069 0.9068 0.9067
1881.000000 0.9067 0.9067 0.9066 0.9065 0.9065
1886.000000 0.9065 0.9064 0.9064 0.9064 0.9063
1891.000000 0.9063 0.9062 0.9062 0.9061 0.9061
1896.000000 0.9061 0.9060 0.9060 0.9059 0.9059
1901.000000 0.9059 0.9058 0.9057 0.9057 0.9056
1906.000000 0.9055 0.9054 0.9054 0.9053 0.9053
1911.000000 0.9053 0.9052 0.9051 0.9051 0.9050
1916.000000 0.9049 0.9049 0.9048 0.9047 0.9047
1921.000000 0.9046 0.9045 0.9045 0.9044 0.9043
1926.000000 0.9043 0.9042 0.9041 0.9041 0.9040
1931.000000 0.9039 0.9038 0.9038 0.9037 0.9036
1936.000000 0.9036 0.9035 0.9034 0.9034 0.9033
1941.000000 0.9032 0.9032 0.9032 0.9032 0.9032
1946.000000 0.9032 0.9032 0.9032 0.9033 0.9033
1951.000000 0.9033 0.9033 0.9033 0.9033 0.9034
1956.000000 0.9034 0.9034 0.9034 0.9034 0.9034
1961.000000 0.9035 0.9035 0.9035 0.9035 0.9035
1966.000000 0.9035 0.9036 0.9036 0.9036 0.9036
1971.000000 0.9036 0.9037 0.9037 0.9037 0.9037
1976.000000 0.9037 0.9037 0.9038 0.9038 0.9038
1981.000000 0.9038 0.9038 0.9038 0.9038 0.9038
1986.000000 0.9038 0.9038 0.9038 0.9038 0.9038
1991.000000 0.9038 0.9038 0.9038 0.9038 0.9038
1996.000000 0.9038 0.9038 0.9038 0.9038 0.9038
2001.000000 0.9038 0.9038 0.9038 0.9038 0.9038
2006.000000 0.9038 0.9039 0.9039 0.9039 0.9039
2011.000000 0.9039 0.9039 0.9040 0.9040 0.9040
2016.000000 0.9040 0.9040 0.9040 0.9040 0.9041
2021.000000 0.9041 0.9041 0.9041 0.9041 0.9041
2026.000000 0.9042 0.9042 0.9042 0.9042 0.9042
2031.000000 0.9043 0.9043 0.9043 0.9043 0.9043
2036.000000 0.9043 0.9043 0.9044 0.9044 0.9044
2041.000000 0.9044 0.9044 0.9045 0.9045 0.9045
2046.000000 0.9046 0.9046 0.9046 0.9046 0.9046
2051.000000 0.9047 0.9047 0.9047 0.9047 0.9048
2056.000000 0.9048 0.9048 0.9049 0.9049 0.9049
2061.000000 0.9049 0.9050 0.9050 0.9050 0.9050
2066.000000 0.9050 0.9051 0.9051 0.9051 0.9052
2071.000000 0.9052 0.9052 0.9053 0.9053 0.9053
2076.000000 0.9053 0.9053 0.9053 0.9053 0.9053
2081.000000 0.9053 0.9053 0.9053 0.9053 0.9053
2086.000000 0.9053 0.9053 0.9053 0.9052 0.9052
2091.000000 0.9052 0.9052 0.9052 0.9052 0.9052
2096.000000 0.9051 0.9050 0.9048 0.9047 0.9045
2101.000000 0.9044 0.9043 0.9041 0.9040 0.9038
2106.000000 0.9037 0.9036 0.9034 0.9033 0.9031
2111.000000 0.9030 0.9029 0.9027 0.9026 0.9025
2116.000000 0.9023 0.9022 0.9022 0.9021 0.9020
2121.000000 0.9019 0.9019 0.9018 0.9018 0.9017
2126.000000 0.9016 0.9016 0.9015 0.9015 0.9014
2131.000000 0.9013 0.9012 0.9012 0.9011 0.9010
2136.000000 0.9010 0.9009 0.9009 0.9008 0.9007
2141.000000 0.9006 0.9006 0.9005 0.9005 0.9005
2146.000000 0.9007 0.9007 0.9008 0.9008 0.9009
2151.000000 0.9010 0.9011 0.9011 0.9012 0.9013
2156.000000 0.9014 0.9014 0.9016 0.9017 0.9017
2161.000000 0.9018 0.9019 0.9020 0.9020 0.9021
2166.000000 0.9022 0.9023 0.9023 0.9024 0.9025
2171.000000 0.9026 0.9026 0.9029 0.9032 0.9034
2176.000000 0.9037 0.9040 0.9042 0.9045 0.9048
2181.000000 0.9050 0.9053 0.9055 0.9058 0.9061
2186.000000 0.9063 0.9066 0.9069 0.9071 0.9074
2191.000000 0.9076 0.9078 0.9079 0.9078 0.9077
2196.000000 0.9076 0.9075 0.9074 0.9072 0.9071
2201.000000 0.9070 0.9068 0.9066 0.9061 0.9056
2206.000000 0.9050 0.9044 0.9038 0.9032 0.9026
2211.000000 0.9020 0.9014 0.9008 0.9002 0.8996
2216.000000 0.8989 0.8984 0.8978 0.8972 0.8965
2221.000000 0.8959 0.8953 0.8947 0.8941 0.8934
2226.000000 0.8928 0.8922 0.8915 0.8909 0.8902
2231.000000 0.8896 0.8890 0.8884 0.8878 0.8872
2236.000000 0.8866 0.8860 0.8854 0.8848 0.8842
2241.000000 0.8836 0.8829 0.8823 0.8817 0.8812
2246.000000 0.8806 0.8801 0.8796 0.8794 0.8791
2251.000000 0.8788 0.8785 0.8787 0.8781 0.8782
2256.000000 0.8784 0.8786 0.8788 0.8790 0.8792
2261.000000 0.8794 0.8796 0.8799 0.8801 0.8805
2266.000000 0.8809 0.8813 0.8817 0.8821 0.8825
2271.000000 0.8829 0.8833 0.8838 0.8841 0.8845
2276.000000 0.8849 0.8853 0.8859 0.8865 0.8871
2281.000000 0.8876 0.8882 0.8887 0.8892 0.8897
2286.000000 0.8901 0.8905 0.8908 0.8909 0.8910
2291.000000 0.8911 0.8912 0.8913 0.8914 0.8915
2296.000000 0.8916 0.8917 0.8918 0.8919 0.8920
2301.000000 0.8920 0.8920 0.8921 0.8921 0.8922
2306.000000 0.8922 0.8923 0.8923 0.8923 0.8923
2311.000000 0.8924 0.8924 0.8925 0.8925 0.8925
2316.000000 0.8925 0.8926 0.8926 0.8926 0.8925
2321.000000 0.8925 0.8925 0.8925 0.8924 0.8924
2326.000000 0.8953 0.8923 0.8922 0.8922 0.8922
2331.000000 0.8922 0.8922 0.8919 0.8917 0.8909
2336.000000 0.8899 0.8889 0.8880 0.8870 0.8861
2341.000000 0.8852 0.8844 0.8836 0.8827 0.8819
2346.000000 0.8811 0.8803 0.8795 0.8787 0.8777
2351.000000 0.8767 0.8756 0.8745 0.8735 0.8724
2356.000000 0.8713 0.8703 0.8693 0.8682 0.8671
2361.000000 0.8662 0.8655 0.8648 0.8641 0.8635
2366.000000 0.8628 0.8621 0.8617 0.8614 0.8611
2371.000000 0.8610 0.8608 0.8607 0.8606 0.8604
2376.000000 0.8603 0.8604 0.8607 0.8611 0.8614
2381.000000 0.8618 0.8621 0.8624 0.8593 0.8630
2386.000000 0.8633 0.8636 0.8639 0.8643 0.8646
2391.000000 0.8650 0.8654 0.8660 0.8666 0.8673
2396.000000 0.8679 0.8686 0.8692 0.8699 0.8705
2401.000000 0.8712 0.8719 0.8728 0.8736 0.8746
2406.000000 0.8757 0.8767 0.8778 0.8786 0.8794
2411.000000 0.8800 0.8802 0.8803 0.8805 0.8806
2416.000000 0.8807 0.8808 0.8810 0.8811 0.8811
2421.000000 0.8812 0.8812 0.8812 0.8812 0.8813
2426.000000 0.8813 0.8813 0.8814 0.8814 0.8814
2431.000000 0.8814 0.8815 0.8815 0.8815 0.8816
2436.000000 0.8816 0.8816 0.8816 0.8816 0.8817
2441.000000 0.8817 0.8816 0.8816 0.8816 0.8816
2446.000000 0.8816 0.8816 0.8816 0.8816 0.8816
2451.000000 0.8815 0.8815 0.8815 0.8815 0.8816
2456.000000 0.8817 0.8820 0.8823 0.8825 0.8828
2461.000000 0.8831 0.8833 0.8836 0.8840 0.8845
2466.000000 0.8850 0.8857 0.8864 0.8871 0.8878
2471.000000 0.8882 0.8884 0.8886 0.8888 0.8890
2476.000000 0.8892 0.8893 0.8895 0.8897 0.8899
2481.000000 0.8901 0.8902 0.8904 0.8906 0.8908
2486.000000 0.8910 0.8912 0.8913 0.8914 0.8914
2491.000000 0.8915 0.8915 0.8916 0.8917 0.8917
2496.000000 0.8918 0.8918 0.8919 0.8920 0.8921
2501.000000 0.8921 0.8921 0.8922 0.8923 0.8923
2506.000000 0.8924 0.8924 0.8925 0.8926 0.8926
2511.000000 0.8928 0.8929 0.8930 0.8931 0.8931
2516.000000 0.8933 0.8934 0.8935 0.8936 0.8936
2521.000000 0.8937 0.8939 0.8940 0.8941 0.8941
2526.000000 0.8942 0.8944 0.8945 0.8945 0.8946
2531.000000 0.8947 0.8948 0.8950 0.8950 0.8951
2536.000000 0.8952 0.8953 0.8954 0.8955 0.8956
2541.000000 0.8957 0.8958 0.8959 0.8961 0.8962
2546.000000 0.8964 0.8965 0.8966 0.8967 0.8969
2551.000000 0.8970 0.8972 0.8973 0.8974 0.8975
2556.000000 0.8976 0.8978 0.8979 0.8981 0.8982
2561.000000 0.8983 0.8984 0.8985 0.8986 0.8988
2566.000000 0.8989 0.8991 0.8992 0.8993 0.8994
2571.000000 0.8995 0.8996 0.8998 0.8999 0.9001
2576.000000 0.9002 0.9002 0.9003 0.9004 0.9005
2581.000000 0.9005 0.9006 0.9007 0.9008 0.9008
2586.000000 0.9009 0.9010 0.9011 0.9012 0.9013
2591.000000 0.9014 0.9014 0.9015 0.9007 0.9017
2596.000000 0.9017 0.9018 0.9019 0.9020 0.9020
2601.000000 0.9021 0.9021 0.9020 0.9020 0.9019
2606.000000 0.9018 0.9017 0.9016 0.9015 0.9014
2611.000000 0.9013 0.9012 0.9011 0.9010 0.9009
2616.000000 0.9007 0.9006 0.9005 0.9005 0.9004
2621.000000 0.9003 0.9002 0.9001 0.9000 0.8999
2626.000000 0.8998 0.8996 0.8995 0.8994 0.8993
2631.000000 0.8992 0.8991 0.8990 0.8989 0.8988
2636.000000 0.8987 0.8987 0.8986 0.8984 0.8983
2641.000000 0.8982 0.8981 0.8980 0.8979 0.8977
2646.000000 0.8975 0.8973 0.8971 0.8969 0.8967
2651.000000 0.8965 0.8963 0.8960 0.8958 0.8956
2656.000000 0.8954 0.8952 0.8950 0.8948 0.8946
2661.000000 0.8943 0.8941 0.8939 0.8937 0.8935
