##TITLE=3-METHYL PENTANE
##JCAMP-DX=4.24
##DATA TYPE=INFRARED SPECTRUM
##CLASS=COBLENTZ
##ORIGIN=DOW CORNING CORP.
##OWNER=COBLENTZ SOCIETY
Collection (C) 2018 copyright by the U.S. Secretary of Commerce
on behalf of the United States of America. All rights reserved.
##DATE=Not specified, most likely prior to 1970
##NAMES=3-methylpentane
##CAS REGISTRY NO=96-14-0
##MOLFORM=C6 H14
##SOURCE REFERENCE=COBLENTZ NO. 4766
##$NIST SOURCE=COBLENTZ
##$NIST IMAGE=cob4766
##SPECTROMETER/DATA SYSTEM=Not specified, most likely a grating or hybrid spectrometer.
##STATE=LIQUID (NEAT)
##PATH LENGTH=0.0096 CM (CsBr CELL)
##SAMPLING PROCEDURE=TRANSMISSION
##RESOLUTION=4
##DATA PROCESSING=DIGITIZED BY NIST FROM HARD COPY (FROM TWO SEGMENTS)
##XUNITS=1/CM
##YUNITS=TRANSMITTANCE
##XFACTOR=1.000000
##YFACTOR=1
##DELTAX=1.276601
##FIRSTX=240.851
##LASTX=3793.63
##FIRSTY=0.623
##MAXX=3793.63
##MINX=240.851
##MAXY=0.949
##MINY=0
##NPOINTS=2784
##XYDATA=(X++(Y..Y))
240.851000 0.6230 0.6230 0.6240 0.6240 0.6280
247.234005 0.6310 0.6429 0.6520 0.6609 0.6729
253.617010 0.6800 0.6910 0.6960 0.7080 0.7130
260.000015 0.7240 0.7340 0.7390 0.7499 0.7530
266.383020 0.7590 0.7660 0.7690 0.7760 0.7780
272.766025 0.7830 0.7870 0.7940 0.7950 0.8079
279.149030 0.8150 0.8200 0.8210 0.8230 0.8320
285.532035 0.8390 0.8509 0.8619 0.8700 0.8760
291.915040 0.8770 0.8810 0.8830 0.8860 0.8860
298.298045 0.8880 0.8910 0.8950 0.8970 0.8980
304.681050 0.9000 0.9020 0.9050 0.9070 0.9090
311.064055 0.9090 0.9100 0.9120 0.9170 0.9190
317.447060 0.9210 0.9240 0.9310 0.9350 0.9370
323.830065 0.9370 0.9370 0.9380 0.9450 0.9450
330.213070 0.9470 0.9470 0.9470 0.9490 0.9490
336.596075 0.9470 0.9470 0.9450 0.9440 0.9440
342.979080 0.9440 0.9440 0.9420 0.9420 0.9420
349.362085 0.9400 0.9400 0.9380 0.9380 0.9370
355.745090 0.9380 0.9400 0.9420 0.9420 0.9440
362.128095 0.9440 0.9440 0.9440 0.9440 0.9440
368.511100 0.9420 0.9400 0.9400 0.9380 0.9380
374.894105 0.9370 0.9350 0.9300 0.9240 0.9210
381.277110 0.9170 0.9160 0.9160 0.9170 0.9210
387.660115 0.9230 0.9240 0.9240 0.9240 0.9240
394.043120 0.9240 0.9240 0.9260 0.9260 0.9280
400.426125 0.9280 0.9280 0.9280 0.9280 0.9280
406.809130 0.9260 0.9260 0.9260 0.9260 0.9260
413.192135 0.9260 0.9260 0.9240 0.9240 0.9230
419.575140 0.9190 0.9160 0.9120 0.9090 0.9040
425.958145 0.9020 0.9000 0.8980 0.8950 0.8910
432.341151 0.8900 0.8860 0.8860 0.8840 0.8790
438.724156 0.8770 0.8760 0.8770 0.8830 0.8840
445.107161 0.8860 0.8860 0.8880 0.8900 0.8910
451.490166 0.8910 0.8910 0.8910 0.8900 0.8860
457.873171 0.8830 0.8790 0.8770 0.8740 0.8720
464.256176 0.8690 0.8650 0.8630 0.8650 0.8690
470.639181 0.8700 0.8720 0.8760 0.8840 0.8910
477.022186 0.8910 0.8950 0.8980 0.9020 0.9020
483.405191 0.9020 0.9020 0.9040 0.9040 0.9040
489.788196 0.9020 0.9020 0.9020 0.9020 0.9020
496.171201 0.8970 0.8930 0.8900 0.8900 0.8880
502.554206 0.8840 0.8840 0.8840 0.8840 0.8840
508.937211 0.8830 0.8830 0.8830 0.8810 0.8810
515.320216 0.8810 0.8770 0.8760 0.8720 0.8670
521.703221 0.8650 0.8550 0.8510 0.8420 0.8390
528.086226 0.8410 0.8440 0.8510 0.8510 0.8560
534.469231 0.8600 0.8630 0.8650 0.8650 0.8620
540.852236 0.8530 0.8480 0.8370 0.8340 0.8340
547.235241 0.8480 0.8620 0.8790 0.8880 0.8930
553.618246 0.8950 0.8970 0.9020 0.9040 0.9040
560.001251 0.9040 0.9040 0.9040 0.9040 0.9040
566.384256 0.9040 0.9020 0.9020 0.9000 0.8980
572.767261 0.8980 0.8980 0.8980 0.8980 0.9000
579.150266 0.9000 0.9000 0.9020 0.9020 0.9020
585.533271 0.9040 0.9050 0.9050 0.9040 0.9040
591.916276 0.9040 0.9050 0.9050 0.9050 0.9070
598.299281 0.9050 0.9040 0.9040 0.9020 0.9020
604.682286 0.9000 0.9000 0.9000 0.9040 0.9040
611.065291 0.8980 0.8980 0.8980 0.8950 0.8910
617.448296 0.8860 0.8720 0.8700 0.8700 0.8700
623.831301 0.8700 0.8700 0.8700 0.8700 0.8700
630.214306 0.8700 0.8700 0.8700 0.8700 0.8700
636.597311 0.8700 0.8700 0.8700 0.8700 0.8690
642.980316 0.8670 0.8650 0.8650 0.8620 0.8600
649.363321 0.8550 0.8530 0.8510 0.8490 0.8420
655.746326 0.8410 0.8390 0.8390 0.8370 0.8350
662.129331 0.8270 0.8160 0.7970 0.7950 0.7760
668.512336 0.7481 0.7241 0.6802 0.6312 0.6310
674.895341 0.7290 0.7590 0.8130 0.8230 0.8270
681.278346 0.8300 0.8300 0.8280 0.8280 0.8270
687.661351 0.8250 0.8200 0.8160 0.8130 0.8090
694.044356 0.8080 0.8080 0.8080 0.8090 0.8110
700.427361 0.8150 0.8180 0.8180 0.8160 0.8130
706.810366 0.8130 0.8130 0.8110 0.8080 0.8060
713.193371 0.8020 0.7970 0.7970 0.7950 0.7870
719.576376 0.7760 0.7670 0.7600 0.7570 0.7451
725.959381 0.7410 0.7290 0.7080 0.6800 0.6710
732.342386 0.6630 0.6590 0.6540 0.6520 0.6450
738.725391 0.6380 0.6230 0.5910 0.5610 0.5510
745.108396 0.5530 0.5630 0.5999 0.6120 0.6229
751.491401 0.6240 0.6240 0.6190 0.6070 0.5820
757.874406 0.5560 0.5231 0.4791 0.4342 0.4031
764.257411 0.3990 0.3970 0.3960 0.3900 0.3830
770.640416 0.3640 0.3490 0.3490 0.3520 0.3709
777.023421 0.4111 0.4551 0.5140 0.5810 0.5930
783.406426 0.6259 0.6469 0.6520 0.6630 0.6680
789.789431 0.6710 0.6750 0.6770 0.6770 0.6770
796.172436 0.6750 0.6660 0.6570 0.6450 0.6261
802.555441 0.6030 0.5950 0.5770 0.5650 0.5410
808.938447 0.5180 0.5020 0.4781 0.4780 0.5019
815.321452 0.5541 0.5960 0.6190 0.6610 0.7010
821.704457 0.7120 0.7240 0.7390 0.7500 0.7570
828.087462 0.7590 0.7600 0.7620 0.7640 0.7660
834.470467 0.7660 0.7620 0.7620 0.7640 0.7660
840.853472 0.7660 0.7670 0.7670 0.7660 0.7660
847.236477 0.7660 0.7660 0.7640 0.7600 0.7590
853.619482 0.7590 0.7590 0.7570 0.7520 0.7430
860.002487 0.7310 0.7270 0.7190 0.6981 0.6771
866.385492 0.6559 0.6280 0.6020 0.6020 0.6090
872.768497 0.6190 0.6300 0.6310 0.6310 0.6350
879.151502 0.6521 0.6850 0.7010 0.7120 0.7260
885.534507 0.7410 0.7460 0.7500 0.7550 0.7550
891.917512 0.7590 0.7600 0.7620 0.7620 0.7620
898.300517 0.7620 0.7600 0.7570 0.7550 0.7530
904.683522 0.7530 0.7520 0.7520 0.7500 0.7480
911.066527 0.7450 0.7410 0.7360 0.7310 0.7290
917.449532 0.7290 0.7270 0.7260 0.7240 0.7220
923.832537 0.7170 0.7130 0.7080 0.6980 0.6870
930.215542 0.6770 0.6640 0.6490 0.6310 0.6140
936.598547 0.5890 0.5611 0.5271 0.4722 0.4342
942.981552 0.3759 0.3239 0.2510 0.1970 0.1900
949.364557 0.1970 0.2249 0.2320 0.2469 0.2679
955.747562 0.2960 0.3010 0.3150 0.3290 0.3500
962.130567 0.3849 0.4030 0.4080 0.4080 0.3970
968.513572 0.3870 0.3760 0.3590 0.3380 0.3190
974.896577 0.2871 0.2511 0.2261 0.1901 0.1671
981.279582 0.1390 0.1370 0.1390 0.1530 0.1720
987.662587 0.2039 0.2679 0.3139 0.3558 0.3889
994.045592 0.4220 0.4460 0.4670 0.4670 0.4620
1000.428597 0.4460 0.4390 0.4380 0.4181 0.4031
1006.811602 0.3960 0.3900 0.3890 0.3900 0.3920
1013.194607 0.3970 0.4180 0.4380 0.4520 0.4829
1019.577612 0.5040 0.5140 0.5230 0.5280 0.5280
1025.960617 0.5250 0.5230 0.5210 0.5041 0.4851
1032.343622 0.4740 0.4619 0.4380 0.4080 0.3900
1038.726627 0.3900 0.3960 0.4249 0.4529 0.4899
1045.109632 0.5061 0.5271 0.5540 0.5680 0.5790
1051.492637 0.5880 0.5890 0.5910 0.5930 0.6000
1057.875642 0.6020 0.6030 0.6050 0.6070 0.6070
1064.258647 0.6090 0.6120 0.6140 0.6160 0.6160
1070.641652 0.6160 0.6160 0.6160 0.6160 0.6160
1077.024657 0.6160 0.6160 0.6160 0.6160 0.6140
1083.407662 0.6140 0.6140 0.6120 0.6120 0.6120
1089.790667 0.6100 0.6100 0.6090 0.6070 0.6070
1096.173672 0.6050 0.6050 0.6030 0.6030 0.6020
1102.556677 0.6000 0.5960 0.5930 0.5910 0.5910
1108.939682 0.5810 0.5650 0.5560 0.5390 0.5180
1115.322687 0.4970 0.4650 0.4411 0.4390 0.4430
1121.705692 0.4621 0.4850 0.4920 0.4920 0.4880
1128.088697 0.4790 0.4720 0.4580 0.4460 0.4430
1134.471702 0.4360 0.4290 0.4220 0.4010 0.3820
1140.854707 0.3780 0.3760 0.3760 0.3730 0.3541
1147.237712 0.3310 0.3310 0.3490 0.3570 0.4010
1153.620717 0.4150 0.4320 0.4649 0.4859 0.5069
1160.003722 0.5281 0.5460 0.5540 0.5650 0.5680
1166.386727 0.5700 0.5740 0.5750 0.5890 0.6000
1172.769732 0.6100 0.6210 0.6330 0.6380 0.6420
1179.152737 0.6470 0.6500 0.6500 0.6500 0.6540
1185.535743 0.6640 0.6710 0.6770 0.6770 0.6780
1191.918748 0.6780 0.6780 0.6780 0.6800 0.6800
1198.301753 0.6820 0.6820 0.6800 0.6800 0.6800
1204.684758 0.6840 0.6840 0.6820 0.6820 0.6820
1211.067763 0.6800 0.6800 0.6780 0.6780 0.6780
1217.450768 0.6780 0.6770 0.6750 0.6700 0.6660
1223.833773 0.6630 0.6610 0.6590 0.6560 0.6520
1230.216778 0.6450 0.6330 0.6280 0.6140 0.6000
1236.599783 0.5880 0.5740 0.5580 0.5350 0.4990
1242.982788 0.4790 0.4780 0.4790 0.4930 0.5070
1249.365793 0.5200 0.5340 0.5510 0.5610 0.5630
1255.748798 0.5610 0.5610 0.5600 0.5600 0.5580
1262.131803 0.5560 0.5540 0.5510 0.5470 0.5350
1268.514808 0.5200 0.5110 0.5070 0.5020 0.5020
1274.897813 0.5090 0.5130 0.5160 0.5200 0.5140
1281.280818 0.5140 0.5130 0.5140 0.5140 0.5130
1287.663823 0.5110 0.5039 0.4790 0.4480 0.4380
1294.046828 0.4170 0.4110 0.4030 0.4030 0.4319
1300.429833 0.4431 0.4850 0.5040 0.5060 0.5060
1306.812838 0.5040 0.4970 0.4780 0.4650 0.4650
1313.195843 0.4761 0.4930 0.5040 0.5130 0.5140
1319.578848 0.5160 0.5140 0.5130 0.5060 0.5000
1325.961853 0.4850 0.4790 0.4790 0.4780 0.4740
1332.344858 0.4710 0.4670 0.4650 0.4570 0.4430
1338.727863 0.4339 0.4110 0.3960 0.3760 0.3680
1345.110868 0.3590 0.3540 0.3430 0.3310 0.3081
1351.493873 0.3030 0.2980 0.2940 0.2930 0.2750
1357.876878 0.2560 0.2490 0.2330 0.1931 0.1741
1364.259883 0.1477 0.0749 0.0379 0.0060 0.0030
1370.642888 0.0010 0.0000 0.0000 0.0000 0.0000
1377.025893 0.0010 0.0010 0.0050 0.0120 0.0270
1383.408898 0.0500 0.0920 0.1080 0.1220 0.1479
1389.791903 0.1811 0.2180 0.2330 0.2470 0.2720
1396.174908 0.2870 0.2980 0.3050 0.3140 0.3220
1402.557913 0.3280 0.3280 0.3260 0.3260 0.3240
1408.940918 0.3240 0.3170 0.3120 0.3070 0.3010
1415.323923 0.2960 0.2840 0.2770 0.2720 0.2630
1421.706928 0.2490 0.2400 0.2370 0.2230 0.2001
1428.089933 0.1909 0.1710 0.1600 0.1480 0.1340
1434.472938 0.0920 0.0680 0.0570 0.0450 0.0241
1440.855943 0.0080 0.0050 0.0010 0.0000 0.0000
1447.238948 0.0000 0.0000 0.0000 0.0000 0.0000
1453.621953 0.0000 0.0000 0.0000 0.0000 0.0000
1460.004958 0.0000 0.0000 0.0000 0.0000 0.0000
1466.387963 0.0000 0.0000 0.0030 0.0080 0.0120
1472.770968 0.0170 0.0310 0.0500 0.0690 0.0949
1479.153973 0.1080 0.1181 0.1370 0.1570 0.1810
1485.536978 0.2110 0.2280 0.2420 0.2699 0.2840
1491.919983 0.3151 0.3310 0.3380 0.3500 0.3590
1498.302988 0.3780 0.3970 0.4150 0.4250 0.4390
1504.685993 0.4480 0.4550 0.4570 0.4650 0.4790
1511.068998 0.4900 0.4920 0.4990 0.5020 0.5060
1517.452003 0.5070 0.5130 0.5210 0.5250 0.5280
1523.835008 0.5370 0.5410 0.5410 0.5420 0.5440
1530.218013 0.5440 0.5470 0.5490 0.5530 0.5540
1536.601018 0.5540 0.5560 0.5580 0.5600 0.5630
1542.984023 0.5650 0.5650 0.5670 0.5680 0.5680
1549.367028 0.5720 0.5740 0.5750 0.5750 0.5770
1555.750033 0.5770 0.5770 0.5770 0.5770 0.5810
1562.133039 0.5820 0.5820 0.5860 0.5880 0.5880
1568.516044 0.5880 0.5890 0.5910 0.5930 0.5930
1574.899049 0.5950 0.5960 0.5960 0.5980 0.6000
1581.282054 0.6000 0.6000 0.6000 0.6000 0.6020
1587.665059 0.6030 0.6030 0.6050 0.6050 0.6070
1594.048064 0.6090 0.6090 0.6100 0.6100 0.6120
1600.431069 0.6140 0.6140 0.6140 0.6140 0.6140
1606.814074 0.6140 0.6140 0.6140 0.6160 0.6170
1613.197079 0.6170 0.6170 0.6190 0.6170 0.6170
1619.580084 0.6170 0.6160 0.6140 0.6140 0.6140
1625.963089 0.6140 0.6140 0.6120 0.6100 0.6090
1632.346094 0.6070 0.6050 0.6030 0.6030 0.6020
1638.729099 0.6020 0.6000 0.5980 0.5960 0.5950
1645.112104 0.5950 0.5950 0.5930 0.5930 0.5930
1651.495109 0.5910 0.5910 0.5910 0.5910 0.5910
1657.878114 0.5910 0.5910 0.5910 0.5910 0.5910
1664.261119 0.5910 0.5910 0.5930 0.5950 0.5950
1670.644124 0.5960 0.5960 0.5980 0.6000 0.6020
1677.027129 0.6030 0.6050 0.6090 0.6100 0.6100
1683.410134 0.6100 0.6100 0.6160 0.6170 0.6170
1689.793139 0.6190 0.6260 0.6310 0.6330 0.6330
1696.176144 0.6350 0.6380 0.6400 0.6400 0.6400
1702.559149 0.6400 0.6400 0.6380 0.6380 0.6400
1708.942154 0.6400 0.6430 0.6430 0.6430 0.6430
1715.325159 0.6430 0.6430 0.6430 0.6430 0.6450
1721.708164 0.6450 0.6450 0.6470 0.6470 0.6470
1728.091169 0.6470 0.6500 0.6500 0.6470 0.6470
1734.474174 0.6470 0.6470 0.6470 0.6490 0.6490
1740.857179 0.6490 0.6490 0.6490 0.6490 0.6470
1747.240184 0.6470 0.6470 0.6470 0.6470 0.6490
1753.623189 0.6490 0.6490 0.6470 0.6470 0.6490
1760.006194 0.6500 0.6500 0.6500 0.6520 0.6520
1766.389199 0.6520 0.6520 0.6520 0.6520 0.6520
1772.772204 0.6520 0.6520 0.6500 0.6500 0.6500
1779.155209 0.6520 0.6470 0.6520 0.6520 0.6540
1785.538214 0.6520 0.6520 0.6520 0.6520 0.6540
1791.921219 0.6540 0.6540 0.6540 0.6520 0.6520
1798.304224 0.6520 0.6540 0.6520 0.6490 0.6470
1804.687229 0.6470 0.6470 0.6470 0.6490 0.6490
1811.070234 0.6490 0.6490 0.6490 0.6500 0.6500
1817.453239 0.6490 0.6490 0.6500 0.6500 0.6500
1823.836244 0.6500 0.6500 0.6500 0.6520 0.6520
1830.219249 0.6540 0.6540 0.6540 0.6540 0.6540
1836.602254 0.6540 0.6540 0.6540 0.6500 0.6500
1842.985259 0.6520 0.6560 0.6570 0.6570 0.6560
1849.368264 0.6520 0.6500 0.6470 0.6470 0.6540
1855.751269 0.6540 0.6540 0.6540 0.6540 0.6540
1862.134274 0.6540 0.6540 0.6560 0.6560 0.6560
1868.517279 0.6560 0.6560 0.6560 0.6540 0.6540
1874.900284 0.6540 0.6540 0.6540 0.6520 0.6520
1881.283289 0.6520 0.6500 0.6500 0.6500 0.6500
1887.666294 0.6490 0.6490 0.6490 0.6490 0.6490
1894.049299 0.6490 0.6490 0.6490 0.6470 0.6470
1900.432304 0.6470 0.6470 0.6470 0.6470 0.6470
1906.815309 0.6450 0.6450 0.6430 0.6420 0.6400
1913.198314 0.6400 0.6400 0.6400 0.6400 0.6400
1919.581319 0.6400 0.6420 0.6420 0.6430 0.6430
1925.964324 0.6430 0.6430 0.6450 0.6430 0.6420
1932.347329 0.6420 0.6420 0.6420 0.6430 0.6430
1938.730335 0.6430 0.6420 0.6420 0.6420 0.6420
1945.113340 0.6420 0.6420 0.6420 0.6420 0.6420
1951.496345 0.6420 0.6420 0.6430 0.6430 0.6450
1957.879350 0.6450 0.6450 0.6470 0.6450 0.6470
1964.262355 0.6470 0.6470 0.6470 0.6470 0.6470
1970.645360 0.6490 0.6490 0.6470 0.6470 0.6470
1977.028365 0.6470 0.6470 0.6450 0.6450 0.6430
1983.411370 0.6430 0.6430 0.6420 0.6400 0.6400
1989.794375 0.6400 0.6430 0.6430 0.6430 0.6430
1996.177380 0.6430 0.6430 0.6430 0.6430 0.6430
2002.560385 0.6430 0.6430 0.6430 0.6430 0.6430
2008.943390 0.6430 0.6430 0.6425 0.6420 0.6420
2015.326395 0.6420 0.6420 0.6420 0.6410 0.6400
2021.709400 0.6400 0.6400 0.6390 0.6380 0.6370
2028.092405 0.6360 0.6345 0.6331 0.6330 0.6330
2034.475410 0.6320 0.6310 0.6296 0.6281 0.6271
2040.858415 0.6261 0.6269 0.6279 0.6280 0.6280
2047.241420 0.6280 0.6280 0.6280 0.6280 0.6256
2053.624425 0.6231 0.6230 0.6230 0.6244 0.6259
2060.007430 0.6269 0.6279 0.6289 0.6299 0.6300
2066.390435 0.6300 0.6300 0.6300 0.6291 0.6281
2072.773440 0.6280 0.6280 0.6271 0.6261 0.6246
2079.156445 0.6231 0.6212 0.6192 0.6190 0.6190
2085.539450 0.6181 0.6171 0.6170 0.6170 0.6166
2091.922455 0.6161 0.6160 0.6160 0.6151 0.6141
2098.305460 0.6149 0.6159 0.6151 0.6141 0.6140
2104.688465 0.6140 0.6140 0.6140 0.6131 0.6121
2111.071470 0.6111 0.6101 0.6100 0.6100 0.6096
2117.454475 0.6091 0.6081 0.6071 0.6061 0.6052
2123.837480 0.6042 0.6032 0.6030 0.6030 0.6030
2130.220485 0.6030 0.6030 0.6030 0.6030 0.6030
2136.603490 0.6026 0.6021 0.6012 0.6002 0.6000
2142.986495 0.6000 0.6008 0.6018 0.6020 0.6020
2149.369500 0.6020 0.6020 0.6012 0.6002 0.6000
2155.752505 0.6000 0.6000 0.6000 0.5992 0.5982
2162.135510 0.5980 0.5980 0.5988 0.5998 0.6000
2168.518515 0.6000 0.6000 0.6000 0.5992 0.5982
2174.901520 0.5980 0.5980 0.5972 0.5962 0.5956
2181.284525 0.5951 0.5950 0.5950 0.5950 0.5950
2187.667530 0.5942 0.5932 0.5914 0.5894 0.5890
2194.050535 0.5890 0.5890 0.5890 0.5890 0.5890
2200.433540 0.5886 0.5881 0.5884 0.5889 0.5890
2206.816545 0.5890 0.5886 0.5881 0.5872 0.5862
2213.199550 0.5868 0.5878 0.5880 0.5880 0.5873
2219.582555 0.5863 0.5860 0.5860 0.5860 0.5860
2225.965560 0.5860 0.5860 0.5860 0.5860 0.5860
2232.348565 0.5860 0.5853 0.5843 0.5840 0.5840
2238.731570 0.5840 0.5840 0.5833 0.5823 0.5820
2245.114575 0.5820 0.5820 0.5820 0.5816 0.5811
2251.497580 0.5803 0.5793 0.5790 0.5790 0.5783
2257.880585 0.5773 0.5777 0.5787 0.5790 0.5790
2264.263590 0.5797 0.5807 0.5810 0.5810 0.5810
2270.646595 0.5810 0.5803 0.5793 0.5790 0.5790
2277.029600 0.5790 0.5790 0.5776 0.5756 0.5747
2283.412605 0.5742 0.5740 0.5740 0.5726 0.5706
2289.795610 0.5700 0.5700 0.5693 0.5683 0.5677
2296.178615 0.5672 0.5663 0.5653 0.5637 0.5617
2302.561620 0.5594 0.5569 0.5550 0.5535 0.5523
2308.944625 0.5513 0.5497 0.5477 0.5470 0.5470
2315.327630 0.5460 0.5445 0.5430 0.5415 0.5391
2321.710636 0.5361 0.5350 0.5350 0.5356 0.5366
2328.093641 0.5370 0.5370 0.5376 0.5386 0.5396
2334.476646 0.5406 0.5410 0.5410 0.5413 0.5418
2340.859651 0.5426 0.5436 0.5440 0.5440 0.5440
2347.242656 0.5440 0.5446 0.5456 0.5460 0.5460
2353.625661 0.5463 0.5468 0.5470 0.5470 0.5470
2360.008666 0.5470 0.5467 0.5462 0.5460 0.5460
2366.391671 0.5460 0.5460 0.5454 0.5444 0.5440
2372.774676 0.5440 0.5440 0.5440 0.5440 0.5440
2379.157681 0.5434 0.5424 0.5417 0.5412 0.5404
2385.540686 0.5394 0.5379 0.5359 0.5336 0.5311
2391.923691 0.5286 0.5261 0.5250 0.5250 0.5245
2398.306696 0.5235 0.5225 0.5215 0.5202 0.5187
2404.689701 0.5180 0.5180 0.5169 0.5149 0.5137
2411.072706 0.5132 0.5125 0.5115 0.5105 0.5095
2417.455711 0.5085 0.5075 0.5075 0.5085 0.5095
2423.838716 0.5105 0.5118 0.5133 0.5158 0.5193
2430.221721 0.5220 0.5240 0.5263 0.5288 0.5305
2436.604726 0.5315 0.5328 0.5343 0.5355 0.5365
2442.987731 0.5380 0.5400 0.5410 0.5410 0.5410
2449.370736 0.5410 0.5405 0.5395 0.5390 0.5390
2455.753741 0.5395 0.5405 0.5410 0.5410 0.5400
2462.136746 0.5380 0.5365 0.5355 0.5350 0.5350
2468.519751 0.5360 0.5379 0.5395 0.5405 0.5422
2474.902756 0.5447 0.5460 0.5460 0.5435 0.5380
2481.285761 0.5339 0.5314 0.5295 0.5285 0.5278
2487.668766 0.5273 0.5270 0.5270 0.5277 0.5292
2494.051771 0.5300 0.5300 0.5300 0.5300 0.5300
2500.434776 0.5300 0.5300 0.5300 0.5300 0.5300
2506.817781 0.5296 0.5286 0.5278 0.5273 0.5270
2513.200786 0.5270 0.5270 0.5270 0.5270 0.5270
2519.583791 0.5266 0.5256 0.5246 0.5236 0.5230
2525.966796 0.5230 0.5230 0.5230 0.5230 0.5230
2532.349801 0.5226 0.5216 0.5210 0.5210 0.5200
2538.732806 0.5175 0.5154 0.5139 0.5126 0.5116
2545.115811 0.5102 0.5082 0.5060 0.5035 0.5016
2551.498816 0.5006 0.4987 0.4952 0.4917 0.4882
2557.881821 0.4842 0.4792 0.4747 0.4712 0.4686
2564.264826 0.4676 0.4666 0.4656 0.4641 0.4616
2570.647831 0.4596 0.4586 0.4580 0.4580 0.4578
2577.030836 0.4573 0.4563 0.4543 0.4516 0.4476
2583.413841 0.4428 0.4363 0.4292 0.4206 0.4116
2589.796846 0.4022 0.3941 0.3886 0.3845 0.3830
2596.179851 0.3820 0.3820 0.3820 0.3820 0.3822
2602.562856 0.3827 0.3836 0.3856 0.3875 0.3890
2608.945861 0.3906 0.3926 0.3943 0.3953 0.3960
2615.328866 0.3960 0.3960 0.3960 0.3957 0.3947
2621.711871 0.3937 0.3927 0.3920 0.3920 0.3920
2628.094876 0.3920 0.3926 0.3946 0.3974 0.4024
2634.477881 0.4066 0.4086 0.4092 0.4061 0.4030
2640.860886 0.3995 0.3969 0.3964 0.3960 0.3960
2647.243891 0.3952 0.3922 0.3899 0.3894 0.3890
2653.626896 0.3890 0.3890 0.3890 0.3890 0.3890
2660.009901 0.3890 0.3890 0.3890 0.3890 0.3891
2666.392906 0.3896 0.3900 0.3900 0.3899 0.3894
2672.775911 0.3887 0.3878 0.3861 0.3827 0.3792
2679.158916 0.3757 0.3725 0.3705 0.3684 0.3659
2685.541921 0.3640 0.3640 0.3644 0.3665 0.3681
2691.924926 0.3686 0.3689 0.3684 0.3678 0.3668
2698.307932 0.3650 0.3605 0.3555 0.3485 0.3412
2704.690937 0.3327 0.3256 0.3236 0.3217 0.3202
2711.073942 0.3185 0.3160 0.3138 0.3128 0.3118
2717.456947 0.3108 0.3095 0.3070 0.3041 0.2996
2723.839952 0.2955 0.2930 0.2901 0.2857 0.2806
2730.222957 0.2731 0.2654 0.2564 0.2482 0.2437
2736.605962 0.2400 0.2400 0.2411 0.2476 0.2544
2742.988967 0.2619 0.2705 0.2845 0.2976 0.3071
2749.371972 0.3153 0.3173 0.3192 0.3202 0.3210
2755.754977 0.3210 0.3209 0.3199 0.3189 0.3179
2762.137982 0.3168 0.3153 0.3139 0.3129 0.3116
2768.520987 0.3091 0.3066 0.3036 0.3006 0.2981
2774.903992 0.2955 0.2920 0.2883 0.2833 0.2784
2781.286997 0.2739 0.2695 0.2650 0.2603 0.2543
2787.670002 0.2483 0.2424 0.2359 0.2253 0.2150
2794.053007 0.2070 0.1994 0.1944 0.1891 0.1811
2800.436012 0.1732 0.1663 0.1592 0.1512 0.1433
2806.819017 0.1363 0.1295 0.1245 0.1191 0.1086
2813.202022 0.0987 0.0952 0.0914 0.0833 0.0755
2819.585027 0.0705 0.0658 0.0638 0.0614 0.0544
2825.968032 0.0479 0.0464 0.0445 0.0386 0.0327
2832.351037 0.0282 0.0235 0.0166 0.0098 0.0063
