##TITLE=2-BUTANONE OXIME
##JCAMP-DX=4.24
##DATA TYPE=INFRARED SPECTRUM
##CLASS=COBLENTZ
##ORIGIN=DOW CORNING CORP.
##OWNER=COBLENTZ SOCIETY
Collection (C) 2018 copyright by the U.S. Secretary of Commerce
on behalf of the United States of America. All rights reserved.
##DATE=Not specified, most likely prior to 1970
##NAMES=(2Z)-2-butanone oxime
##CAS REGISTRY NO=96-29-7
##MOLFORM=C4 H9 N O
##SOURCE REFERENCE=COBLENTZ NO. 4838
##$NIST SOURCE=COBLENTZ
##$NIST IMAGE=cob4838
##SPECTROMETER/DATA SYSTEM=PERKIN-ELMER 521 (GRATING)
##INSTRUMENT PARAMETERS=FILTERS AT 3150, 2500, 2000, 1150, 700, 410; GRATING CHANGES AT 2000, 630 CM^-^1
##STATE=SOLUTION (10% IN CCl4 FOR 3800-1300, 10% IN CS2 FOR 1300-650, 10% IN CCl4 FOR 650-250 CM^-^1) VERSUS SOLVENT
##PATH LENGTH=0.012, 0.011, AND 0.010 CM (CsBr CELL)
##SAMPLING PROCEDURE=TRANSMISSION
##RESOLUTION=4
##DATA PROCESSING=DIGITIZED BY NIST FROM HARD COPY (FROM TWO SEGMENTS)
##XUNITS=1/CM
##YUNITS=TRANSMITTANCE
##XFACTOR=1.000000
##YFACTOR=1
##DELTAX=0.983607
##FIRSTX=247.213
##LASTX=3794.1
##FIRSTY=0.748
##MAXX=3794.1
##MINX=247.213
##MAXY=0.912
##MINY=0.01
##NPOINTS=3607
##XYDATA=(X++(Y..Y))
247.213000 0.7480 0.7480 0.7480 0.7480 0.7480
252.131037 0.7480 0.7480 0.7480 0.7480 0.7480
257.049074 0.7480 0.7480 0.7480 0.7480 0.7500
261.967110 0.7500 0.7500 0.7500 0.7480 0.7510
266.885147 0.7510 0.7510 0.7510 0.7510 0.7510
271.803184 0.7510 0.7510 0.7510 0.7510 0.7510
276.721221 0.7510 0.7510 0.7510 0.7510 0.7480
281.639258 0.7480 0.7500 0.7510 0.7500 0.7500
286.557294 0.7500 0.7500 0.7500 0.7500 0.7500
291.475331 0.7500 0.7500 0.7500 0.7500 0.7500
296.393368 0.7500 0.7500 0.7500 0.7500 0.7500
301.311405 0.7500 0.7510 0.7510 0.7510 0.7510
306.229442 0.7510 0.7510 0.7510 0.7510 0.7500
311.147478 0.7500 0.7500 0.7500 0.7500 0.7500
316.065515 0.7480 0.7470 0.7480 0.7500 0.7470
320.983552 0.7470 0.7460 0.7460 0.7440 0.7430
325.901589 0.7400 0.7380 0.7340 0.7310 0.7280
330.819626 0.7260 0.7240 0.7200 0.7180 0.7140
335.737663 0.7110 0.7100 0.7080 0.7080 0.7070
340.655699 0.7060 0.7030 0.7000 0.6990 0.6970
345.573736 0.6960 0.6950 0.6930 0.6910 0.6890
350.491773 0.6880 0.6880 0.6870 0.6850 0.6840
355.409810 0.6830 0.6810 0.6800 0.6770 0.6750
360.327847 0.6710 0.6640 0.6630 0.6610 0.6560
365.245883 0.6530 0.6520 0.6510 0.6510 0.6510
370.163920 0.6490 0.6490 0.6490 0.6510 0.6510
375.081957 0.6520 0.6530 0.6530 0.6550 0.6560
379.999994 0.6570 0.6570 0.6590 0.6600 0.6610
384.918031 0.6630 0.6630 0.6640 0.6640 0.6650
389.836067 0.6670 0.6670 0.6680 0.6680 0.6680
394.754104 0.6680 0.6680 0.6680 0.6680 0.6670
399.672141 0.6670 0.6670 0.6670 0.6650 0.6650
404.590178 0.6650 0.6650 0.6670 0.6670 0.6670
409.508215 0.6680 0.6690 0.6690 0.6690 0.6720
414.426251 0.6720 0.6730 0.6750 0.6770 0.6790
419.344288 0.6810 0.6830 0.6880 0.6950 0.6960
424.262325 0.7020 0.7030 0.7040 0.7060 0.7080
429.180362 0.7100 0.7110 0.7110 0.7140 0.7140
434.098399 0.7150 0.7150 0.7140 0.7140 0.7120
439.016435 0.7110 0.7110 0.7100 0.7080 0.7080
443.934472 0.7040 0.7020 0.7000 0.6970 0.6950
448.852509 0.6890 0.6850 0.6840 0.6830 0.6840
453.770546 0.6850 0.6870 0.6890 0.6930 0.6960
458.688583 0.6990 0.7030 0.7060 0.7080 0.7080
463.606619 0.7100 0.7120 0.7140 0.7190 0.7220
468.524656 0.7230 0.7240 0.7230 0.7220 0.7200
473.442693 0.7190 0.7180 0.7160 0.7150 0.7140
478.360730 0.7120 0.7110 0.7100 0.7100 0.7080
483.278767 0.7070 0.7070 0.7060 0.7060 0.7060
488.196803 0.7070 0.7080 0.7100 0.7120 0.7160
493.114840 0.7180 0.7200 0.7200 0.7230 0.7240
498.032877 0.7240 0.7260 0.7260 0.7270 0.7270
502.950914 0.7270 0.7260 0.7230 0.7200 0.7190
507.868951 0.7180 0.7160 0.7140 0.7120 0.7080
512.786988 0.7060 0.7020 0.6970 0.6920 0.6840
517.705024 0.6790 0.6730 0.6670 0.6590 0.6530
522.623061 0.6460 0.6440 0.6420 0.6440 0.6450
527.541098 0.6480 0.6530 0.6590 0.6670 0.6760
532.459135 0.6850 0.6950 0.7020 0.7060 0.7070
537.377172 0.7100 0.7120 0.7160 0.7180 0.7180
542.295208 0.7160 0.7150 0.7140 0.7120 0.7120
547.213245 0.7120 0.7110 0.7100 0.7100 0.7100
552.131282 0.7080 0.7080 0.7070 0.7070 0.7060
557.049319 0.7060 0.7060 0.7040 0.7030 0.7020
561.967356 0.7000 0.6990 0.6970 0.6950 0.6930
566.885392 0.6910 0.6890 0.6880 0.6870 0.6830
571.803429 0.6790 0.6770 0.6760 0.6730 0.6690
576.721466 0.6640 0.6590 0.6530 0.6480 0.6420
581.639503 0.6380 0.6360 0.6330 0.6280 0.6220
586.557540 0.6200 0.6170 0.6160 0.6140 0.6090
591.475576 0.6060 0.5910 0.5890 0.5710 0.5630
596.393613 0.5470 0.5440 0.5340 0.5201 0.5071
601.311650 0.4930 0.4840 0.4770 0.4710 0.4560
606.229687 0.4380 0.4250 0.4220 0.4220 0.4240
611.147724 0.4340 0.4410 0.4480 0.4530 0.4650
616.065760 0.4929 0.5079 0.5190 0.5270 0.5399
620.983797 0.5530 0.5630 0.5700 0.5810 0.5870
625.901834 0.5900 0.5930 0.5950 0.5950 0.5980
630.819871 0.6000 0.6010 0.6020 0.6020 0.6040
635.737908 0.6040 0.6040 0.6050 0.6050 0.6050
640.655944 0.6050 0.6040 0.6040 0.6040 0.6020
645.573981 0.6010 0.6000 0.5980 0.5970 0.5910
650.492018 0.5870 0.5850 0.5820 0.5790 0.5770
655.410055 0.5750 0.5750 0.5740 0.5740 0.5730
660.328092 0.5730 0.5710 0.5700 0.5670 0.5670
665.246129 0.5660 0.5660 0.5660 0.5650 0.5650
670.164165 0.5650 0.5630 0.5630 0.5620 0.5620
675.082202 0.5620 0.5610 0.5610 0.5610 0.5590
680.000239 0.5550 0.5430 0.5420 0.5380 0.5360
684.918276 0.5340 0.5320 0.5310 0.5310 0.5280
689.836313 0.5240 0.5200 0.5150 0.5110 0.5060
694.754349 0.5030 0.5020 0.5000 0.5000 0.4960
699.672386 0.4910 0.4880 0.4840 0.4810 0.4790
704.590423 0.4760 0.4720 0.4710 0.4680 0.4650
709.508460 0.4630 0.4600 0.4590 0.4560 0.4510
714.426497 0.4480 0.4420 0.4360 0.4300 0.4250
719.344533 0.4200 0.4160 0.4120 0.4080 0.4040
724.262570 0.4010 0.4000 0.3970 0.3940 0.3900
729.180607 0.3870 0.3850 0.3820 0.3790 0.3770
734.098644 0.3750 0.3730 0.3730 0.3710 0.3710
739.016681 0.3700 0.3690 0.3690 0.3690 0.3690
743.934717 0.3690 0.3700 0.3700 0.3700 0.3700
748.852754 0.3730 0.3730 0.3740 0.3770 0.3780
753.770791 0.3790 0.3810 0.3830 0.3850 0.3860
758.688828 0.3870 0.3870 0.3870 0.3890 0.3890
763.606865 0.3890 0.3870 0.3860 0.3830 0.3820
768.524901 0.3790 0.3770 0.3750 0.3750 0.3770
773.442938 0.3790 0.3949 0.3980 0.4050 0.4090
778.360975 0.4120 0.4140 0.4120 0.4100 0.4040
783.279012 0.3910 0.3900 0.3900 0.3940 0.4039
788.197049 0.4060 0.4120 0.4210 0.4240 0.4240
793.115085 0.4200 0.4140 0.4090 0.4010 0.3930
798.033122 0.3830 0.3750 0.3540 0.3510 0.3540
802.951159 0.3889 0.4239 0.4519 0.4689 0.5148
807.869196 0.5440 0.5550 0.5660 0.5820 0.5910
812.787233 0.6000 0.6080 0.6120 0.6170 0.6260
817.705269 0.6330 0.6450 0.6480 0.6530 0.6570
822.623306 0.6610 0.6630 0.6650 0.6670 0.6710
827.541343 0.6750 0.6790 0.6810 0.6840 0.6880
832.459380 0.6890 0.6920 0.6930 0.6960 0.7060
837.377417 0.7100 0.7140 0.7150 0.7190 0.7220
842.295454 0.7230 0.7230 0.7240 0.7260 0.7260
847.213490 0.7270 0.7270 0.7270 0.7270 0.7270
852.131527 0.7270 0.7270 0.7270 0.7270 0.7260
857.049564 0.7260 0.7240 0.7240 0.7240 0.7230
861.967601 0.7230 0.7230 0.7230 0.7220 0.7200
866.885638 0.7190 0.7160 0.7140 0.7120 0.7100
871.803674 0.7100 0.7080 0.7080 0.7070 0.7060
876.721711 0.7040 0.7040 0.7030 0.7000 0.6970
881.639748 0.6930 0.6890 0.6870 0.6830 0.6770
886.557785 0.6730 0.6690 0.6650 0.6550 0.6460
891.475822 0.6360 0.6260 0.6130 0.6050 0.5901
896.393858 0.5750 0.5400 0.5200 0.4970 0.4720
901.311895 0.4441 0.4091 0.3821 0.3651 0.3610
906.229932 0.3480 0.3360 0.3240 0.3020 0.2790
911.147969 0.2640 0.2460 0.2291 0.2170 0.2100
916.066006 0.1980 0.1860 0.1670 0.1141 0.0970
920.984042 0.0870 0.0840 0.0810 0.0800 0.0800
925.902079 0.0790 0.0790 0.0790 0.0790 0.0800
930.820116 0.0810 0.0840 0.0870 0.0950 0.0990
935.738153 0.1030 0.1070 0.1160 0.1320 0.1649
940.656190 0.2159 0.2509 0.2689 0.3038 0.3309
945.574226 0.3630 0.3780 0.3900 0.4020 0.4170
950.492263 0.4280 0.4320 0.4410 0.4460 0.4460
955.410300 0.4440 0.4440 0.4400 0.4300 0.4220
960.328337 0.4180 0.4060 0.3911 0.3771 0.3591
965.246374 0.3440 0.3280 0.3070 0.2890 0.2561
970.164410 0.2211 0.1861 0.1830 0.1830 0.1820
975.082447 0.1820 0.1820 0.1830 0.1870 0.1930
980.000484 0.2130 0.2290 0.2320 0.2370 0.2400
984.918521 0.2460 0.2640 0.2750 0.2840 0.2960
989.836558 0.3160 0.3479 0.3570 0.3670 0.3819
994.754595 0.4020 0.4180 0.4280 0.4330 0.4340
999.672631 0.4370 0.4380 0.4380 0.4400 0.4410
1004.590668 0.4410 0.4410 0.4420 0.4510 0.4600
1009.508705 0.4879 0.5109 0.5379 0.5460 0.5629
1014.426742 0.5790 0.6100 0.6340 0.6450 0.6550
1019.344779 0.6640 0.6790 0.6969 0.7109 0.7200
1024.262815 0.7220 0.7230 0.7260 0.7360 0.7570
1029.180852 0.7580 0.7610 0.7630 0.7660 0.7690
1034.098889 0.7700 0.7710 0.7710 0.7710 0.7730
1039.016926 0.7730 0.7710 0.7700 0.7690 0.7670
1043.934963 0.7660 0.7630 0.7620 0.7610 0.7580
1048.852999 0.7540 0.7470 0.7440 0.7430 0.7400
1053.771036 0.7340 0.7140 0.7070 0.7040 0.6970
1058.689073 0.6920 0.6810 0.6690 0.6521 0.6321
1063.607110 0.6050 0.5850 0.5281 0.4881 0.4401
1068.525147 0.4041 0.3512 0.3470 0.3510 0.3629
1073.443183 0.3790 0.3940 0.4589 0.5389 0.5480
1078.361220 0.5500 0.5500 0.5500 0.5470 0.5420
1083.279257 0.5320 0.5260 0.5060 0.4960 0.4790
1088.197294 0.4571 0.4341 0.4141 0.3981 0.3861
1093.115331 0.3810 0.3790 0.3810 0.3850 0.3890
1098.033367 0.4179 0.4569 0.5098 0.5618 0.5948
1102.951404 0.6460 0.6790 0.7020 0.7190 0.7380
1107.869441 0.7629 0.7859 0.8039 0.8160 0.8200
1112.787478 0.8250 0.8280 0.8320 0.8330 0.8360
1117.705515 0.8380 0.8420 0.8450 0.8490 0.8520
1122.623551 0.8550 0.8560 0.8570 0.8590 0.8600
1127.541588 0.8600 0.8610 0.8610 0.8610 0.8610
1132.459625 0.8610 0.8630 0.8630 0.8640 0.8640
1137.377662 0.8640 0.8650 0.8650 0.8650 0.8670
1142.295699 0.8670 0.8670 0.8680 0.8680 0.8680
1147.213736 0.8680 0.8680 0.8680 0.8670 0.8670
1152.131772 0.8670 0.8670 0.8650 0.8650 0.8640
1157.049809 0.8640 0.8630 0.8630 0.8610 0.8610
1161.967846 0.8570 0.8560 0.8550 0.8520 0.8510
1166.885883 0.8480 0.8460 0.8450 0.8440 0.8410
1171.803920 0.8400 0.8380 0.8380 0.8370 0.8370
1176.721956 0.8360 0.8340 0.8330 0.8300 0.8280
1181.639993 0.8260 0.8240 0.8240 0.8210 0.8180
1186.558030 0.8160 0.8140 0.8140 0.8130 0.8120
1191.476067 0.8060 0.7970 0.7910 0.7810 0.7770
1196.394104 0.7750 0.7700 0.7660 0.7590 0.7500
1201.312140 0.7340 0.7190 0.7080 0.6990 0.6920
1206.230177 0.6840 0.6760 0.6670 0.6560 0.6421
1211.148214 0.6260 0.6050 0.5710 0.5400 0.5340
1216.066251 0.5300 0.5280 0.5300 0.5469 0.5530
1220.984288 0.5570 0.5700 0.5850 0.5850 0.5820
1225.902324 0.5810 0.5750 0.5690 0.5660 0.5630
1230.820361 0.5400 0.5310 0.5240 0.5200 0.5000
1235.738398 0.4810 0.4680 0.4570 0.4520 0.4510
1240.656435 0.4550 0.5070 0.5400 0.5740 0.6089
1245.574472 0.6479 0.6729 0.6850 0.6880 0.6890
1250.492508 0.6880 0.6850 0.6830 0.6800 0.6770
1255.410545 0.6720 0.6650 0.6630 0.6570 0.6510
1260.328582 0.6400 0.6300 0.6200 0.6130 0.6080
1265.246619 0.6050 0.6040 0.6040 0.6020 0.6020
1270.164656 0.6040 0.6080 0.6160 0.6260 0.6300
1275.082692 0.6340 0.6549 0.6849 0.7069 0.7140
1280.000729 0.7200 0.7240 0.7270 0.7270 0.7280
1284.918766 0.7280 0.7280 0.7300 0.7300 0.7300
1289.836803 0.7300 0.7280 0.7270 0.7270 0.7270
1294.754840 0.7260 0.7260 0.7240 0.7230 0.7220
1299.672876 0.7180 0.7000 0.6870 0.6760 0.6670
1304.590913 0.6600 0.6550 0.6450 0.6320 0.6181
1309.508950 0.6050 0.5950 0.5870 0.5820 0.5810
1314.426987 0.5790 0.5770 0.5700 0.5381 0.5340
1319.345024 0.5270 0.5190 0.5120 0.5070 0.5060
1324.263061 0.5040 0.5060 0.5140 0.5270 0.5350
1329.181097 0.5460 0.5510 0.5570 0.5670 0.5780
1334.099134 0.5860 0.5870 0.5870 0.5870 0.5860
1339.017171 0.5820 0.5790 0.5770 0.5750 0.5470
1343.935208 0.5400 0.5360 0.5280 0.5200 0.5140
1348.853245 0.5060 0.4990 0.4930 0.4870 0.4810
1353.771281 0.4750 0.4610 0.4530 0.4490 0.4420
1358.689318 0.4320 0.4120 0.3820 0.3221 0.2142
1363.607355 0.1980 0.1781 0.1591 0.1391 0.1390
1368.525392 0.1500 0.1630 0.1980 0.2020 0.2040
1373.443429 0.2040 0.2020 0.2010 0.2000 0.2010
1378.361465 0.2040 0.2320 0.2770 0.3189 0.3320
1383.279502 0.3589 0.3939 0.4169 0.4220 0.4280
1388.197539 0.4300 0.4300 0.4300 0.4300 0.4300
1393.115576 0.4290 0.4260 0.4220 0.4180 0.4130
1398.033613 0.4060 0.4000 0.3940 0.3870 0.3820
1402.951649 0.3780 0.3750 0.3740 0.3650 0.3550
1407.869686 0.3500 0.3430 0.3380 0.3310 0.3240
1412.787723 0.3190 0.3150 0.3070 0.2950 0.2721
1417.705760 0.2630 0.2560 0.2490 0.2420 0.2360
1422.623797 0.2300 0.2220 0.2140 0.2040 0.2000
1427.541833 0.1980 0.1970 0.1940 0.1900 0.1870
1432.459870 0.1860 0.1860 0.1850 0.1820 0.1810
1437.377907 0.1770 0.1740 0.1710 0.1670 0.1660
1442.295944 0.1630 0.1620 0.1610 0.1580 0.1550
1447.213981 0.1440 0.1320 0.1230 0.1150 0.0970
1452.132017 0.0920 0.0890 0.0880 0.0870 0.0870
1457.050054 0.0870 0.0880 0.0960 0.1020 0.1060
1461.968091 0.1200 0.1300 0.1470 0.1659 0.1939
1466.886128 0.2250 0.2560 0.2710 0.2890 0.3030
1471.804165 0.3140 0.3160 0.3180 0.3200 0.3339
1476.722202 0.3420 0.3480 0.3510 0.3550 0.3590
1481.640238 0.3660 0.3750 0.3850 0.4000 0.4090
1486.558275 0.4140 0.4220 0.4320 0.4410 0.4510
1491.476312 0.4610 0.4690 0.4770 0.4830 0.4920
1496.394349 0.4990 0.5150 0.5280 0.5420 0.5470
1501.312386 0.5530 0.5620 0.5710 0.5780 0.5860
1506.230422 0.5910 0.5970 0.6000 0.6040 0.6050
1511.148459 0.6140 0.6250 0.6280 0.6300 0.6340
1516.066496 0.6360 0.6410 0.6450 0.6460 0.6510
1520.984533 0.6570 0.6610 0.6640 0.6650 0.6690
1525.902570 0.6770 0.6830 0.6880 0.6910 0.6920
1530.820606 0.6930 0.6960 0.6970 0.6990 0.7000
1535.738643 0.7020 0.7030 0.7040 0.7040 0.7040
1540.656680 0.7060 0.7060 0.7070 0.7070 0.7080
1545.574717 0.7100 0.7120 0.7140 0.7160 0.7190
1550.492754 0.7220 0.7240 0.7260 0.7280 0.7310
1555.410790 0.7340 0.7350 0.7360 0.7380 0.7390
1560.328827 0.7390 0.7400 0.7400 0.7420 0.7420
1565.246864 0.7420 0.7430 0.7430 0.7440 0.7440
1570.164901 0.7460 0.7460 0.7460 0.7460 0.7460
1575.082938 0.7460 0.7460 0.7460 0.7460 0.7460
1580.000974 0.7460 0.7460 0.7460 0.7460 0.7470
1584.919011 0.7470 0.7470 0.7470 0.7470 0.7470
1589.837048 0.7480 0.7480 0.7480 0.7480 0.7480
1594.755085 0.7480 0.7480 0.7480 0.7480 0.7480
1599.673122 0.7480 0.7480 0.7480 0.7480 0.7480
1604.591158 0.7480 0.7480 0.7480 0.7480 0.7480
1609.509195 0.7480 0.7480 0.7480 0.7480 0.7480
1614.427232 0.7480 0.7480 0.7480 0.7480 0.7480
1619.345269 0.7480 0.7480 0.7480 0.7480 0.7480
1624.263306 0.7480 0.7480 0.7480 0.7480 0.7480
1629.181342 0.7470 0.7470 0.7460 0.7460 0.7440
1634.099379 0.7440 0.7430 0.7420 0.7390 0.7360
1639.017416 0.7340 0.7310 0.7280 0.7270 0.7260
1643.935453 0.7220 0.7200 0.7190 0.7120 0.6990
1648.853490 0.6920 0.6800 0.6650 0.6451 0.6241
1653.771527 0.6080 0.5900 0.5740 0.5380 0.5190
1658.689563 0.5000 0.4801 0.4571 0.4460 0.4450
1663.607600 0.4440 0.4450 0.4460 0.4530 0.4640
1668.525637 0.4750 0.4989 0.5309 0.5479 0.5649
1673.443674 0.5970 0.6170 0.6290 0.6480 0.6680
1678.361711 0.6929 0.7189 0.7479 0.7769 0.7889
1683.279747 0.7910 0.8060 0.8200 0.8250 0.8290
1688.197784 0.8320 0.8330 0.8340 0.8370 0.8400
1693.115821 0.8400 0.8410 0.8410 0.8420 0.8420
1698.033858 0.8440 0.8440 0.8440 0.8440 0.8440
1702.951895 0.8440 0.8440 0.8450 0.8450 0.8450
1707.869931 0.8450 0.8460 0.8460 0.8480 0.8480
1712.787968 0.8490 0.8490 0.8510 0.8510 0.8520
1717.706005 0.8520 0.8530 0.8550 0.8560 0.8570
1722.624042 0.8590 0.8600 0.8610 0.8630 0.8640
1727.542079 0.8670 0.8690 0.8710 0.8710 0.8720
1732.460115 0.8720 0.8720 0.8720 0.8730 0.8730
1737.378152 0.8730 0.8730 0.8750 0.8750 0.8750
1742.296189 0.8750 0.8750 0.8750 0.8750 0.8750
1747.214226 0.8750 0.8750 0.8750 0.8750 0.8760
1752.132263 0.8760 0.8760 0.8760 0.8760 0.8760
1757.050299 0.8760 0.8760 0.8760 0.8760 0.8760
1761.968336 0.8760 0.8760 0.8760 0.8760 0.8760
1766.886373 0.8760 0.8760 0.8760 0.8760 0.8760
1771.804410 0.8760 0.8760 0.8760 0.8760 0.8760
1776.722447 0.8760 0.8760 0.8760 0.8760 0.8760
1781.640483 0.8760 0.8760 0.8760 0.8760 0.8760
1786.558520 0.8760 0.8760 0.8760 0.8760 0.8760
1791.476557 0.8760 0.8760 0.8760 0.8760 0.8760
1796.394594 0.8760 0.8760 0.8760 0.8760 0.8760
1801.312631 0.8760 0.8760 0.8760 0.8760 0.8760
1806.230668 0.8760 0.8760 0.8760 0.8770 0.8770
1811.148704 0.8770 0.8770 0.8760 0.8760 0.8760
1816.066741 0.8760 0.8760 0.8760 0.8760 0.8760
1820.984778 0.8760 0.8760 0.8770 0.8770 0.8770
1825.902815 0.8770 0.8770 0.8770 0.8770 0.8770
1830.820852 0.8770 0.8770 0.8770 0.8770 0.8770
1835.738888 0.8770 0.8770 0.8770 0.8770 0.8770
1840.656925 0.8770 0.8770 0.8770 0.8770 0.8770
1845.574962 0.8770 0.8770 0.8770 0.8770 0.8770
1850.492999 0.8770 0.8770 0.8770 0.8770 0.8790
1855.411036 0.8790 0.8790 0.8790 0.8790 0.8790
1860.329072 0.8800 0.8800 0.8800 0.8800 0.8800
1865.247109 0.8800 0.8800 0.8800 0.8800 0.8800
1870.165146 0.8800 0.8810 0.8810 0.8830 0.8830
1875.083183 0.8840 0.8840 0.8850 0.8850 0.8850
1880.001220 0.8870 0.8870 0.8870 0.8870 0.8870
1884.919256 0.8880 0.8880 0.8880 0.8880 0.8880
1889.837293 0.8890 0.8890 0.8890 0.8890 0.8890
1894.755330 0.8910 0.8910 0.8910 0.8920 0.8920
1899.673367 0.8920 0.8930 0.8930 0.8950 0.8950
1904.591404 0.8950 0.8960 0.8960 0.8970 0.8970
1909.509440 0.8970 0.8990 0.8990 0.8990 0.8990
1914.427477 0.8990 0.9000 0.9000 0.9000 0.9000
1919.345514 0.9020 0.9020 0.9020 0.9030 0.9030
1924.263551 0.9030 0.9030 0.9040 0.9040 0.9040
1929.181588 0.9040 0.9040 0.9040 0.9060 0.9060
1934.099624 0.9060 0.9060 0.9060 0.9070 0.9070
1939.017661 0.9070 0.9070 0.9070 0.9070 0.9080
1943.935698 0.9080 0.9080 0.9080 0.9080 0.9080
1948.853735 0.9100 0.9100 0.9100 0.9100 0.9100
1953.771772 0.9100 0.9100 0.9100 0.9100 0.9100
1958.689808 0.9100 0.9100 0.9100 0.9100 0.9100
1963.607845 0.9100 0.9100 0.9100 0.9100 0.9100
1968.525882 0.9110 0.9110 0.9110 0.9110 0.9110
1973.443919 0.9110 0.9110 0.9110 0.9110 0.9110
1978.361956 0.9110 0.9110 0.9110 0.9110 0.9110
1983.279993 0.9110 0.9110 0.9110 0.9110 0.9110
1988.198029 0.9120 0.9120 0.9120 0.9120 0.9120
1993.116066 0.9120 0.9120 0.9120 0.9120 0.9120
1998.034103 0.9120 0.9120 0.9120 0.9120 0.9120
2002.952140 0.9120 0.9120 0.9120 0.9120 0.9120
2007.870177 0.9120 0.9120 0.9120 0.9120 0.9120
2012.788213 0.9120 0.9120 0.9120 0.9120 0.9120
2017.706250 0.9120 0.9120 0.9120 0.9115 0.9110
2022.624287 0.9110 0.9110 0.9110 0.9110 0.9110
2027.542324 0.9110 0.9110 0.9110 0.9110 0.9110
2032.460361 0.9110 0.9110 0.9110 0.9110 0.9110
2037.378397 0.9110 0.9105 0.9100 0.9100 0.9100
2042.296434 0.9100 0.9100 0.9100 0.9100 0.9100
2047.214471 0.9100 0.9100 0.9100 0.9100 0.9100
2052.132508 0.9090 0.9080 0.9080 0.9080 0.9080
2057.050545 0.9080 0.9080 0.9080 0.9080 0.9080
2061.968581 0.9080 0.9080 0.9075 0.9070 0.9070
2066.886618 0.9070 0.9070 0.9070 0.9070 0.9070
2071.804655 0.9070 0.9070 0.9070 0.9070 0.9070
2076.722692 0.9070 0.9075 0.9080 0.9080 0.9080
2081.640729 0.9080 0.9080 0.9080 0.9080 0.9080
2086.558765 0.9080 0.9080 0.9080 0.9080 0.9080
2091.476802 0.9080 0.9080 0.9090 0.9100 0.9100
2096.394839 0.9100 0.9090 0.9080 0.9080 0.9080
2101.312876 0.9080 0.9080 0.9080 0.9080 0.9090
2106.230913 0.9100 0.9100 0.9100 0.9100 0.9100
2111.148949 0.9100 0.9100 0.9105 0.9110 0.9110
2116.066986 0.9110 0.9110 0.9110 0.9110 0.9110
2120.985023 0.9110 0.9110 0.9110 0.9110 0.9110
2125.903060 0.9110 0.9110 0.9110 0.9110 0.9110
2130.821097 0.9105 0.9100 0.9100 0.9100 0.9100
2135.739134 0.9100 0.9090 0.9080 0.9080 0.9080
2140.657170 0.9080 0.9080 0.9075 0.9070 0.9070
2145.575207 0.9070 0.9065 0.9060 0.9060 0.9060
2150.493244 0.9050 0.9040 0.9040 0.9040 0.9040
2155.411281 0.9040 0.9040 0.9040 0.9040 0.9040
2160.329318 0.9040 0.9040 0.9040 0.9040 0.9040
2165.247354 0.9040 0.9040 0.9040 0.9040 0.9040
2170.165391 0.9040 0.9040 0.9040 0.9040 0.9040
2175.083428 0.9040 0.9040 0.9040 0.9040 0.9040
2180.001465 0.9040 0.9040 0.9040 0.9040 0.9035
2184.919502 0.9030 0.9030 0.9030 0.9030 0.9030
2189.837538 0.9025 0.9020 0.9020 0.9020 0.9020
2194.755575 0.9020 0.9010 0.9000 0.8995 0.8990
2199.673612 0.8990 0.8990 0.8980 0.8970 0.8970
2204.591649 0.8970 0.8965 0.8960 0.8960 0.8960
2209.509686 0.8955 0.8950 0.8950 0.8950 0.8950
2214.427722 0.8950 0.8950 0.8950 0.8950 0.8950
2219.345759 0.8950 0.8950 0.8950 0.8950 0.8950
2224.263796 0.8950 0.8940 0.8930 0.8930 0.8930
2229.181833 0.8930 0.8930 0.8930 0.8930 0.8930
