##TITLE=ACETIC ACID, CHLORO-, METHYL ESTER
##JCAMP-DX=4.24
##DATA TYPE=INFRARED SPECTRUM
##CLASS=COBLENTZ III
##ORIGIN=DOW CORNING CORP.
##OWNER=COBLENTZ SOCIETY
Collection (C) 2018 copyright by the U.S. Secretary of Commerce
on behalf of the United States of America. All rights reserved.
##DATE=1966/09/13
##NAMES=methyl chloroacetate
##CAS REGISTRY NO=96-34-4
##MOLFORM=C3 H5 Cl O2
##SOURCE REFERENCE=COBLENTZ NO. 4803
##$NIST SOURCE=COBLENTZ
##$NIST IMAGE=cob4803
##SPECTROMETER/DATA SYSTEM=PERKIN-ELMER 521 (GRATING)
##INSTRUMENT PARAMETERS=FILTERS AT 3150, 2500, 2000, 1150, 700, 410; GRATING CHANGES AT 2000, 630 CM^-^1
##STATE=SOLUTION (10% IN CCl4 FOR 3800-1300, 10% IN CS2 FOR 1300-650, 10% IN CCl4 FOR 650-230 CM^-^1) VERSUS SOLVENT
##PATH LENGTH=0.011, 0.010, AND 0.010 CM (CsBr CELL)
$$ 95% PURE
##SAMPLING PROCEDURE=TRANSMISSION
##RESOLUTION=4
##DATA PROCESSING=DIGITIZED BY NIST FROM HARD COPY (FROM TWO SEGMENTS)
##XUNITS=1/CM
##YUNITS=TRANSMITTANCE
##XFACTOR=1.000000
##YFACTOR=1
##DELTAX=0.985761
##FIRSTX=215.772
##LASTX=3790.14
##FIRSTY=0.788
##MAXX=3790.14
##MINX=215.772
##MAXY=0.90095
##MINY=0.009
##NPOINTS=3627
##XYDATA=(X++(Y..Y))
215.772000 0.7880 0.7880 0.7880 0.7880 0.7840
220.700807 0.7830 0.7820 0.7800 0.7790 0.7780
225.629613 0.7760 0.7750 0.7740 0.7720 0.7680
230.558420 0.7670 0.7660 0.7640 0.7620 0.7600
235.487227 0.7590 0.7560 0.7550 0.7540 0.7540
240.416033 0.7520 0.7510 0.7510 0.7500 0.7500
245.344840 0.7480 0.7470 0.7470 0.7440 0.7410
250.273646 0.7390 0.7370 0.7370 0.7360 0.7350
255.202453 0.7330 0.7330 0.7320 0.7310 0.7310
260.131260 0.7290 0.7280 0.7270 0.7270 0.7270
265.060066 0.7250 0.7250 0.7250 0.7240 0.7240
269.988873 0.7230 0.7230 0.7210 0.7200 0.7200
274.917680 0.7190 0.7190 0.7170 0.7170 0.7160
279.846486 0.7150 0.7130 0.7120 0.7120 0.7110
284.775293 0.7110 0.7090 0.7090 0.7080 0.7080
289.704099 0.7070 0.7070 0.7050 0.7050 0.7040
294.632906 0.7030 0.7010 0.7000 0.6990 0.6990
299.561713 0.6970 0.6970 0.6960 0.6960 0.6950
304.490519 0.6950 0.6950 0.6930 0.6930 0.6920
309.419326 0.6920 0.6920 0.6920 0.6930 0.6950
314.348133 0.6970 0.7000 0.7030 0.7070 0.7120
319.276939 0.7240 0.7310 0.7330 0.7370 0.7410
324.205746 0.7450 0.7540 0.7560 0.7590 0.7630
329.134552 0.7670 0.7700 0.7720 0.7740 0.7760
334.063359 0.7820 0.7860 0.7870 0.7900 0.7910
338.992166 0.7920 0.7940 0.7950 0.7950 0.7960
343.920972 0.7960 0.7960 0.7960 0.7960 0.7960
348.849779 0.7960 0.7950 0.7950 0.7950 0.7940
353.778586 0.7940 0.7940 0.7940 0.7940 0.7940
358.707392 0.7940 0.7940 0.7940 0.7920 0.7920
363.636199 0.7920 0.7910 0.7910 0.7910 0.7900
368.565006 0.7900 0.7900 0.7880 0.7880 0.7880
373.493812 0.7870 0.7860 0.7860 0.7840 0.7830
378.422619 0.7790 0.7750 0.7720 0.7710 0.7670
383.351425 0.7630 0.7590 0.7540 0.7400 0.7350
388.280232 0.7210 0.7081 0.7000 0.6920 0.6840
393.209039 0.6770 0.6690 0.6600 0.6590 0.6600
398.137845 0.6770 0.6790 0.6999 0.7080 0.7160
403.066652 0.7280 0.7390 0.7400 0.7410 0.7430
407.995459 0.7430 0.7410 0.7400 0.7360 0.7241
412.924265 0.7160 0.7080 0.7040 0.6970 0.6910
417.853072 0.6840 0.6840 0.6890 0.6950 0.7089
422.781878 0.7190 0.7210 0.7390 0.7550 0.7600
427.710685 0.7620 0.7640 0.7660 0.7670 0.7670
432.639492 0.7680 0.7680 0.7680 0.7680 0.7680
437.568298 0.7670 0.7670 0.7680 0.7680 0.7700
442.497105 0.7710 0.7720 0.7720 0.7740 0.7720
447.425912 0.7740 0.7750 0.7750 0.7760 0.7750
452.354718 0.7750 0.7740 0.7750 0.7750 0.7750
457.283525 0.7750 0.7760 0.7750 0.7760 0.7760
462.212331 0.7760 0.7780 0.7790 0.7800 0.7800
467.141138 0.7820 0.7820 0.7800 0.7790 0.7780
472.069945 0.7760 0.7750 0.7740 0.7620 0.7510
476.998751 0.7480 0.7480 0.7510 0.7629 0.7720
481.927558 0.7790 0.7910 0.7940 0.7960 0.7960
486.856365 0.7960 0.7980 0.7980 0.7990 0.8000
491.785171 0.8000 0.8000 0.8030 0.8040 0.8040
496.713978 0.8060 0.8100 0.8110 0.8120 0.8140
501.642785 0.8150 0.8150 0.8150 0.8160 0.8180
506.571591 0.8200 0.8220 0.8240 0.8270 0.8280
511.500398 0.8300 0.8320 0.8340 0.8350 0.8360
516.429204 0.8360 0.8380 0.8390 0.8390 0.8390
521.358011 0.8400 0.8400 0.8420 0.8420 0.8400
526.286818 0.8400 0.8400 0.8400 0.8390 0.8380
531.215624 0.8380 0.8360 0.8360 0.8360 0.8340
536.144431 0.8340 0.8320 0.8310 0.8300 0.8300
541.073238 0.8280 0.8280 0.8270 0.8270 0.8260
546.002044 0.8230 0.8220 0.8200 0.8160 0.8120
550.930851 0.8100 0.8040 0.8020 0.7950 0.7940
555.859657 0.7840 0.7790 0.7760 0.7631 0.7481
560.788464 0.7320 0.7210 0.7030 0.6870 0.6681
565.717271 0.6521 0.6490 0.6520 0.6570 0.6630
570.646077 0.6680 0.6750 0.6810 0.6850 0.6870
575.574884 0.6880 0.6890 0.6920 0.6930 0.6930
580.503691 0.6960 0.6970 0.6970 0.6990 0.7000
585.432497 0.7030 0.7070 0.7080 0.7130 0.7190
590.361304 0.7270 0.7370 0.7390 0.7440 0.7550
595.290110 0.7590 0.7620 0.7630 0.7660 0.7720
600.218917 0.7760 0.7760 0.7780 0.7790 0.7800
605.147724 0.7800 0.7800 0.7820 0.7830 0.7840
610.076530 0.7870 0.7870 0.7880 0.7900 0.7910
615.005337 0.7940 0.7940 0.7950 0.7980 0.7990
619.934144 0.8020 0.8200 0.8220 0.8220 0.8220
624.862950 0.8220 0.8220 0.8200 0.8200 0.8190
629.791757 0.8190 0.8180 0.8180 0.8160 0.8150
634.720564 0.8150 0.8140 0.8140 0.8140 0.8120
639.649370 0.8120 0.8110 0.8110 0.8110 0.8110
644.578177 0.8100 0.8100 0.8100 0.8100 0.8070
649.506983 0.8040 0.7990 0.7980 0.7950 0.7950
654.435790 0.7940 0.7940 0.7920 0.7920 0.7920
659.364597 0.7920 0.7920 0.7910 0.7910 0.7910
664.293403 0.7900 0.7900 0.7870 0.7830 0.7800
669.222210 0.7780 0.7760 0.7740 0.7740 0.7720
674.151017 0.7710 0.7700 0.7670 0.7620 0.7550
679.079823 0.7450 0.7350 0.7230 0.7110 0.7080
684.008630 0.6990 0.6870 0.6810 0.6790 0.6790
688.937436 0.6760 0.6760 0.6750 0.6750 0.6730
693.866243 0.6730 0.6730 0.6730 0.6720 0.6720
698.795050 0.6720 0.6710 0.6680 0.6650 0.6650
703.723856 0.6640 0.6640 0.6650 0.6680 0.6710
708.652663 0.6730 0.6760 0.6880 0.6890 0.6920
713.581470 0.6950 0.7040 0.7090 0.7229 0.7280
718.510276 0.7350 0.7440 0.7560 0.7630 0.7700
723.439083 0.7710 0.7750 0.7790 0.7860 0.7940
728.367890 0.7950 0.8000 0.8070 0.8080 0.8100
733.296696 0.8120 0.8150 0.8150 0.8160 0.8180
738.225503 0.8180 0.8190 0.8190 0.8190 0.8180
743.154309 0.8180 0.8160 0.8140 0.8110 0.8100
748.083116 0.8070 0.8060 0.8030 0.8020 0.7990
753.011923 0.7980 0.7960 0.7950 0.7940 0.7920
757.940729 0.7910 0.7900 0.7800 0.7790 0.7780
762.869536 0.7760 0.7710 0.7660 0.7600 0.7560
767.798343 0.7500 0.7430 0.7320 0.7190 0.7070
772.727149 0.6970 0.6890 0.6760 0.6571 0.6441
777.655956 0.6270 0.6180 0.5930 0.5740 0.5301
782.584762 0.5180 0.5021 0.4910 0.4791 0.4740
787.513569 0.4690 0.4650 0.4550 0.4420 0.4211
792.442376 0.4110 0.3931 0.3681 0.3391 0.2982
797.371182 0.2980 0.3220 0.3440 0.3540 0.3859
802.299989 0.4249 0.4778 0.5457 0.5719 0.5959
807.228796 0.6350 0.6650 0.6970 0.7329 0.7589
812.157602 0.7640 0.7700 0.7780 0.7899 0.7950
817.086409 0.7980 0.8030 0.8080 0.8150 0.8200
822.015215 0.8240 0.8260 0.8270 0.8310 0.8310
826.944022 0.8320 0.8340 0.8340 0.8340 0.8340
831.872829 0.8340 0.8340 0.8320 0.8320 0.8310
836.801635 0.8280 0.8270 0.8260 0.8260 0.8240
841.730442 0.8220 0.8220 0.8200 0.8190 0.8180
846.659249 0.8160 0.8160 0.8140 0.8110 0.8070
851.588055 0.8020 0.7980 0.7960 0.7920 0.7910
856.516862 0.7910 0.7900 0.7880 0.7880 0.7880
861.445669 0.7870 0.7870 0.7870 0.7860 0.7860
866.374475 0.7860 0.7840 0.7840 0.7820 0.7790
871.303282 0.7750 0.7710 0.7640 0.7620 0.7560
876.232088 0.7480 0.7400 0.7190 0.7070 0.7010
881.160895 0.6950 0.6850 0.6760 0.6680 0.6670
886.089702 0.6680 0.6810 0.6870 0.6990 0.7170
891.018508 0.7469 0.7709 0.7919 0.7990 0.8040
895.947315 0.8060 0.8070 0.8100 0.8110 0.8120
900.876122 0.8140 0.8140 0.8150 0.8160 0.8180
905.804928 0.8180 0.8180 0.8160 0.8150 0.8140
910.733735 0.8110 0.8080 0.8040 0.8000 0.7950
915.662541 0.7920 0.7840 0.7780 0.7750 0.7630
920.591348 0.7500 0.7331 0.7250 0.7091 0.6921
925.520155 0.6710 0.6470 0.6320 0.6290 0.6290
930.448961 0.6350 0.6400 0.6510 0.6610 0.6759
935.377768 0.6770 0.7010 0.7200 0.7390 0.7590
940.306575 0.7759 0.7909 0.7990 0.8099 0.8160
945.235381 0.8230 0.8280 0.8310 0.8340 0.8350
950.164188 0.8360 0.8380 0.8380 0.8380 0.8390
955.092994 0.8390 0.8390 0.8380 0.8380 0.8380
960.021801 0.8360 0.8350 0.8340 0.8320 0.8310
964.950608 0.8310 0.8300 0.8280 0.8270 0.8240
969.879414 0.8160 0.8110 0.8070 0.8040 0.8040
974.808221 0.8030 0.7980 0.7980 0.7960 0.7940
979.737028 0.7880 0.7830 0.7780 0.7700 0.7670
984.665834 0.7580 0.7400 0.7240 0.7170 0.7110
989.594641 0.6931 0.6771 0.6631 0.6521 0.6361
994.523448 0.6200 0.6160 0.6160 0.4973 0.4701
999.452254 0.4391 0.4101 0.3791 0.3482 0.3192
1004.381061 0.2880 0.2540 0.2160 0.2090 0.2030
1009.309867 0.1970 0.1910 0.1830 0.1800 0.1770
1014.238674 0.1750 0.1730 0.1750 0.1770 0.1830
1019.167481 0.1880 0.1960 0.2089 0.2976 0.3676
1024.096287 0.4170 0.4770 0.5170 0.5340 0.5500
1029.025094 0.5979 0.6209 0.6449 0.6530 0.6610
1033.953901 0.6750 0.6810 0.6880 0.6970 0.7040
1038.882707 0.7050 0.7050 0.7080 0.7090 0.7090
1043.811514 0.7090 0.7080 0.7080 0.7070 0.7050
1048.740320 0.7040 0.7030 0.7010 0.7000 0.6990
1053.669127 0.6970 0.6970 0.6960 0.6960 0.6930
1058.597934 0.6930 0.6890 0.6870 0.6800 0.6770
1063.526740 0.6750 0.6680 0.6670 0.6640 0.6630
1068.455547 0.6610 0.6600 0.6590 0.6570 0.6560
1073.384354 0.6560 0.6560 0.6570 0.6590 0.6610
1078.313160 0.6710 0.6790 0.6840 0.6850 0.6850
1083.241967 0.6870 0.6870 0.6880 0.6910 0.6910
1088.170773 0.6920 0.6920 0.6930 0.6930 0.6930
1093.099580 0.6930 0.6930 0.6920 0.6910 0.6910
1098.028387 0.6890 0.6880 0.6850 0.6830 0.6810
1102.957193 0.6800 0.6770 0.6750 0.6730 0.6680
1107.886000 0.6670 0.6630 0.6481 0.6410 0.6400
1112.814807 0.6370 0.6310 0.6280 0.6210 0.6160
1117.743613 0.6050 0.6010 0.5960 0.5741 0.5491
1122.672420 0.5410 0.5260 0.5170 0.5050 0.5000
1127.601227 0.4830 0.4700 0.4461 0.4271 0.4051
1132.530033 0.3950 0.3870 0.3700 0.3550 0.3440
1137.458840 0.3221 0.3110 0.3040 0.2662 0.2521
1142.387646 0.2440 0.2400 0.2370 0.2310 0.2280
1147.316453 0.2270 0.2240 0.2230 0.2210 0.2160
1152.245260 0.2070 0.1950 0.1910 0.1880 0.1810
1157.174066 0.1650 0.1570 0.1550 0.1440 0.1251
1162.102873 0.1100 0.0880 0.0720 0.0650 0.0580
1167.031680 0.0530 0.0480 0.0450 0.0440 0.0440
1171.960486 0.0450 0.0480 0.0500 0.0530 0.0570
1176.889293 0.0600 0.0620 0.0759 0.0959 0.0970
1181.818099 0.1020 0.1060 0.1080 0.1100 0.1120
1186.746906 0.1120 0.1100 0.1050 0.0960 0.0851
1191.675713 0.0760 0.0730 0.0720 0.0700 0.0700
1196.604519 0.0720 0.0730 0.0770 0.0820 0.0850
1201.533326 0.0900 0.0960 0.1010 0.1050 0.1170
1206.462133 0.1280 0.1430 0.1599 0.1789 0.1969
1211.390939 0.2160 0.2350 0.2480 0.2590 0.2780
1216.319746 0.2940 0.3159 0.3240 0.3340 0.3658
1221.248552 0.3810 0.3890 0.3950 0.4090 0.4130
1226.177359 0.4170 0.4180 0.4190 0.4190 0.4190
1231.106166 0.4180 0.4170 0.4150 0.4130 0.4100
1236.034972 0.4030 0.4010 0.3950 0.3870 0.3830
1240.963779 0.3660 0.3580 0.3540 0.3470 0.3380
1245.892586 0.3220 0.3160 0.3120 0.3001 0.2940
1250.821392 0.2790 0.2630 0.2430 0.2320 0.2190
1255.750199 0.2050 0.1960 0.1920 0.1910 0.1910
1260.679006 0.1920 0.1930 0.1960 0.1990 0.2010
1265.607812 0.2030 0.2040 0.2040 0.2030 0.1970
1270.536619 0.1920 0.1910 0.1840 0.1810 0.1730
1275.465425 0.1680 0.1590 0.1520 0.1450 0.1410
1280.394232 0.1280 0.1250 0.1200 0.1130 0.1090
1285.323039 0.1020 0.0900 0.0810 0.0780 0.0770
1290.251845 0.0700 0.0700 0.0690 0.0690 0.0690
1295.180652 0.0690 0.0690 0.0690 0.0690 0.0660
1300.109459 0.0580 0.0570 0.0560 0.0540 0.0520
1305.038265 0.0500 0.0480 0.0450 0.0410 0.0380
1309.967072 0.0380 0.0370 0.0370 0.0380 0.0420
1314.895878 0.0450 0.0500 0.0560 0.0889 0.0980
1319.824685 0.1080 0.1520 0.1879 0.2149 0.2409
1324.753492 0.2699 0.2989 0.3179 0.3389 0.3619
1329.682298 0.3750 0.4150 0.4510 0.4570 0.4770
1334.611105 0.4950 0.5169 0.5260 0.5360 0.5450
1339.539912 0.5530 0.5600 0.5730 0.5820 0.5980
1344.468718 0.6010 0.6050 0.6090 0.6140 0.6239
1349.397525 0.6290 0.6410 0.6600 0.6670 0.6710
1354.326331 0.6730 0.6760 0.6790 0.6870 0.6910
1359.255138 0.6930 0.6930 0.6950 0.6950 0.6960
1364.183945 0.6960 0.6960 0.6960 0.6960 0.6960
1369.112751 0.6960 0.6960 0.6960 0.6970 0.6970
1374.041558 0.6970 0.6970 0.6970 0.6970 0.6970
1378.970365 0.6970 0.6970 0.6970 0.6970 0.6970
1383.899171 0.6970 0.6970 0.6970 0.6970 0.6960
1388.827978 0.6960 0.6950 0.6930 0.6920 0.6910
1393.756785 0.6880 0.6870 0.6840 0.6810 0.6800
1398.685591 0.6790 0.6710 0.6630 0.6510 0.6430
1403.614398 0.6310 0.6220 0.6160 0.6011 0.5741
1408.543204 0.5360 0.4890 0.4580 0.4231 0.3821
1413.472011 0.3670 0.3481 0.3301 0.3111 0.3080
1418.400818 0.3120 0.3310 0.3640 0.4249 0.4290
1423.329624 0.4410 0.4510 0.4689 0.4710 0.4700
1428.258431 0.4650 0.4570 0.4470 0.4330 0.4091
1433.187238 0.3831 0.3541 0.3122 0.1996 0.1523
1438.116044 0.0850 0.0570 0.0570 0.0820 0.1020
1443.044851 0.1209 0.1559 0.1879 0.2547 0.2799
1447.973657 0.3060 0.3140 0.3400 0.3659 0.3850
1452.902464 0.3980 0.4050 0.4110 0.4170 0.4250
1457.831271 0.4290 0.4350 0.4450 0.4550 0.4849
1462.760077 0.4970 0.5130 0.5299 0.5449 0.5579
1467.688884 0.5800 0.5960 0.6020 0.6309 0.6440
1472.617691 0.6600 0.6640 0.6710 0.6770 0.6850
1477.546497 0.6950 0.7000 0.7050 0.7090 0.7160
1482.475304 0.7230 0.7250 0.7290 0.7320 0.7350
1487.404110 0.7350 0.7360 0.7370 0.7370 0.7390
1492.332917 0.7390 0.7400 0.7400 0.7410 0.7430
1497.261724 0.7430 0.7440 0.7450 0.7500 0.7540
1502.190530 0.7580 0.7600 0.7620 0.7660 0.7670
1507.119337 0.7670 0.7680 0.7700 0.7710 0.7710
1512.048144 0.7740 0.7750 0.7750 0.7750 0.7760
1516.976950 0.7760 0.7760 0.7760 0.7780 0.7780
1521.905757 0.7780 0.7760 0.7760 0.7760 0.7760
1526.834564 0.7780 0.7780 0.7780 0.7780 0.7780
1531.763370 0.7790 0.7800 0.7800 0.7820 0.7820
1536.692177 0.7830 0.7830 0.7830 0.7830 0.7830
1541.620983 0.7820 0.7820 0.7800 0.7800 0.7790
1546.549790 0.7780 0.7760 0.7750 0.7750 0.7750
1551.478597 0.7740 0.7740 0.7740 0.7720 0.7710
1556.407403 0.7710 0.7700 0.7680 0.7680 0.7680
1561.336210 0.7670 0.7660 0.7660 0.7660 0.7660
1566.265017 0.7660 0.7670 0.7670 0.7670 0.7670
1571.193823 0.7700 0.7710 0.7710 0.7710 0.7720
1576.122630 0.7720 0.7720 0.7750 0.7750 0.7760
1581.051436 0.7760 0.7750 0.7750 0.7750 0.7720
1585.980243 0.7720 0.7720 0.7710 0.7710 0.7710
1590.909050 0.7700 0.7700 0.7680 0.7680 0.7680
1595.837856 0.7680 0.7670 0.7670 0.7670 0.7670
1600.766663 0.7670 0.7680 0.7680 0.7680 0.7680
1605.695470 0.7680 0.7680 0.7680 0.7680 0.7700
1610.624276 0.7710 0.7710 0.7720 0.7740 0.7740
1615.553083 0.7750 0.7750 0.7750 0.7750 0.7760
1620.481890 0.7780 0.7780 0.7790 0.7790 0.7790
1625.410696 0.7790 0.7790 0.7790 0.7790 0.7800
1630.339503 0.7800 0.7800 0.7800 0.7800 0.7800
1635.268309 0.7790 0.7790 0.7780 0.7780 0.7780
1640.197116 0.7790 0.7790 0.7790 0.7780 0.7780
1645.125923 0.7780 0.7780 0.7780 0.7760 0.7760
1650.054729 0.7750 0.7750 0.7740 0.7740 0.7720
1654.983536 0.7720 0.7710 0.7680 0.7670 0.7660
1659.912343 0.7640 0.7640 0.7630 0.7630 0.7620
1664.841149 0.7620 0.7600 0.7590 0.7580 0.7560
1669.769956 0.7550 0.7520 0.7500 0.7470 0.7430
1674.698762 0.7400 0.7370 0.7290 0.7250 0.7240
1679.627569 0.7230 0.7200 0.7190 0.7130 0.7110
1684.556376 0.7050 0.6950 0.6920 0.6910 0.6910
1689.485182 0.6890 0.6790 0.6710 0.6630 0.6590
1694.413989 0.6480 0.6450 0.6370 0.6310 0.6220
1699.342796 0.6060 0.5881 0.5840 0.5740 0.5481
1704.271602 0.5410 0.5340 0.5240 0.5120 0.5000
1709.200409 0.4940 0.4781 0.4661 0.4421 0.4350
1714.129215 0.4250 0.4140 0.4050 0.3890 0.3780
1719.058022 0.3720 0.3630 0.3381 0.3041 0.2881
1723.986829 0.2790 0.2620 0.2400 0.2270 0.2170
1728.915635 0.1991 0.1880 0.1521 0.1351 0.1171
1733.844442 0.0780 0.0640 0.0540 0.0400 0.0320
1738.773249 0.0210 0.0160 0.0130 0.0130 0.0120
1743.702055 0.0100 0.0100 0.0100 0.0090 0.0090
1748.630862 0.0090 0.0090 0.0090 0.0100 0.0100
1753.559669 0.0100 0.0120 0.0120 0.0130 0.0130
1758.488475 0.0130 0.0140 0.0140 0.0140 0.0160
1763.417282 0.0160 0.0160 0.0160 0.0160 0.0160
1768.346088 0.0170 0.0170 0.0170 0.0180 0.0180
1773.274895 0.0200 0.0210 0.0210 0.0220 0.0220
1778.203702 0.0240 0.0250 0.0320 0.0400 0.0619
1783.132508 0.0960 0.1080 0.1200 0.1589 0.1949
1788.061315 0.2548 0.2789 0.3029 0.3597 0.4057
1792.990122 0.4210 0.4390 0.4530 0.4830 0.5060
1797.918928 0.5120 0.5329 0.5420 0.5520 0.5739
1802.847735 0.5940 0.6100 0.6130 0.6270 0.6330
1807.776541 0.6450 0.6590 0.6600 0.6670 0.6760
1812.705348 0.6850 0.6930 0.7010 0.7080 0.7130
1817.634155 0.7190 0.7230 0.7230 0.7270 0.7360
1822.562961 0.7440 0.7450 0.7500 0.7520 0.7560
1827.491768 0.7580 0.7590 0.7620 0.7630 0.7670
1832.420575 0.7740 0.7760 0.7780 0.7800 0.7820
1837.349381 0.7830 0.7870 0.7940 0.7940 0.7950
1842.278188 0.7960 0.7960 0.7980 0.7990 0.7990
1847.206994 0.8000 0.8000 0.8020 0.8020 0.8020
1852.135801 0.8020 0.8030 0.8030 0.8030 0.8030
1857.064608 0.8030 0.8040 0.8040 0.8040 0.8040
1861.993414 0.8060 0.8060 0.8060 0.8060 0.8060
1866.922221 0.8060 0.8060 0.8060 0.8060 0.8060
1871.851028 0.8040 0.8040 0.8040 0.8040 0.8040
1876.779834 0.8040 0.8060 0.8060 0.8070 0.8070
1881.708641 0.8070 0.8080 0.8080 0.8080 0.8110
1886.637448 0.8120 0.8140 0.8150 0.8160 0.8200
1891.566254 0.8230 0.8260 0.8300 0.8310 0.8320
1896.495061 0.8340 0.8350 0.8350 0.8360 0.8360
1901.423867 0.8360 0.8380 0.8380 0.8380 0.8390
1906.352674 0.8390 0.8380 0.8380 0.8380 0.8380
1911.281481 0.8380 0.8390 0.8390 0.8390 0.8390
1916.210287 0.8390 0.8390 0.8390 0.8390 0.8390
1921.139094 0.8390 0.8400 0.8400 0.8400 0.8400
1926.067901 0.8400 0.8400 0.8400 0.8400 0.8400
1930.996707 0.8400 0.8400 0.8400 0.8400 0.8400
1935.925514 0.8400 0.8390 0.8380 0.8380 0.8360
1940.854320 0.8360 0.8360 0.8360 0.8350 0.8350
1945.783127 0.8350 0.8350 0.8350 0.8350 0.8340
1950.711934 0.8340 0.8320 0.8310 0.8310 0.8310
1955.640740 0.8310 0.8300 0.8300 0.8280 0.8280
1960.569547 0.8280 0.8270 0.8270 0.8270 0.8270
1965.498354 0.8260 0.8240 0.8240 0.8260 0.8240
1970.427160 0.8240 0.8240 0.8240 0.8240 0.8240
1975.355967 0.8240 0.8230 0.8230 0.8230 0.8230
1980.284773 0.8230 0.8230 0.8220 0.8220 0.8200
1985.213580 0.8200 0.8200 0.8220 0.8220 0.8220
1990.142387 0.8230 0.8230 0.8240 0.8240 0.8260
1995.071193 0.8270 0.8270 0.8300 0.8310 0.8340
2000.000000 0.8360 0.8375 0.8390 0.8395 0.8400
2004.928807 0.8415 0.8430 0.8445 0.8460 0.8460
2009.857613 0.8460 0.8465 0.8470 0.8470 0.8470
2014.786420 0.8470 0.8470 0.8470 0.8470 0.8470
2019.715227 0.8470 0.8470 0.8470 0.8470 0.8470
2024.644033 0.8475 0.8480 0.8475 0.8470 0.8470
2029.572840 0.8470 0.8470 0.8470 0.8470 0.8470
2034.501646 0.8475 0.8480 0.8480 0.8480 0.8480
2039.430453 0.8480 0.8480 0.8480 0.8475 0.8470
2044.359260 0.8465 0.8460 0.8460 0.8460 0.8460
2049.288066 0.8460 0.8460 0.8460 0.8460 0.8460
2054.216873 0.8460 0.8460 0.8460 0.8460 0.8460
2059.145680 0.8460 0.8460 0.8460 0.8460 0.8460
2064.074486 0.8460 0.8460 0.8460 0.8461 0.8466
2069.003293 0.8470 0.8470 0.8470 0.8470 0.8470
2073.932099 0.8470 0.8470 0.8470 0.8471 0.8476
2078.860906 0.8480 0.8480 0.8482 0.8492 0.8501
2083.789713 0.8506 0.8510 0.8510 0.8510 0.8510
2088.718519 0.8511 0.8516 0.8522 0.8532 0.8541
2093.647326 0.8546 0.8550 0.8550 0.8549 0.8544
2098.576133 0.8541 0.8546 0.8553 0.8568 0.8581
2103.504939 0.8586 0.8590 0.8590 0.8590 0.8590
2108.433746 0.8590 0.8590 0.8590 0.8590 0.8590
2113.362552 0.8590 0.8590 0.8590 0.8590 0.8590
2118.291359 0.8590 0.8590 0.8590 0.8590 0.8590
2123.220166 0.8590 0.8590 0.8590 0.8590 0.8590
2128.148972 0.8589 0.8584 0.8580 0.8580 0.8580
2133.077779 0.8580 0.8580 0.8580 0.8577 0.8567
2138.006586 0.8560 0.8560 0.8560 0.8560 0.8560
2142.935392 0.8560 0.8563 0.8573 0.8580 0.8580
2147.864199 0.8580 0.8580 0.8580 0.8580 0.8580
2152.793006 0.8580 0.8582 0.8587 0.8590 0.8590
2157.721812 0.8590 0.8590 0.8592 0.8597 0.8604
2162.650619 0.8614 0.8620 0.8620 0.8616 0.8606
2167.579425 0.8604 0.8614 0.8620 0.8620 0.8620
2172.508232 0.8620 0.8620 0.8620 0.8620 0.8620
2177.437039 0.8620 0.8620 0.8622 0.8627 0.8630
2182.365845 0.8630 0.8630 0.8630 0.8628 0.8623
2187.294652 0.8622 0.8627 0.8630 0.8630 0.8636
2192.223459 0.8651 0.8660 0.8660 0.8662 0.8667
2197.152265 0.8670 0.8670 0.8677 0.8692 0.8700
2202.081072 0.8700 0.8702 0.8707 0.8710 0.8710
