##TITLE=CYCLOPENTANE, METHYL-
##JCAMP-DX=4.24
##DATA TYPE=INFRARED SPECTRUM
##CLASS=COBLENTZ III
##ORIGIN=STANDARD OIL OF OHIO
##OWNER=COBLENTZ SOCIETY
Collection (C) 2018 copyright by the U.S. Secretary of Commerce
on behalf of the United States of America. All rights reserved.
##DATE=1976/12/20
##NAMES=methylcyclopentane
##CAS REGISTRY NO=96-37-7
##MOLFORM=C6 H12
##BP=72 C
##SOURCE REFERENCE=COBLENTZ NO. 10123
##$NIST SOURCE=COBLENTZ
##$NIST IMAGE=cob10123
##SPECTROMETER/DATA SYSTEM=PERKIN-ELMER 180 (GRATING)
##INSTRUMENT PARAMETERS=GRATING CHANGES AT 2000, 1000, 500, 250 CM^-^1
##STATE=LIQUID (NEAT)
##PATH LENGTH=0.006 CM, KBr CELL
##SAMPLING PROCEDURE=TRANSMISSION
##RESOLUTION=4
##DATA PROCESSING=DIGITIZED BY NIST FROM HARD COPY (FROM TWO SEGMENTS)
##XUNITS=1/CM
##YUNITS=TRANSMITTANCE
##XFACTOR=1.000000
##YFACTOR=1
##DELTAX=1.017168
##FIRSTX=293.198
##LASTX=3995.69
##FIRSTY=0.009
##MAXX=3995.69
##MINX=293.198
##MAXY=0.875
##MINY=0
##NPOINTS=3641
##XYDATA=(X++(Y..Y))
293.198000 0.0090 0.0110 0.0130 0.0140 0.0150
298.283838 0.0160 0.0190 0.0210 0.0240 0.0270
303.369676 0.0340 0.0350 0.0380 0.0410 0.0450
308.455513 0.0480 0.0490 0.0510 0.0550 0.0590
313.541351 0.0610 0.0650 0.0690 0.0710 0.0780
318.627189 0.0800 0.0850 0.0900 0.0930 0.0980
323.713027 0.1010 0.1080 0.1140 0.1200 0.1270
328.798865 0.1310 0.1410 0.1500 0.1570 0.1620
333.884702 0.1680 0.1720 0.1810 0.1880 0.1970
338.970540 0.2020 0.2050 0.2080 0.2100 0.2170
344.056378 0.2250 0.2330 0.2420 0.2500 0.2580
349.142216 0.2660 0.2740 0.2820 0.2900 0.2990
354.228054 0.3050 0.3200 0.3290 0.3370 0.3430
359.313892 0.3530 0.3600 0.3700 0.3800 0.3840
364.399729 0.3890 0.3900 0.4020 0.4130 0.4210
369.485567 0.4250 0.4280 0.4380 0.4490 0.4520
374.571405 0.4600 0.4640 0.4720 0.4800 0.4870
379.657243 0.4900 0.5069 0.5150 0.5180 0.5210
384.743081 0.5260 0.5320 0.5370 0.5430 0.5510
389.828918 0.5530 0.5610 0.5690 0.5720 0.5810
394.914756 0.5850 0.5890 0.5940 0.6000 0.6090
400.000594 0.6150 0.6210 0.6240 0.6300 0.6320
405.086432 0.6350 0.6400 0.6450 0.6510 0.6530
410.172270 0.6560 0.6640 0.6710 0.6740 0.6780
415.258107 0.6810 0.6830 0.6860 0.6870 0.6890
420.343945 0.6910 0.6980 0.6990 0.7000 0.7010
425.429783 0.7030 0.7110 0.7170 0.7220 0.7240
430.515621 0.7280 0.7340 0.7360 0.7390 0.7410
435.601459 0.7460 0.7500 0.7520 0.7540 0.7590
440.687297 0.7610 0.7670 0.7700 0.7710 0.7720
445.773134 0.7730 0.7750 0.7760 0.7770 0.7800
450.858972 0.7840 0.7860 0.7890 0.7900 0.7920
455.944810 0.7930 0.7950 0.7960 0.7990 0.8010
461.030648 0.8020 0.8030 0.8050 0.8050 0.8060
466.116486 0.8070 0.8080 0.8110 0.8120 0.8120
471.202323 0.8140 0.8160 0.8160 0.8180 0.8200
476.288161 0.8200 0.8210 0.8220 0.8240 0.8260
481.373999 0.8270 0.8300 0.8330 0.8340 0.8350
486.459837 0.8350 0.8350 0.8350 0.8350 0.8350
491.545675 0.8350 0.8350 0.8350 0.8360 0.8400
496.631512 0.8740 0.8750 0.8750 0.8750 0.8740
501.717350 0.8740 0.8730 0.8730 0.8720 0.8710
506.803188 0.8700 0.8700 0.8700 0.8700 0.8700
511.889026 0.8690 0.8680 0.8660 0.8620 0.8590
516.974864 0.8540 0.8510 0.8410 0.8330 0.8250
522.060702 0.8180 0.8100 0.8030 0.7930 0.7860
527.146539 0.7830 0.7830 0.7860 0.7910 0.8010
532.232377 0.8050 0.8120 0.8170 0.8210 0.8250
537.318215 0.8280 0.8330 0.8370 0.8400 0.8430
542.404053 0.8470 0.8500 0.8500 0.8510 0.8510
547.489891 0.8520 0.8540 0.8560 0.8590 0.8610
552.575728 0.8630 0.8640 0.8640 0.8650 0.8650
557.661566 0.8670 0.8670 0.8680 0.8680 0.8680
562.747404 0.8670 0.8670 0.8660 0.8660 0.8660
567.833242 0.8650 0.8650 0.8650 0.8670 0.8700
572.919080 0.8700 0.8700 0.8700 0.8700 0.8690
578.004917 0.8690 0.8680 0.8680 0.8680 0.8690
583.090755 0.8690 0.8690 0.8680 0.8680 0.8670
588.176593 0.8670 0.8650 0.8640 0.8630 0.8620
593.262431 0.8610 0.8610 0.8610 0.8610 0.8600
598.348269 0.8610 0.8620 0.8630 0.8650 0.8650
603.434107 0.8620 0.8620 0.8620 0.8620 0.8620
608.519944 0.8630 0.8630 0.8630 0.8630 0.8620
613.605782 0.8620 0.8620 0.8610 0.8620 0.8630
618.691620 0.8640 0.8630 0.8620 0.8600 0.8590
623.777458 0.8590 0.8590 0.8580 0.8580 0.8560
628.863296 0.8560 0.8570 0.8580 0.8580 0.8580
633.949133 0.8580 0.8580 0.8580 0.8570 0.8560
639.034971 0.8520 0.8510 0.8510 0.8510 0.8510
644.120809 0.8520 0.8520 0.8530 0.8530 0.8530
649.206647 0.8510 0.8510 0.8510 0.8520 0.8520
654.292485 0.8520 0.8530 0.8550 0.8570 0.8580
659.378322 0.8580 0.8580 0.8570 0.8570 0.8570
664.464160 0.8560 0.8550 0.8550 0.8530 0.8510
669.549998 0.8510 0.8490 0.8490 0.8560 0.8610
674.635836 0.8630 0.8640 0.8640 0.8630 0.8630
679.721674 0.8620 0.8630 0.8620 0.8610 0.8600
684.807512 0.8590 0.8560 0.8560 0.8570 0.8580
689.893349 0.8600 0.8600 0.8590 0.8580 0.8570
694.979187 0.8560 0.8560 0.8560 0.8550 0.8560
700.065025 0.8560 0.8550 0.8530 0.8520 0.8520
705.150863 0.8550 0.8550 0.8550 0.8540 0.8520
710.236701 0.8520 0.8510 0.8510 0.8500 0.8490
715.322538 0.8480 0.8470 0.8470 0.8460 0.8460
720.408376 0.8450 0.8430 0.8410 0.8400 0.8400
725.494214 0.8420 0.8430 0.8420 0.8410 0.8400
730.580052 0.8410 0.8390 0.8380 0.8370 0.8360
735.665890 0.8350 0.8340 0.8340 0.8330 0.8330
740.751727 0.8320 0.8320 0.8310 0.8300 0.8290
745.837565 0.8270 0.8220 0.8180 0.8140 0.8100
750.923403 0.8070 0.8050 0.8030 0.8010 0.7990
756.009241 0.7930 0.7910 0.7850 0.7840 0.7830
761.095079 0.7820 0.7820 0.7830 0.7830 0.7840
766.180916 0.7860 0.7870 0.7870 0.7900 0.7900
771.266754 0.7870 0.7860 0.7850 0.7860 0.7870
776.352592 0.7890 0.7900 0.7910 0.7910 0.7930
781.438430 0.7950 0.7960 0.7970 0.7980 0.7990
786.524268 0.7990 0.8000 0.8010 0.8010 0.8040
791.610106 0.8050 0.8050 0.8050 0.8050 0.8040
796.695943 0.8030 0.8020 0.8020 0.8010 0.8000
801.781781 0.7990 0.7980 0.7970 0.7960 0.7950
806.867619 0.7960 0.7980 0.7990 0.7990 0.7970
811.953457 0.7950 0.7940 0.7930 0.7920 0.7880
817.039295 0.7840 0.7830 0.7820 0.7810 0.7780
822.125132 0.7780 0.7770 0.7760 0.7720 0.7700
827.210970 0.7680 0.7650 0.7600 0.7570 0.7510
832.296808 0.7480 0.7480 0.7410 0.7340 0.7310
837.382646 0.7290 0.7290 0.7280 0.7280 0.7290
842.468484 0.7300 0.7310 0.7310 0.7340 0.7380
847.554321 0.7400 0.7430 0.7490 0.7520 0.7530
852.640159 0.7570 0.7570 0.7620 0.7660 0.7670
857.725997 0.7670 0.7660 0.7660 0.7660 0.7670
862.811835 0.7650 0.7610 0.7570 0.7520 0.7500
867.897673 0.7450 0.7410 0.7360 0.7250 0.7150
872.983511 0.7080 0.6980 0.6800 0.6580 0.6390
878.069348 0.6190 0.6020 0.5890 0.5731 0.5660
883.155186 0.5650 0.5660 0.5680 0.5720 0.5780
888.241024 0.5810 0.5850 0.5900 0.5940 0.5970
893.326862 0.6000 0.6010 0.6010 0.6020 0.6040
898.412700 0.6120 0.6220 0.6320 0.6420 0.6520
903.498537 0.6640 0.6730 0.6820 0.6900 0.6990
908.584375 0.7100 0.7180 0.7260 0.7360 0.7430
913.670213 0.7500 0.7530 0.7620 0.7700 0.7720
918.756051 0.7760 0.7770 0.7800 0.7840 0.7850
923.841889 0.7860 0.7870 0.7870 0.7890 0.7900
928.927726 0.7910 0.7930 0.7940 0.7940 0.7930
934.013564 0.7920 0.7900 0.7890 0.7880 0.7860
939.099402 0.7840 0.7820 0.7770 0.7750 0.7740
944.185240 0.7710 0.7680 0.7630 0.7600 0.7590
949.271078 0.7510 0.7420 0.7330 0.7240 0.7120
954.356916 0.7010 0.6910 0.6750 0.6620 0.6480
959.442753 0.6280 0.6000 0.5761 0.5571 0.5331
964.528591 0.5110 0.4990 0.4860 0.4670 0.4480
969.614429 0.4270 0.4140 0.4140 0.4170 0.4220
974.700267 0.4330 0.4520 0.4690 0.5020 0.5220
979.786105 0.5370 0.5630 0.5830 0.5990 0.6110
984.871942 0.6170 0.6230 0.6290 0.6340 0.6370
989.957780 0.6410 0.6440 0.6450 0.6460 0.6480
995.043618 0.6490 0.6500 0.6510 0.6530 0.6680
1000.129456 0.6830 0.6880 0.6930 0.6950 0.6970
1005.215294 0.7010 0.7070 0.7120 0.7170 0.7210
1010.301131 0.7230 0.7240 0.7260 0.7280 0.7320
1015.386969 0.7360 0.7410 0.7440 0.7500 0.7510
1020.472807 0.7560 0.7620 0.7710 0.7730 0.7780
1025.558645 0.7790 0.7820 0.7860 0.7930 0.7940
1030.644483 0.7960 0.8000 0.8020 0.8060 0.8070
1035.730321 0.8070 0.8070 0.8060 0.8060 0.8080
1040.816158 0.8080 0.8090 0.8100 0.8110 0.8110
1045.901996 0.8110 0.8100 0.8100 0.8090 0.8090
1050.987834 0.8100 0.8120 0.8120 0.8130 0.8130
1056.073672 0.8120 0.8130 0.8140 0.8160 0.8160
1061.159510 0.8170 0.8190 0.8200 0.8200 0.8170
1066.245347 0.8140 0.8130 0.8120 0.8090 0.8080
1071.331185 0.8100 0.8110 0.8120 0.8120 0.8120
1076.417023 0.8120 0.8120 0.8120 0.8110 0.8100
1081.502861 0.8090 0.8090 0.8120 0.8150 0.8160
1086.588699 0.8160 0.8170 0.8200 0.8210 0.8220
1091.674536 0.8240 0.8250 0.8250 0.8240 0.8190
1096.760374 0.8120 0.8090 0.8090 0.8070 0.8040
1101.846212 0.8010 0.7990 0.7990 0.7950 0.7950
1106.932050 0.7920 0.7880 0.7860 0.7820 0.7770
1112.017888 0.7740 0.7730 0.7700 0.7620 0.7600
1117.103726 0.7510 0.7450 0.7400 0.7360 0.7280
1122.189563 0.7210 0.7150 0.7030 0.6900 0.6810
1127.275401 0.6660 0.6510 0.6380 0.6240 0.6180
1132.361239 0.6170 0.6190 0.6240 0.6330 0.6440
1137.447077 0.6590 0.6750 0.6890 0.7010 0.7140
1142.532915 0.7230 0.7320 0.7410 0.7450 0.7510
1147.618752 0.7530 0.7540 0.7560 0.7590 0.7610
1152.704590 0.7600 0.7600 0.7590 0.7590 0.7560
1157.790428 0.7550 0.7540 0.7520 0.7510 0.7520
1162.876266 0.7530 0.7530 0.7530 0.7530 0.7530
1167.962104 0.7520 0.7520 0.7520 0.7490 0.7430
1173.047941 0.7400 0.7370 0.7320 0.7290 0.7280
1178.133779 0.7290 0.7300 0.7300 0.7300 0.7300
1183.219617 0.7280 0.7270 0.7260 0.7270 0.7280
1188.305455 0.7280 0.7260 0.7250 0.7240 0.7230
1193.391293 0.7220 0.7220 0.7210 0.7200 0.7200
1198.477130 0.7190 0.7180 0.7170 0.7150 0.7130
1203.562968 0.7100 0.7100 0.7090 0.7090 0.7080
1208.648806 0.7070 0.7070 0.7060 0.7040 0.7040
1213.734644 0.7040 0.7040 0.7030 0.7030 0.7040
1218.820482 0.7060 0.7060 0.7060 0.7070 0.7070
1223.906320 0.7070 0.7070 0.7060 0.7060 0.7060
1228.992157 0.7060 0.7060 0.7060 0.7040 0.7040
1234.077995 0.7040 0.7040 0.7060 0.7060 0.7060
1239.163833 0.7060 0.7060 0.7040 0.7030 0.7030
1244.249671 0.7030 0.7020 0.7010 0.7010 0.7000
1249.335509 0.7000 0.7000 0.7000 0.6990 0.6990
1254.421346 0.6990 0.6990 0.6980 0.6970 0.6950
1259.507184 0.6930 0.6910 0.6900 0.6870 0.6850
1264.593022 0.6840 0.6820 0.6800 0.6760 0.6750
1269.678860 0.6730 0.6660 0.6610 0.6600 0.6560
1274.764698 0.6500 0.6420 0.6390 0.6340 0.6300
1279.850535 0.6290 0.6260 0.6200 0.6170 0.6160
1284.936373 0.6160 0.6150 0.6140 0.6120 0.6090
1290.022211 0.6070 0.6060 0.6070 0.6110 0.6130
1295.108049 0.6140 0.6160 0.6200 0.6240 0.6290
1300.193887 0.6350 0.6400 0.6450 0.6490 0.6500
1305.279725 0.6500 0.6510 0.6550 0.6560 0.6570
1310.365562 0.6590 0.6620 0.6640 0.6660 0.6670
1315.451400 0.6680 0.6680 0.6700 0.6720 0.6710
1320.537238 0.6660 0.6650 0.6630 0.6610 0.6560
1325.623076 0.6520 0.6490 0.6340 0.6300 0.6220
1330.708914 0.6030 0.5860 0.5740 0.5550 0.5340
1335.794751 0.5150 0.5070 0.4980 0.4760 0.4541
1340.880589 0.4329 0.4150 0.4010 0.4010 0.4040
1345.966427 0.4100 0.4240 0.4470 0.4600 0.5139
1351.052265 0.5381 0.5550 0.5710 0.5780 0.5780
1356.138103 0.5770 0.5710 0.5610 0.5470 0.5201
1361.223940 0.5019 0.4829 0.4429 0.3849 0.3139
1366.309778 0.2100 0.1281 0.0721 0.0720 0.0870
1371.395616 0.1411 0.1711 0.2191 0.2661 0.3111
1376.481454 0.3540 0.3840 0.4100 0.4390 0.4570
1381.567292 0.5181 0.5400 0.5550 0.5700 0.5800
1386.653130 0.5900 0.6000 0.6030 0.6080 0.6090
1391.738967 0.6100 0.6100 0.6100 0.6110 0.6110
1396.824805 0.6100 0.6100 0.6070 0.6040 0.6010
1401.910643 0.5970 0.5910 0.5890 0.5830 0.5790
1406.996481 0.5740 0.5680 0.5610 0.5540 0.5460
1412.082319 0.5370 0.5260 0.5170 0.5100 0.5010
1417.168156 0.4960 0.4910 0.4770 0.4680 0.4510
1422.253994 0.4339 0.4170 0.4040 0.3870 0.3710
1427.339832 0.3530 0.3360 0.3120 0.2950 0.2541
1432.425670 0.2339 0.2049 0.1659 0.1409 0.1099
1437.511508 0.0620 0.0490 0.0350 0.0220 0.0050
1442.597345 0.0030 0.0020 0.0020 0.0020 0.0020
1447.683183 0.0020 0.0020 0.0020 0.0020 0.0030
1452.769021 0.0030 0.0040 0.0050 0.0100 0.0150
1457.854859 0.0230 0.0370 0.0520 0.0730 0.0840
1462.940697 0.0990 0.1111 0.1280 0.1350 0.1420
1468.026535 0.1500 0.1590 0.1700 0.1840 0.2000
1473.112372 0.2181 0.2411 0.2670 0.2840 0.3120
1478.198210 0.3340 0.3560 0.3760 0.3840 0.4329
1483.284048 0.4491 0.4671 0.4821 0.5060 0.5190
1488.369886 0.5310 0.5430 0.5540 0.5690 0.5800
1493.455724 0.5930 0.6010 0.6110 0.6200 0.6270
1498.541561 0.6340 0.6400 0.6500 0.6560 0.6660
1503.627399 0.6710 0.6740 0.6820 0.6890 0.6940
1508.713237 0.7000 0.7010 0.7100 0.7150 0.7170
1513.799075 0.7220 0.7250 0.7280 0.7330 0.7350
1518.884913 0.7390 0.7410 0.7460 0.7510 0.7510
1523.970750 0.7540 0.7590 0.7620 0.7650 0.7660
1529.056588 0.7700 0.7730 0.7730 0.7740 0.7740
1534.142426 0.7790 0.7830 0.7860 0.7910 0.7940
1539.228264 0.7950 0.7960 0.8000 0.8010 0.8010
1544.314102 0.8020 0.8020 0.8020 0.8040 0.8040
1549.399940 0.8050 0.8070 0.8090 0.8110 0.8130
1554.485777 0.8150 0.8140 0.8130 0.8120 0.8130
1559.571615 0.8130 0.8130 0.8120 0.8120 0.8140
1564.657453 0.8150 0.8170 0.8180 0.8180 0.8180
1569.743291 0.8180 0.8180 0.8190 0.8190 0.8190
1574.829129 0.8180 0.8190 0.8190 0.8200 0.8210
1579.914966 0.8220 0.8240 0.8260 0.8270 0.8270
1585.000804 0.8280 0.8280 0.8280 0.8280 0.8270
1590.086642 0.8260 0.8260 0.8240 0.8240 0.8240
1595.172480 0.8260 0.8280 0.8290 0.8290 0.8300
1600.258318 0.8300 0.8300 0.8280 0.8260 0.8250
1605.344155 0.8240 0.8240 0.8220 0.8220 0.8220
1610.429993 0.8220 0.8240 0.8260 0.8270 0.8270
1615.515831 0.8260 0.8260 0.8260 0.8250 0.8240
1620.601669 0.8240 0.8240 0.8220 0.8220 0.8240
1625.687507 0.8250 0.8250 0.8260 0.8250 0.8250
1630.773344 0.8220 0.8210 0.8200 0.8200 0.8200
1635.859182 0.8200 0.8200 0.8210 0.8220 0.8260
1640.945020 0.8270 0.8280 0.8300 0.8300 0.8310
1646.030858 0.8300 0.8290 0.8290 0.8280 0.8280
1651.116696 0.8270 0.8280 0.8290 0.8290 0.8290
1656.202534 0.8290 0.8280 0.8270 0.8270 0.8260
1661.288371 0.8240 0.8220 0.8210 0.8210 0.8210
1666.374209 0.8210 0.8200 0.8190 0.8190 0.8190
1671.460047 0.8180 0.8180 0.8170 0.8150 0.8140
1676.545885 0.8130 0.8130 0.8120 0.8110 0.8110
1681.631723 0.8110 0.8120 0.8120 0.8130 0.8140
1686.717560 0.8150 0.8150 0.8140 0.8140 0.8110
1691.803398 0.8110 0.8130 0.8150 0.8150 0.8160
1696.889236 0.8170 0.8190 0.8200 0.8220 0.8240
1701.975074 0.8260 0.8270 0.8280 0.8290 0.8300
1707.060912 0.8310 0.8310 0.8310 0.8320 0.8320
1712.146749 0.8320 0.8320 0.8320 0.8330 0.8350
1717.232587 0.8370 0.8370 0.8380 0.8370 0.8360
1722.318425 0.8350 0.8360 0.8360 0.8370 0.8380
1727.404263 0.8380 0.8390 0.8390 0.8390 0.8390
1732.490101 0.8400 0.8400 0.8400 0.8390 0.8380
1737.575939 0.8370 0.8360 0.8340 0.8340 0.8360
1742.661776 0.8370 0.8370 0.8370 0.8380 0.8390
1747.747614 0.8400 0.8410 0.8410 0.8410 0.8400
1752.833452 0.8400 0.8400 0.8410 0.8420 0.8430
1757.919290 0.8440 0.8450 0.8470 0.8480 0.8490
1763.005128 0.8490 0.8490 0.8480 0.8480 0.8470
1768.090965 0.8460 0.8460 0.8470 0.8480 0.8490
1773.176803 0.8490 0.8500 0.8510 0.8510 0.8500
1778.262641 0.8500 0.8490 0.8480 0.8480 0.8480
1783.348479 0.8480 0.8480 0.8480 0.8500 0.8500
1788.434317 0.8500 0.8490 0.8490 0.8480 0.8470
1793.520154 0.8460 0.8450 0.8440 0.8420 0.8410
1798.605992 0.8410 0.8430 0.8440 0.8450 0.8450
1803.691830 0.8460 0.8470 0.8470 0.8470 0.8470
1808.777668 0.8470 0.8470 0.8470 0.8470 0.8450
1813.863506 0.8430 0.8430 0.8460 0.8470 0.8490
1818.949344 0.8500 0.8510 0.8500 0.8480 0.8470
1824.035181 0.8470 0.8480 0.8480 0.8480 0.8480
1829.121019 0.8480 0.8480 0.8480 0.8480 0.8510
1834.206857 0.8510 0.8520 0.8530 0.8520 0.8510
1839.292695 0.8510 0.8510 0.8500 0.8500 0.8490
1844.378533 0.8490 0.8480 0.8480 0.8480 0.8480
1849.464370 0.8470 0.8460 0.8460 0.8440 0.8420
1854.550208 0.8420 0.8410 0.8410 0.8410 0.8410
1859.636046 0.8400 0.8400 0.8410 0.8420 0.8430
1864.721884 0.8440 0.8430 0.8420 0.8400 0.8390
1869.807722 0.8400 0.8400 0.8400 0.8410 0.8410
1874.893559 0.8420 0.8420 0.8420 0.8420 0.8420
1879.979397 0.8420 0.8430 0.8450 0.8440 0.8430
1885.065235 0.8420 0.8420 0.8420 0.8420 0.8420
1890.151073 0.8420 0.8430 0.8430 0.8430 0.8430
1895.236911 0.8440 0.8450 0.8440 0.8440 0.8420
1900.322749 0.8410 0.8410 0.8410 0.8410 0.8420
1905.408586 0.8420 0.8420 0.8440 0.8460 0.8500
1910.494424 0.8500 0.8500 0.8500 0.8500 0.8500
1915.580262 0.8470 0.8470 0.8470 0.8480 0.8490
1920.666100 0.8490 0.8500 0.8500 0.8500 0.8510
1925.751938 0.8520 0.8530 0.8530 0.8510 0.8510
1930.837775 0.8510 0.8510 0.8510 0.8510 0.8510
1935.923613 0.8510 0.8510 0.8510 0.8510 0.8540
1941.009451 0.8550 0.8550 0.8550 0.8540 0.8540
1946.095289 0.8540 0.8540 0.8540 0.8540 0.8550
1951.181127 0.8550 0.8550 0.8550 0.8550 0.8550
1956.266964 0.8550 0.8550 0.8540 0.8510 0.8510
1961.352802 0.8500 0.8500 0.8500 0.8500 0.8510
1966.438640 0.8510 0.8510 0.8510 0.8520 0.8550
1971.524478 0.8550 0.8530 0.8520 0.8510 0.8500
1976.610316 0.8500 0.8490 0.8490 0.8490 0.8490
1981.696153 0.8490 0.8500 0.8500 0.8490 0.8490
1986.781991 0.8480 0.8480 0.8470 0.8460 0.8450
1991.867829 0.8430 0.8430 0.8430 0.8450 0.8450
1996.953667 0.8480 0.8500 0.8510 0.8530 0.8540
2002.039505 0.8550 0.8555 0.8560 0.8570 0.8580
2007.125343 0.8585 0.8590 0.8590 0.8590 0.8580
2012.211180 0.8570 0.8565 0.8560 0.8560 0.8560
2017.297018 0.8575 0.8590 0.8595 0.8600 0.8605
2022.382856 0.8610 0.8620 0.8630 0.8630 0.8630
2027.468694 0.8610 0.8590 0.8585 0.8580 0.8575
2032.554532 0.8570 0.8575 0.8580 0.8585 0.8590
2037.640369 0.8590 0.8590 0.8590 0.8590 0.8590
2042.726207 0.8590 0.8590 0.8590 0.8585 0.8580
2047.812045 0.8570 0.8560 0.8560 0.8560 0.8555
2052.897883 0.8550 0.8550 0.8550 0.8540 0.8530
2057.983721 0.8530 0.8530 0.8530 0.8530 0.8535
2063.069558 0.8540 0.8540 0.8540 0.8545 0.8550
2068.155396 0.8550 0.8550 0.8550 0.8550 0.8550
2073.241234 0.8550 0.8555 0.8560 0.8560 0.8560
2078.327072 0.8560 0.8560 0.8560 0.8560 0.8555
2083.412910 0.8550 0.8550 0.8550 0.8550 0.8550
2088.498748 0.8550 0.8550 0.8550 0.8550 0.8550
2093.584585 0.8550 0.8545 0.8540 0.8540 0.8540
2098.670423 0.8540 0.8540 0.8540 0.8540 0.8540
2103.756261 0.8540 0.8535 0.8530 0.8530 0.8530
2108.842099 0.8530 0.8530 0.8530 0.8530 0.8525
2113.927937 0.8520 0.8520 0.8520 0.8520 0.8520
2119.013774 0.8520 0.8520 0.8515 0.8510 0.8510
2124.099612 0.8510 0.8505 0.8500 0.8495 0.8490
2129.185450 0.8490 0.8490 0.8485 0.8480 0.8470
2134.271288 0.8460 0.8455 0.8450 0.8431 0.8411
2139.357126 0.8405 0.8400 0.8395 0.8390 0.8375
2144.442963 0.8360 0.8350 0.8340 0.8335 0.8330
2149.528801 0.8325 0.8320 0.8315 0.8310 0.8305
2154.614639 0.8300 0.8300 0.8300 0.8295 0.8290
2159.700477 0.8256 0.8221 0.8210 0.8200 0.8195
2164.786315 0.8190 0.8195 0.8200 0.8205 0.8210
2169.872153 0.8215 0.8220 0.8230 0.8240 0.8245
2174.957990 0.8250 0.8250 0.8250 0.8250 0.8250
2180.043828 0.8255 0.8260 0.8275 0.8290 0.8295
2185.129666 0.8300 0.8315 0.8330 0.8330 0.8330
2190.215504 0.8325 0.8320 0.8325 0.8330 0.8330
2195.301342 0.8330 0.8335 0.8340 0.8340 0.8340
2200.387179 0.8350 0.8360 0.8350 0.8340 0.8340
2205.473017 0.8340 0.8335 0.8330 0.8330 0.8330
2210.558855 0.8335 0.8340 0.8350 0.8360 0.8360
2215.644693 0.8360 0.8365 0.8370 0.8370 0.8370
2220.730531 0.8370 0.8370 0.8370 0.8370 0.8365
2225.816368 0.8360 0.8360 0.8360 0.8355 0.8350
2230.902206 0.8345 0.8340 0.8335 0.8330 0.8320
2235.988044 0.8310 0.8310 0.8310 0.8305 0.8300
2241.073882 0.8300 0.8300 0.8295 0.8290 0.8285
2246.159720 0.8280 0.8275 0.8270 0.8260 0.8250
2251.245558 0.8250 0.8250 0.8245 0.8240 0.8230
2256.331395 0.8220 0.8220 0.8220 0.8215 0.8210
2261.417233 0.8200 0.8190 0.8185 0.8180 0.8175
2266.503071 0.8170 0.8160 0.8150 0.8150 0.8150
2271.588909 0.8150 0.8150 0.8160 0.8170 0.8175
2276.674747 0.8180 0.8180 0.8180 0.8185 0.8190
2281.760584 0.8190 0.8190 0.8190 0.8190 0.8195
2286.846422 0.8200 0.8210 0.8220 0.8230 0.8240
2291.932260 0.8240 0.8240 0.8230 0.8220 0.8220
2297.018098 0.8220 0.8210 0.8200 0.8195 0.8190
2302.103936 0.8180 0.8170 0.8170 0.8170 0.8165
2307.189773 0.8160 0.8141 0.8121 0.8101 0.8081
2312.275611 0.8070 0.8060 0.8060 0.8060 0.8070
2317.361449 0.8080 0.8085 0.8090 0.8090 0.8090
2322.447287 0.8090 0.8090 0.8085 0.8080 0.8070
2327.533125 0.8060 0.8060 0.8060 0.8055 0.8050
2332.618963 0.8050 0.8050 0.8045 0.8040 0.8035
2337.704800 0.8030 0.8030 0.8030 0.8030 0.8030
2342.790638 0.8035 0.8040 0.8040 0.8040 0.8045
2347.876476 0.8050 0.8074 0.8099 0.8105 0.8110
2352.962314 0.8120 0.8130 0.8135 0.8140 0.8145
2358.048152 0.8150 0.8155 0.8160 0.8169 0.8179
