##TITLE=Cyclopentanol
##JCAMP-DX=4.24
##DATA TYPE=INFRARED SPECTRUM
##CLASS=COBLENTZ
##ORIGIN=DOW CHEMICAL COMPANY
##OWNER=COBLENTZ SOC.
Collection (C) 2018 copyright by the U.S. Secretary of Commerce
on behalf of the United States of America. All rights reserved.
##DATE=1964/05/05
##CAS REGISTRY NO=96-41-3
##MOLFORM=C5 H10 O
##BP=139 C
##SOURCE REFERENCE=COBLENTZ NO. 9182
##$NIST SOURCE=COBLENTZ
##$NIST IMAGE=cob9182
##SPECTROMETER/DATA SYSTEM=DOW KBr FOREPRISM-GRATING
##INSTRUMENT PARAMETERS=BLAZED AT 3.5, 12.0, 20.0 MICRON AND CHANGED AT 5.0, 7.5, 14.9 MICRON
##STATE=SOLUTION (10% CCl4 FOR 3800-1340, 10% CS2 FOR 1340-450 CM^-^1)
##PATH LENGTH=0.011 CM, 0.011 CM
$$SPECTRAL CONTAMINATION DUE TO CCl4 AROUND 1550, AND AN IMPURITY (C=O) AROUND 1700-1800 CM^-^1
##SAMPLING PROCEDURE=TRANSMISSION
##RESOLUTION=2
##DATA PROCESSING=DIGITIZED BY COBLENTZ SOCIETY (BATCH I) FROM HARD COPY
##XUNITS=1/CM
##YUNITS=TRANSMITTANCE
##XLABEL=Wavenumbers (cm-1)
##YLABEL=% Transmission
##XFACTOR=1
##YFACTOR=1
##DELTAX=1
##FIRSTX=453
##LASTX=3800
##FIRSTY=0.6867
##MAXX=3800
##MINX=453
##MAXY=0.8837
##MINY=0.0001
##NPOINTS=3348
##XYDATA=(X++(Y..Y))
453.000000 0.6867 0.6872 0.6878 0.6885 0.6889
458.000000 0.6888 0.6887 0.6886 0.6884 0.6883
463.000000 0.6882 0.6881 0.6880 0.6878 0.6878
468.000000 0.6876 0.6875 0.6874 0.6872 0.6871
473.000000 0.6878 0.6888 0.6908 0.6931 0.6951
478.000000 0.6972 0.6990 0.7006 0.7022 0.7040
483.000000 0.7056 0.7069 0.7078 0.7087 0.7096
488.000000 0.7104 0.7111 0.7115 0.7121 0.7126
493.000000 0.7133 0.7118 0.7128 0.7125 0.7121
498.000000 0.7118 0.7115 0.7112 0.7107 0.7100
503.000000 0.7093 0.7087 0.7080 0.7072 0.7065
508.000000 0.7058 0.7051 0.7044 0.7037 0.7028
513.000000 0.7021 0.7008 0.6996 0.6984 0.6971
518.000000 0.6958 0.6946 0.6934 0.6921 0.6908
523.000000 0.6891 0.6874 0.6857 0.6839 0.6821
528.000000 0.6805 0.6788 0.6761 0.6735 0.6707
533.000000 0.6680 0.6653 0.6625 0.6601 0.6580
538.000000 0.6560 0.6539 0.6522 0.6533 0.6544
543.000000 0.6556 0.6568 0.6580 0.6586 0.6592
548.000000 0.6598 0.6605 0.6611 0.6619 0.6626
553.000000 0.6635 0.6643 0.6651 0.6658 0.6656
558.000000 0.6653 0.6646 0.6638 0.6631 0.6624
563.000000 0.6615 0.6606 0.6597 0.6588 0.6578
568.000000 0.6569 0.6561 0.6554 0.6546 0.6538
573.000000 0.6530 0.6521 0.6511 0.6501 0.6493
578.000000 0.6483 0.6472 0.6462 0.6454 0.6448
583.000000 0.6442 0.6435 0.6428 0.6422 0.6417
588.000000 0.6411 0.6406 0.6404 0.6401 0.6398
593.000000 0.6391 0.6384 0.6376 0.6369 0.6362
598.000000 0.6354 0.6347 0.6339 0.6331 0.6324
603.000000 0.6316 0.6308 0.6300 0.6292 0.6285
608.000000 0.6277 0.6269 0.6260 0.6253 0.6246
613.000000 0.6239 0.6233 0.6226 0.6220 0.6214
618.000000 0.6208 0.6202 0.6196 0.6189 0.6183
623.000000 0.6177 0.6170 0.6162 0.6156 0.6149
628.000000 0.6142 0.6135 0.6128 0.6118 0.6101
633.000000 0.6083 0.6066 0.6049 0.6031 0.6014
638.000000 0.5996 0.5977 0.5958 0.5939 0.5921
643.000000 0.5902 0.5883 0.5864 0.5845 0.5826
648.000000 0.5806 0.5787 0.5773 0.5762 0.5752
653.000000 0.5742 0.5743 0.5760 0.5788 0.5821
658.000000 0.5855 0.5892 0.5930 0.5964 0.5992
663.000000 0.6020 0.6042 0.6029 0.6017 0.6005
668.000000 0.5992 0.5980 0.5967 0.5955 0.5958
673.000000 0.5983 0.6004 0.6021 0.6038 0.6059
678.000000 0.6080 0.6101 0.6118 0.6133 0.6143
683.000000 0.6151 0.6159 0.6166 0.6172 0.6175
688.000000 0.6177 0.6180 0.6179 0.6179 0.6172
693.000000 0.6168 0.6162 0.6160 0.6167 0.6182
698.000000 0.6198 0.6215 0.6233 0.6255 0.6277
703.000000 0.6299 0.6320 0.6339 0.6359 0.6370
708.000000 0.6382 0.6394 0.6406 0.6418 0.6431
713.000000 0.6445 0.6458 0.6471 0.6485 0.6498
718.000000 0.6510 0.6522 0.6535 0.6547 0.6558
723.000000 0.6568 0.6578 0.6590 0.6601 0.6612
728.000000 0.6628 0.6645 0.6661 0.6676 0.6693
733.000000 0.6708 0.6725 0.6741 0.6757 0.6772
738.000000 0.6789 0.6801 0.6814 0.6825 0.6838
743.000000 0.6850 0.6861 0.6874 0.6886 0.6899
748.000000 0.6911 0.6919 0.6928 0.6938 0.6947
753.000000 0.6956 0.6965 0.6975 0.6984 0.6993
758.000000 0.7001 0.7010 0.7015 0.7022 0.7030
763.000000 0.7036 0.7043 0.7049 0.7056 0.7062
768.000000 0.7067 0.7069 0.7071 0.7074 0.7076
773.000000 0.7078 0.7082 0.7084 0.7085 0.7085
778.000000 0.7085 0.7085 0.7084 0.7084 0.7083
783.000000 0.7083 0.7084 0.7088 0.7089 0.7090
788.000000 0.7091 0.7092 0.7092 0.7092 0.7088
793.000000 0.7084 0.7075 0.7065 0.7057 0.7047
798.000000 0.7038 0.7028 0.7018 0.7008 0.6993
803.000000 0.6975 0.6960 0.6942 0.6921 0.6900
808.000000 0.6878 0.6858 0.6834 0.6801 0.6769
813.000000 0.6737 0.6701 0.6662 0.6625 0.6586
818.000000 0.6548 0.6468 0.6386 0.6304 0.6220
823.000000 0.6135 0.6051 0.5958 0.5860 0.5762
828.000000 0.5694 0.5627 0.5560 0.5496 0.5435
833.000000 0.5397 0.5386 0.5386 0.5379 0.5401
838.000000 0.5416 0.5450 0.5492 0.5538 0.5584
843.000000 0.5630 0.5676 0.5723 0.5769 0.5815
848.000000 0.5860 0.5907 0.5954 0.6000 0.6046
853.000000 0.6092 0.6139 0.6185 0.6231 0.6277
858.000000 0.6323 0.6370 0.6415 0.6461 0.6508
863.000000 0.6555 0.6601 0.6647 0.6693 0.6739
868.000000 0.6799 0.6861 0.6911 0.6933 0.6949
873.000000 0.6949 0.6960 0.6941 0.6935 0.6928
878.000000 0.6914 0.6868 0.6797 0.6718 0.6639
883.000000 0.6561 0.6482 0.6404 0.6325 0.6246
888.000000 0.6168 0.6089 0.6027 0.6009 0.6077
893.000000 0.6187 0.6298 0.6408 0.6518 0.6628
898.000000 0.6740 0.6849 0.6903 0.6980 0.7074
903.000000 0.7161 0.7194 0.7225 0.7255 0.7275
908.000000 0.7298 0.7321 0.7289 0.7282 0.7265
913.000000 0.7244 0.7218 0.7192 0.7162 0.7121
918.000000 0.7081 0.7028 0.6947 0.6861 0.6742
923.000000 0.6622 0.6504 0.6384 0.6265 0.6146
928.000000 0.6026 0.5907 0.5788 0.5730 0.5825
933.000000 0.5940 0.6055 0.6170 0.6285 0.6400
938.000000 0.6515 0.6594 0.6644 0.6696 0.6753
943.000000 0.6808 0.6862 0.6922 0.6949 0.6987
948.000000 0.6955 0.6938 0.6918 0.6856 0.6856
953.000000 0.6845 0.6862 0.6895 0.6925 0.6938
958.000000 0.6942 0.6942 0.6941 0.6919 0.6893
963.000000 0.6855 0.6797 0.6737 0.6651 0.6501
968.000000 0.6312 0.6124 0.5935 0.5746 0.5557
973.000000 0.5367 0.5160 0.4880 0.4638 0.4428
978.000000 0.3982 0.3209 0.2438 0.1979 0.1827
983.000000 0.1606 0.1530 0.1442 0.1349 0.1258
988.000000 0.1203 0.1182 0.1190 0.1153 0.1227
993.000000 0.1277 0.1371 0.1534 0.1702 0.1870
998.000000 0.2037 0.2206 0.2374 0.2542 0.2710
1003.000000 0.2877 0.3045 0.3212 0.3380 0.3549
1008.000000 0.3716 0.3882 0.4032 0.4310 0.4508
1013.000000 0.4639 0.4832 0.4994 0.5015 0.5031
1018.000000 0.5040 0.5024 0.5017 0.4976 0.4806
1023.000000 0.4617 0.4428 0.4238 0.4049 0.3859
1028.000000 0.3671 0.3482 0.3412 0.3397 0.3539
1033.000000 0.3712 0.3884 0.4057 0.4230 0.4402
1038.000000 0.4575 0.4748 0.4920 0.4998 0.5024
1043.000000 0.4980 0.4959 0.4915 0.4854 0.4748
1048.000000 0.4625 0.4503 0.4380 0.4258 0.4135
1053.000000 0.4012 0.3890 0.3793 0.3630 0.3572
1058.000000 0.3512 0.3457 0.3403 0.3366 0.3338
1063.000000 0.3320 0.3305 0.3290 0.3275 0.3260
1068.000000 0.3264 0.3268 0.3260 0.3288 0.3304
1073.000000 0.3349 0.3403 0.3458 0.3525 0.3608
1078.000000 0.3698 0.3841 0.3988 0.4130 0.4237
1083.000000 0.4344 0.4653 0.4843 0.5033 0.5223
1088.000000 0.5412 0.5604 0.6056 0.6219 0.6338
1093.000000 0.6457 0.6540 0.6615 0.6692 0.6767
1098.000000 0.6836 0.6906 0.6975 0.7039 0.7103
1103.000000 0.7165 0.7212 0.7258 0.7300 0.7322
1108.000000 0.7345 0.7358 0.7365 0.7371 0.7369
1113.000000 0.7384 0.7365 0.7358 0.7351 0.7335
1118.000000 0.7315 0.7296 0.7275 0.7255 0.7234
1123.000000 0.7195 0.7151 0.7096 0.7039 0.6983
1128.000000 0.6928 0.6874 0.6818 0.6696 0.6600
1133.000000 0.6518 0.6437 0.6362 0.6288 0.6142
1138.000000 0.5997 0.5851 0.5705 0.5559 0.5412
1143.000000 0.5268 0.5122 0.5006 0.4912 0.4795
1148.000000 0.4655 0.4515 0.4443 0.4372 0.4298
1153.000000 0.4215 0.4133 0.4064 0.3995 0.3940
1158.000000 0.3914 0.3890 0.3872 0.3854 0.3832
1163.000000 0.3806 0.3780 0.3749 0.3709 0.3670
1168.000000 0.3616 0.3557 0.3489 0.3484 0.3480
1173.000000 0.3494 0.3570 0.3664 0.3760 0.3856
1178.000000 0.3952 0.4141 0.4267 0.4331 0.4396
1183.000000 0.4455 0.4512 0.4571 0.4617 0.4662
1188.000000 0.4708 0.4751 0.4789 0.4828 0.4866
1193.000000 0.4903 0.4936 0.4969 0.5002 0.5034
1198.000000 0.5064 0.5085 0.5106 0.5128 0.5149
1203.000000 0.5169 0.5184 0.5200 0.5216 0.5231
1208.000000 0.5238 0.5244 0.5250 0.5255 0.5262
1213.000000 0.5269 0.5285 0.5304 0.5323 0.5348
1218.000000 0.5376 0.5404 0.5433 0.5456 0.5479
1223.000000 0.5503 0.5526 0.5547 0.5562 0.5575
1228.000000 0.5571 0.5568 0.5605 0.5554 0.5546
1233.000000 0.5529 0.5506 0.5483 0.5460 0.5438
1238.000000 0.5415 0.5392 0.5369 0.5346 0.5323
1243.000000 0.5300 0.5277 0.5255 0.5232 0.5209
1248.000000 0.5186 0.5162 0.5140 0.5117 0.5095
1253.000000 0.5072 0.5049 0.5026 0.5003 0.4980
1258.000000 0.4957 0.4935 0.4912 0.4889 0.4866
1263.000000 0.4843 0.4820 0.4797 0.4775 0.4752
1268.000000 0.4729 0.4706 0.4683 0.4660 0.4637
1273.000000 0.4616 0.4596 0.4570 0.4541 0.4521
1278.000000 0.4522 0.4522 0.4538 0.4550 0.4553
1283.000000 0.4545 0.4525 0.4506 0.4472 0.4437
1288.000000 0.4401 0.4362 0.4303 0.4243 0.4171
1293.000000 0.4107 0.4054 0.3999 0.3940 0.3892
1298.000000 0.3862 0.3832 0.3802 0.3772 0.3743
1303.000000 0.3743 0.3725 0.3752 0.3762 0.3774
1308.000000 0.3792 0.3812 0.3846 0.3912 0.4006
1313.000000 0.4172 0.4343 0.4488 0.4601 0.4714
1318.000000 0.4828 0.4940 0.4996 0.5009 0.5044
1323.000000 0.5015 0.5000 0.4959 0.4850 0.4732
1328.000000 0.4409 0.4222 0.4034 0.3847 0.3659
1333.000000 0.3473 0.3238 0.3058 0.2967 0.2928
1338.000000 0.2925 0.2922 0.2903 0.3001 0.3124
1343.000000 0.3287 0.3348 0.3409 0.3476 0.3545
1348.000000 0.3652 0.3837 0.4022 0.4206 0.4391
1353.000000 0.4576 0.4760 0.4946 0.5131 0.5316
1358.000000 0.5428 0.5512 0.5629 0.5762 0.5936
1363.000000 0.6051 0.6134 0.6176 0.6210 0.6233
1368.000000 0.6245 0.6245 0.6246 0.6238 0.6228
1373.000000 0.6216 0.6200 0.6177 0.6154 0.6123
1378.000000 0.6091 0.6060 0.6031 0.6002 0.5973
1383.000000 0.5945 0.5917 0.5891 0.5867 0.5842
1388.000000 0.5804 0.5766 0.5729 0.5690 0.5652
1393.000000 0.5612 0.5574 0.5535 0.5496 0.5457
1398.000000 0.5407 0.5355 0.5303 0.5251 0.5200
1403.000000 0.5148 0.5085 0.5018 0.4951 0.4877
1408.000000 0.4878 0.4878 0.4935 0.4978 0.5010
1413.000000 0.5036 0.5052 0.5062 0.5072 0.5078
1418.000000 0.5080 0.5082 0.5083 0.5082 0.5082
1423.000000 0.5081 0.5071 0.5059 0.5048 0.5023
1428.000000 0.4992 0.4935 0.4868 0.4783 0.4657
1433.000000 0.4429 0.4202 0.3974 0.3804 0.3805
1438.000000 0.3814 0.3903 0.4006 0.4110 0.4212
1443.000000 0.4316 0.4419 0.4522 0.4570 0.4542
1448.000000 0.4530 0.4314 0.3958 0.3862 0.3823
1453.000000 0.3972 0.4139 0.4305 0.4472 0.4638
1458.000000 0.4805 0.4972 0.5138 0.5305 0.5471
1463.000000 0.5638 0.5710 0.5768 0.5781 0.5783
1468.000000 0.5766 0.5750 0.5736 0.5735 0.5734
1473.000000 0.5747 0.5776 0.5812 0.5887 0.5970
1478.000000 0.6154 0.6291 0.6414 0.6510 0.6606
1483.000000 0.6686 0.6765 0.6821 0.6875 0.6912
1488.000000 0.6941 0.6968 0.7008 0.6994 0.6995
1493.000000 0.6992 0.6980 0.6964 0.6948 0.6931
1498.000000 0.6900 0.6865 0.6831 0.6796 0.6761
1503.000000 0.6728 0.6693 0.6658 0.6624 0.6590
1508.000000 0.6556 0.6521 0.6487 0.6453 0.6418
1513.000000 0.6384 0.6349 0.6315 0.6281 0.6246
1518.000000 0.6212 0.6173 0.6134 0.6098 0.6062
1523.000000 0.6026 0.5990 0.5952 0.5912 0.5872
1528.000000 0.5832 0.5778 0.5712 0.5646 0.5580
1533.000000 0.5512 0.5443 0.5345 0.5247 0.5149
1538.000000 0.5051 0.4953 0.4855 0.4757 0.4660
1543.000000 0.4562 0.4476 0.4393 0.4323 0.4277
1548.000000 0.4277 0.4277 0.4282 0.4297 0.4322
1553.000000 0.4359 0.4401 0.4445 0.4492 0.4554
1558.000000 0.4646 0.4737 0.4828 0.4919 0.5010
1563.000000 0.5102 0.5193 0.5284 0.5375 0.5466
1568.000000 0.5558 0.5649 0.5724 0.5760 0.5785
1573.000000 0.5810 0.5830 0.5844 0.5862 0.5880
1578.000000 0.5899 0.5919 0.5940 0.5960 0.5981
1583.000000 0.6010 0.6042 0.6074 0.6115 0.6162
1588.000000 0.6210 0.6289 0.6370 0.6461 0.6554
1593.000000 0.6651 0.6758 0.6865 0.6926 0.6983
1598.000000 0.7039 0.7098 0.7164 0.7230 0.7296
1603.000000 0.7365 0.7434 0.7504 0.7575 0.7605
1608.000000 0.7625 0.7647 0.7667 0.7681 0.7695
1613.000000 0.7707 0.7711 0.7715 0.7721 0.7725
1618.000000 0.7731 0.7736 0.7741 0.7746 0.7751
1623.000000 0.7758 0.7765 0.7771 0.7778 0.7786
1628.000000 0.7793 0.7805 0.7821 0.7839 0.7857
1633.000000 0.7875 0.7894 0.7914 0.7934 0.7955
1638.000000 0.7972 0.7991 0.8005 0.8014 0.8024
1643.000000 0.8033 0.8042 0.8051 0.8058 0.8067
1648.000000 0.8075 0.8083 0.8090 0.8097 0.8103
1653.000000 0.8110 0.8115 0.8121 0.8128 0.8134
1658.000000 0.8141 0.8147 0.8153 0.8160 0.8165
1663.000000 0.8171 0.8178 0.8185 0.8192 0.8199
1668.000000 0.8206 0.8212 0.8218 0.8225 0.8233
1673.000000 0.8240 0.8245 0.8248 0.8250 0.8252
1678.000000 0.8254 0.8256 0.8249 0.8242 0.8234
1683.000000 0.8225 0.8215 0.8206 0.8196 0.8181
1688.000000 0.8162 0.8146 0.8128 0.8111 0.8078
1693.000000 0.8048 0.8015 0.7985 0.7950 0.7911
1698.000000 0.7872 0.7835 0.7796 0.7758 0.7710
1703.000000 0.7655 0.7600 0.7545 0.7490 0.7435
1708.000000 0.7378 0.7324 0.7274 0.7225 0.7176
1713.000000 0.7128 0.7085 0.7041 0.6998 0.6942
1718.000000 0.6886 0.6824 0.6747 0.6649 0.6542
1723.000000 0.6216 0.5831 0.5662 0.5652 0.5652
1728.000000 0.5657 0.5672 0.5766 0.5862 0.5960
1733.000000 0.6058 0.6155 0.6250 0.6250 0.6241
1738.000000 0.6221 0.6103 0.5993 0.5884 0.5774
1743.000000 0.5665 0.5555 0.5536 0.5545 0.5566
1748.000000 0.5607 0.5891 0.6338 0.6785 0.7247
1753.000000 0.7390 0.7468 0.7554 0.7646 0.7751
1758.000000 0.7922 0.8003 0.8081 0.8141 0.8200
1763.000000 0.8251 0.8294 0.8327 0.8347 0.8368
1768.000000 0.8388 0.8409 0.8421 0.8433 0.8445
1773.000000 0.8458 0.8470 0.8483 0.8493 0.8499
1778.000000 0.8505 0.8511 0.8517 0.8523 0.8528
1783.000000 0.8533 0.8536 0.8539 0.8542 0.8545
1788.000000 0.8548 0.8551 0.8553 0.8556 0.8559
1793.000000 0.8562 0.8564 0.8567 0.8570 0.8574
1798.000000 0.8578 0.8582 0.8584 0.8584 0.8584
1803.000000 0.8584 0.8584 0.8584 0.8583 0.8583
1808.000000 0.8582 0.8581 0.8580 0.8578 0.8575
1813.000000 0.8571 0.8568 0.8566 0.8563 0.8561
1818.000000 0.8558 0.8555 0.8552 0.8549 0.8546
1823.000000 0.8543 0.8540 0.8537 0.8534 0.8533
1828.000000 0.8533 0.8533 0.8534 0.8536 0.8537
1833.000000 0.8538 0.8540 0.8542 0.8544 0.8546
1838.000000 0.8546 0.8546 0.8546 0.8546 0.8546
1843.000000 0.8546 0.8545 0.8544 0.8544 0.8545
1848.000000 0.8546 0.8547 0.8548 0.8551 0.8553
1853.000000 0.8556 0.8558 0.8560 0.8563 0.8568
1858.000000 0.8573 0.8577 0.8581 0.8583 0.8585
1863.000000 0.8587 0.8589 0.8590 0.8592 0.8595
1868.000000 0.8597 0.8599 0.8602 0.8604 0.8607
1873.000000 0.8609 0.8612 0.8614 0.8616 0.8618
1878.000000 0.8621 0.8623 0.8625 0.8625 0.8628
1883.000000 0.8628 0.8631 0.8632 0.8634 0.8635
1888.000000 0.8637 0.8638 0.8641 0.8644 0.8646
1893.000000 0.8649 0.8651 0.8654 0.8656 0.8658
1898.000000 0.8658 0.8657 0.8652 0.8647 0.8641
1903.000000 0.8637 0.8633 0.8628 0.8627 0.8625
1908.000000 0.8625 0.8624 0.8623 0.8621 0.8621
1913.000000 0.8624 0.8625 0.8628 0.8628 0.8631
1918.000000 0.8632 0.8631 0.8631 0.8631 0.8630
1923.000000 0.8630 0.8630 0.8630 0.8631 0.8632
1928.000000 0.8633 0.8639 0.8654 0.8670 0.8689
1933.000000 0.8706 0.8701 0.8691 0.8681 0.8671
1938.000000 0.8661 0.8652 0.8644 0.8638 0.8633
1943.000000 0.8627 0.8624 0.8624 0.8625 0.8633
1948.000000 0.8640 0.8648 0.8656 0.8667 0.8678
1953.000000 0.8671 0.8665 0.8659 0.8656 0.8653
1958.000000 0.8650 0.8650 0.8650 0.8650 0.8651
1963.000000 0.8651 0.8650 0.8647 0.8644 0.8640
1968.000000 0.8637 0.8634 0.8631 0.8628 0.8623
1973.000000 0.8618 0.8615 0.8611 0.8607 0.8603
1978.000000 0.8599 0.8595 0.8592 0.8589 0.8587
1983.000000 0.8585 0.8582 0.8580 0.8577 0.8575
1988.000000 0.8573 0.8570 0.8568 0.8565 0.8563
1993.000000 0.8560 0.8557 0.8555 0.8552 0.8568
1998.000000 0.8604 0.8639 0.8675 0.8710 0.8746
2003.000000 0.8763 0.8781 0.8778 0.8775 0.8774
2008.000000 0.8773 0.8771 0.8768 0.8766 0.8764
2013.000000 0.8761 0.8759 0.8759 0.8759 0.8762
2018.000000 0.8765 0.8768 0.8771 0.8775 0.8780
2023.000000 0.8781 0.8782 0.8782 0.8782 0.8782
2028.000000 0.8782 0.8782 0.8782 0.8782 0.8782
2033.000000 0.8781 0.8781 0.8781 0.8781 0.8780
2038.000000 0.8780 0.8780 0.8780 0.8780 0.8780
2043.000000 0.8780 0.8781 0.8781 0.8782 0.8782
2048.000000 0.8783 0.8783 0.8784 0.8785 0.8786
2053.000000 0.8786 0.8787 0.8788 0.8789 0.8790
2058.000000 0.8791 0.8792 0.8793 0.8794 0.8796
2063.000000 0.8797 0.8798 0.8799 0.8801 0.8802
2068.000000 0.8804 0.8805 0.8806 0.8807 0.8809
2073.000000 0.8810 0.8812 0.8812 0.8812 0.8810
2078.000000 0.8808 0.8806 0.8805 0.8803 0.8810
2083.000000 0.8799 0.8797 0.8795 0.8794 0.8792
2088.000000 0.8791 0.8790 0.8789 0.8787 0.8786
2093.000000 0.8784 0.8783 0.8782 0.8781 0.8780
2098.000000 0.8778 0.8777 0.8775 0.8775 0.8774
2103.000000 0.8773 0.8771 0.8771 0.8770 0.8768
2108.000000 0.8768 0.8767 0.8766 0.8765 0.8765
2113.000000 0.8764 0.8763 0.8762 0.8762 0.8761
2118.000000 0.8761 0.8760 0.8759 0.8758 0.8758
2123.000000 0.8757 0.8756 0.8754 0.8753 0.8752
2128.000000 0.8751 0.8749 0.8748 0.8747 0.8746
2133.000000 0.8744 0.8743 0.8742 0.8741 0.8739
2138.000000 0.8738 0.8737 0.8736 0.8734 0.8733
2143.000000 0.8732 0.8731 0.8730 0.8728 0.8728
2148.000000 0.8728 0.8727 0.8725 0.8725 0.8724
2153.000000 0.8723 0.8721 0.8721 0.8721 0.8720
2158.000000 0.8718 0.8718 0.8717 0.8716 0.8716
2163.000000 0.8715 0.8714 0.8713 0.8712 0.8711
2168.000000 0.8711 0.8710 0.8709 0.8708 0.8708
2173.000000 0.8708 0.8709 0.8710 0.8712 0.8713
2178.000000 0.8714 0.8715 0.8717 0.8718 0.8720
2183.000000 0.8721 0.8723 0.8724 0.8725 0.8727
2188.000000 0.8728 0.8728 0.8730 0.8731 0.8732
2193.000000 0.8732 0.8733 0.8733 0.8734 0.8734
2198.000000 0.8735 0.8735 0.8736 0.8737 0.8738
2203.000000 0.8738 0.8738 0.8738 0.8738 0.8738
2208.000000 0.8738 0.8738 0.8738 0.8738 0.8738
2213.000000 0.8738 0.8738 0.8738 0.8738 0.8737
2218.000000 0.8736 0.8735 0.8734 0.8732 0.8731
2223.000000 0.8728 0.8728 0.8725 0.8725 0.8723
2228.000000 0.8721 0.8720 0.8718 0.8717 0.8716
2233.000000 0.8715 0.8714 0.8712 0.8711 0.8709
2238.000000 0.8708 0.8706 0.8705 0.8703 0.8702
2243.000000 0.8700 0.8699 0.8696 0.8694 0.8691
2248.000000 0.8689 0.8686 0.8684 0.8681 0.8678
2253.000000 0.8675 0.8673 0.8670 0.8667 0.8664
2258.000000 0.8662 0.8659 0.8657 0.8654 0.8651
2263.000000 0.8648 0.8646 0.8642 0.8638 0.8633
2268.000000 0.8628 0.8624 0.8620 0.8615 0.8611
2273.000000 0.8606 0.8602 0.8597 0.8593 0.8590
2278.000000 0.8587 0.8584 0.8582 0.8580 0.8578
2283.000000 0.8575 0.8573 0.8571 0.8568 0.8567
2288.000000 0.8567 0.8567 0.8568 0.8570 0.8571
2293.000000 0.8573 0.8575 0.8575 0.8578 0.8578
2298.000000 0.8581 0.8582 0.8584 0.8584 0.8584
2303.000000 0.8584 0.8584 0.8584 0.8584 0.8584
2308.000000 0.8584 0.8584 0.8584 0.8581 0.8578
2313.000000 0.8575 0.8571 0.8568 0.8567 0.8564
2318.000000 0.8561 0.8560 0.8560 0.8560 0.8561
2323.000000 0.8561 0.8562 0.8563 0.8564 0.8568
2328.000000 0.8571 0.8575 0.8578 0.8594 0.8609
2333.000000 0.8625 0.8641 0.8651 0.8661 0.8657
2338.000000 0.8653 0.8646 0.8640 0.8635 0.8630
2343.000000 0.8625 0.8620 0.8618 0.8616 0.8636
2348.000000 0.8656 0.8675 0.8694 0.8708 0.8723
2353.000000 0.8730 0.8738 0.8739 0.8740 0.8740
2358.000000 0.8740 0.8740 0.8740 0.8740 0.8740
2363.000000 0.8740 0.8740 0.8740 0.8740 0.8739
2368.000000 0.8739 0.8738 0.8738 0.8737 0.8737
2373.000000 0.8736 0.8736 0.8735 0.8735 0.8734
2378.000000 0.8733 0.8732 0.8732 0.8731 0.8731
2383.000000 0.8730 0.8728 0.8728 0.8728 0.8727
2388.000000 0.8727 0.8725 0.8725 0.8723 0.8721
2393.000000 0.8720 0.8718 0.8717 0.8716 0.8714
2398.000000 0.8713 0.8711 0.8710 0.8708 0.8707
2403.000000 0.8706 0.8705 0.8703 0.8702 0.8700
2408.000000 0.8699 0.8698 0.8697 0.8695 0.8694
2413.000000 0.8692 0.8691 0.8690 0.8689 0.8687
2418.000000 0.8686 0.8685 0.8684 0.8682 0.8681
2423.000000 0.8680 0.8678 0.8677 0.8675 0.8673
2428.000000 0.8670 0.8666 0.8663 0.8660 0.8657
2433.000000 0.8654 0.8651 0.8647 0.8644 0.8641
2438.000000 0.8638 0.8634 0.8631 0.8628 0.8625
2443.000000 0.8621 0.8618 0.8615 0.8612 0.8609
2448.000000 0.8606 0.8603 0.8600 0.8597 0.8594
2453.000000 0.8591 0.8588 0.8585 0.8582 0.8578
2458.000000 0.8575 0.8573 0.8570 0.8567 0.8564
2463.000000 0.8561 0.8559 0.8556 0.8553 0.8550
