##TITLE=ETHYLENE CARBONATE
##JCAMP-DX=4.24
##DATA TYPE=INFRARED SPECTRUM
##CLASS=COBLENTZ
##ORIGIN=WYANDOTTE CHEMICALS CORP., WYANDOTTE, MICHIGAN, USA
##OWNER=COBLENTZ SOCIETY
Collection (C) 2018 copyright by the U.S. Secretary of Commerce
on behalf of the United States of America. All rights reserved.
##DATE=Not specified, most likely prior to 1970
##NAMES=1,3-dioxolan-2-one
CYCLIC ETHYLENE CARBONATE
##CAS REGISTRY NO=96-49-1
##MOLFORM=C3 H4 O3
##BP=248 C
##SOURCE REFERENCE=COBLENTZ NO. 110
##$NIST SOURCE=COBLENTZ
##$NIST IMAGE=cob110
##SPECTROMETER/DATA SYSTEM=Not specified, most likely a prism, grating, or hybrid spectrometer.
##STATE=SOLID
$$ PURITY 97+%
##PATH LENGTH=SMEAR
##SAMPLING PROCEDURE=TRANSMISSION
##RESOLUTION=4
##DATA PROCESSING=DIGITIZED BY NIST FROM HARD COPY
##XUNITS=MICROMETERS
##YUNITS=TRANSMITTANCE
##XFACTOR=1.000000
##YFACTOR=1
##DELTAX=000.006652
##FIRSTX=2.011
##LASTX=16.0066
##FIRSTY=0.968
##MAXX=16.0066
##MINX=2.011
##MAXY=0.981
##MINY=0.014
##NPOINTS=2105
##XYDATA=(X++(Y..Y))
2.011000 0.9680 0.9680 0.9680 0.9680 0.9700
2.044275 0.9700 0.9730 0.9750 0.9750 0.9730
2.078000 0.9750 0.9750 0.9750 0.9760 0.9750
2.111275 0.9750 0.9750 0.9750 0.9750 0.9760
2.144000 0.9760 0.9760 0.9760 0.9760 0.9760
2.177275 0.9760 0.9760 0.9760 0.9760 0.9760
2.211000 0.9750 0.9730 0.9700 0.9660 0.9650
2.244275 0.9630 0.9630 0.9630 0.9630 0.9630
2.277000 0.9630 0.9630 0.9650 0.9660 0.9680
2.310275 0.9700 0.9700 0.9710 0.9730 0.9750
2.344000 0.9750 0.9750 0.9750 0.9750 0.9750
2.377275 0.9750 0.9750 0.9750 0.9750 0.9750
2.410000 0.9750 0.9750 0.9750 0.9750 0.9750
2.443275 0.9730 0.9710 0.9710 0.9710 0.9710
2.477000 0.9710 0.9710 0.9710 0.9710 0.9710
2.510275 0.9710 0.9730 0.9730 0.9730 0.9730
2.543000 0.9730 0.9730 0.9730 0.9730 0.9730
2.576275 0.9730 0.9730 0.9730 0.9730 0.9730
2.610000 0.9750 0.9750 0.9750 0.9750 0.9760
2.643275 0.9760 0.9760 0.9760 0.9760 0.9760
2.676000 0.9760 0.9760 0.9760 0.9760 0.9760
2.709275 0.9760 0.9750 0.9730 0.9730 0.9680
2.743000 0.9630 0.9550 0.9450 0.9330 0.9200
2.776275 0.9060 0.8920 0.8780 0.8630 0.8480
2.809000 0.8350 0.8220 0.8080 0.8000 0.7940
2.842275 0.7920 0.7920 0.7920 0.7920 0.7920
2.876000 0.7940 0.8000 0.8070 0.8170 0.8270
2.909275 0.8350 0.8430 0.8470 0.8530 0.8580
2.942000 0.8630 0.8670 0.8680 0.8720 0.8730
2.975275 0.8730 0.8750 0.8730 0.8750 0.8750
3.009000 0.8770 0.8770 0.8780 0.8800 0.8820
3.042275 0.8830 0.8850 0.8880 0.8900 0.8950
3.075000 0.8970 0.9000 0.9030 0.9050 0.9060
3.108275 0.9100 0.9110 0.9150 0.9160 0.9180
3.142000 0.9210 0.9250 0.9260 0.9280 0.9300
3.175275 0.9310 0.9330 0.9350 0.9380 0.9410
3.208000 0.9410 0.9410 0.9410 0.9410 0.9410
3.241275 0.9410 0.9410 0.9410 0.9380 0.9360
3.275000 0.9350 0.9310 0.9280 0.9200 0.9110
3.308275 0.9010 0.8850 0.8650 0.8380 0.8070
3.341000 0.7690 0.7240 0.6740 0.6710 0.6710
3.374275 0.6740 0.7520 0.7540 0.7550 0.7550
3.408000 0.7400 0.6510 0.6440 0.6440 0.6610
3.441275 0.7270 0.7740 0.8050 0.8270 0.8380
3.475000 0.8430 0.8480 0.8520 0.8580 0.8670
3.508275 0.8750 0.8830 0.8970 0.9060 0.9150
3.541000 0.9230 0.9300 0.9360 0.9430 0.9450
3.574275 0.9460 0.9460 0.9480 0.9500 0.9500
3.608000 0.9500 0.9500 0.9510 0.9510 0.9510
3.641275 0.9530 0.9550 0.9580 0.9580 0.9600
3.674000 0.9600 0.9610 0.9610 0.9610 0.9610
3.707275 0.9610 0.9610 0.9600 0.9580 0.9560
3.741000 0.9550 0.9530 0.9530 0.9530 0.9550
3.774275 0.9610 0.9650 0.9660 0.9660 0.9680
3.807000 0.9680 0.9700 0.9700 0.9710 0.9710
3.840275 0.9710 0.9710 0.9710 0.9730 0.9730
3.874000 0.9730 0.9730 0.9710 0.9710 0.9710
3.907275 0.9710 0.9700 0.9680 0.9680 0.9630
3.940000 0.9560 0.9510 0.9480 0.9450 0.9410
3.973275 0.9400 0.9380 0.9360 0.9330 0.9330
4.007000 0.9330 0.9360 0.9380 0.9410 0.9480
4.040275 0.9500 0.9510 0.9550 0.9580 0.9580
4.073000 0.9600 0.9610 0.9610 0.9650 0.9660
4.106275 0.9750 0.9780 0.9800 0.9800 0.9810
4.140000 0.9810 0.9810 0.9810 0.9810 0.9810
4.173275 0.9810 0.9810 0.9810 0.9810 0.9800
4.206000 0.9800 0.9780 0.9750 0.9710 0.9660
4.239275 0.9610 0.9550 0.9410 0.9310 0.9130
4.273000 0.8970 0.8750 0.8670 0.8620 0.8600
4.306275 0.8600 0.8550 0.8530 0.8430 0.8420
4.339000 0.8420 0.8420 0.8430 0.8550 0.8670
4.372275 0.8800 0.8930 0.9060 0.9200 0.9310
4.406000 0.9400 0.9460 0.9500 0.9510 0.9550
4.439275 0.9580 0.9580 0.9600 0.9600 0.9600
4.472000 0.9600 0.9610 0.9630 0.9630 0.9630
4.505275 0.9650 0.9650 0.9650 0.9680 0.9700
4.539000 0.9710 0.9750 0.9760 0.9780 0.9780
4.572275 0.9780 0.9780 0.9780 0.9780 0.9780
4.605000 0.9780 0.9780 0.9780 0.9780 0.9780
4.638275 0.9780 0.9780 0.9780 0.9780 0.9780
4.672000 0.9780 0.9780 0.9780 0.9780 0.9780
4.705275 0.9780 0.9780 0.9780 0.9760 0.9760
4.738000 0.9760 0.9760 0.9750 0.9750 0.9750
4.771275 0.9750 0.9750 0.9730 0.9710 0.9660
4.805000 0.9600 0.9580 0.9530 0.9500 0.9460
4.838275 0.9400 0.9330 0.9260 0.9200 0.9130
4.871000 0.9050 0.9010 0.8980 0.8980 0.8970
4.904275 0.8950 0.8950 0.8970 0.8970 0.9010
4.938000 0.9050 0.9080 0.9110 0.9150 0.9180
4.971275 0.9210 0.9250 0.9260 0.9300 0.9310
5.004000 0.9350 0.9350 0.9330 0.9330 0.9330
5.037275 0.9300 0.9200 0.9080 0.8830 0.8530
5.071000 0.8200 0.7900 0.7650 0.7440 0.7000
5.104275 0.6920 0.6920 0.6970 0.7370 0.7690
5.137000 0.7990 0.8200 0.8320 0.8380 0.8470
5.170275 0.8550 0.8580 0.8620 0.8620 0.8630
5.204000 0.8630 0.8600 0.8580 0.8520 0.8450
5.237275 0.8380 0.8320 0.8230 0.8170 0.8080
5.271000 0.7990 0.7870 0.7750 0.7600 0.7440
5.304275 0.7240 0.7020 0.6790 0.6510 0.6210
5.337000 0.5860 0.5480 0.5040 0.4560 0.4110
5.370275 0.3870 0.3600 0.3570 0.3570 0.3600
5.404000 0.3600 0.3600 0.3600 0.3580 0.3420
5.437275 0.3220 0.3000 0.2770 0.2520 0.2250
5.470000 0.1970 0.1710 0.1410 0.1110 0.0810
5.503275 0.0540 0.0390 0.0310 0.0240 0.0190
5.537000 0.0180 0.0160 0.0140 0.0140 0.0140
5.570275 0.0140 0.0140 0.0190 0.0260 0.0360
5.603000 0.0560 0.0590 0.0590 0.0580 0.0330
5.636275 0.0240 0.0240 0.0240 0.0280 0.0560
5.670000 0.0880 0.1290 0.1910 0.2400 0.2820
5.703275 0.3170 0.3450 0.3680 0.3880 0.4050
5.736000 0.4200 0.4410 0.4680 0.4960 0.5290
5.769275 0.5630 0.5940 0.6260 0.6560 0.6790
5.803000 0.7000 0.7170 0.7290 0.7400 0.7450
5.836275 0.7500 0.7500 0.7520 0.7520 0.7520
5.869000 0.7520 0.7500 0.7450 0.7390 0.7340
5.902275 0.7300 0.7270 0.7270 0.7270 0.7300
5.936000 0.7420 0.7470 0.7500 0.7540 0.7620
5.969275 0.7740 0.7840 0.7840 0.7920 0.7950
6.002000 0.8130 0.8300 0.8420 0.8500 0.8580
6.035275 0.8680 0.8770 0.8870 0.8970 0.9050
6.069000 0.9110 0.9180 0.9200 0.9210 0.9250
6.102275 0.9310 0.9350 0.9380 0.9410 0.9410
6.135000 0.9430 0.9430 0.9460 0.9480 0.9480
6.168275 0.9480 0.9500 0.9510 0.9510 0.9510
6.202000 0.9510 0.9510 0.9480 0.9430 0.9400
6.235275 0.9380 0.9330 0.9260 0.9200 0.9150
6.268000 0.9110 0.9080 0.9080 0.9100 0.9200
6.301275 0.9260 0.9330 0.9380 0.9430 0.9450
6.335000 0.9480 0.9460 0.9430 0.9410 0.9380
6.368275 0.9330 0.9260 0.9180 0.9050 0.8850
6.401000 0.8600 0.8270 0.7820 0.7550 0.7170
6.434275 0.7100 0.7100 0.7140 0.7350 0.7520
6.468000 0.7700 0.7890 0.7970 0.8130 0.8280
6.501275 0.8430 0.8550 0.8670 0.8730 0.8780
6.534000 0.8850 0.8880 0.8900 0.8920 0.8920
6.567275 0.8920 0.8900 0.8900 0.8900 0.8880
6.601000 0.8850 0.8770 0.8670 0.8470 0.8280
6.634275 0.8080 0.7920 0.7750 0.7570 0.7400
6.667000 0.7240 0.7050 0.6810 0.6590 0.6310
6.700275 0.6010 0.5630 0.5160 0.4510 0.4030
6.734000 0.3700 0.3650 0.3670 0.3920 0.4300
6.767275 0.4780 0.5360 0.5960 0.6260 0.6760
6.800000 0.7320 0.7540 0.7670 0.7800 0.7950
6.833275 0.7990 0.8020 0.8020 0.8030 0.8030
6.867000 0.8070 0.8120 0.8180 0.8220 0.8220
6.900275 0.8220 0.8220 0.8200 0.8180 0.8130
6.933000 0.8100 0.8080 0.8080 0.8030 0.8000
6.966275 0.7970 0.7900 0.7820 0.7590 0.7390
7.000000 0.7070 0.6690 0.6260 0.6040 0.5830
7.033275 0.5730 0.5710 0.5730 0.6010 0.6320
7.067000 0.6570 0.6720 0.6740 0.6720 0.6690
7.100275 0.6540 0.6340 0.6040 0.5740 0.5330
7.133000 0.4780 0.4250 0.3770 0.3370 0.2870
7.166275 0.2520 0.2220 0.2000 0.1990 0.1990
7.200000 0.2000 0.2270 0.2670 0.3070 0.3470
7.233275 0.3880 0.4280 0.4650 0.5010 0.5340
7.266000 0.5630 0.5960 0.6240 0.6410 0.6520
7.299275 0.6570 0.6640 0.6740 0.6820 0.6870
7.333000 0.6940 0.6990 0.7050 0.7150 0.7250
7.366275 0.7370 0.7490 0.7590 0.7690 0.7820
7.399000 0.7900 0.7950 0.8000 0.8070 0.8120
7.432275 0.8150 0.8220 0.8270 0.8320 0.8380
7.466000 0.8420 0.8470 0.8500 0.8520 0.8530
7.499275 0.8550 0.8580 0.8580 0.8600 0.8620
7.532000 0.8630 0.8630 0.8650 0.8650 0.8650
7.565275 0.8650 0.8630 0.8630 0.8630 0.8630
7.599000 0.8620 0.8600 0.8580 0.8570 0.8550
7.632275 0.8530 0.8530 0.8520 0.8530 0.8520
7.665000 0.8500 0.8500 0.8480 0.8450 0.8400
7.698275 0.8350 0.8320 0.8300 0.8280 0.8230
7.732000 0.8180 0.8130 0.8080 0.8020 0.8000
7.765275 0.7970 0.7920 0.7890 0.7850 0.7820
7.798000 0.7770 0.7690 0.7550 0.7540 0.7450
7.831275 0.7390 0.7300 0.7240 0.7150 0.7070
7.865000 0.6990 0.6890 0.6810 0.6710 0.6610
7.898275 0.6520 0.6470 0.6440 0.6390 0.6340
7.931000 0.6320 0.6310 0.6310 0.6310 0.6310
7.964275 0.6310 0.6320 0.6390 0.6410 0.6410
7.998000 0.6410 0.6410 0.6410 0.6410 0.6390
8.031275 0.6320 0.6260 0.6210 0.6140 0.6090
8.064000 0.6020 0.5980 0.5930 0.5860 0.5790
8.097275 0.5730 0.5660 0.5560 0.5460 0.5340
8.131000 0.5230 0.5090 0.4980 0.4860 0.4750
8.164275 0.4650 0.4560 0.4460 0.4380 0.4330
8.197000 0.4310 0.4310 0.4310 0.4310 0.4330
8.230275 0.4450 0.4510 0.4560 0.4610 0.4630
8.264000 0.4680 0.4700 0.4710 0.4710 0.4710
8.297275 0.4710 0.4710 0.4700 0.4630 0.4400
8.330000 0.4200 0.4130 0.4010 0.3900 0.3730
8.363275 0.3570 0.3380 0.3280 0.3100 0.2890
8.397000 0.2650 0.2470 0.2370 0.2140 0.1990
8.430275 0.1820 0.1670 0.1540 0.1410 0.1290
8.463000 0.1170 0.1070 0.0990 0.0910 0.0830
8.496275 0.0760 0.0710 0.0660 0.0610 0.0580
8.530000 0.0540 0.0510 0.0510 0.0490 0.0440
8.563275 0.0430 0.0410 0.0390 0.0390 0.0390
8.596000 0.0390 0.0390 0.0390 0.0390 0.0410
8.629275 0.0430 0.0460 0.0480 0.0530 0.0630
8.663000 0.0710 0.0810 0.0880 0.0980 0.1070
8.696275 0.1210 0.1320 0.1470 0.1620 0.1760
8.729000 0.1910 0.2020 0.2170 0.2320 0.2440
8.762275 0.2550 0.2690 0.2790 0.2900 0.3020
8.796000 0.3150 0.3280 0.3420 0.3550 0.3650
8.829275 0.3750 0.3850 0.3930 0.4030 0.4110
8.863000 0.4200 0.4260 0.4350 0.4410 0.4480
8.896275 0.4530 0.4600 0.4630 0.4660 0.4700
8.929000 0.4730 0.4760 0.4780 0.4810 0.4830
8.962275 0.4850 0.4850 0.4860 0.4880 0.4900
8.996000 0.4910 0.4910 0.4900 0.4900 0.4880
9.029275 0.4860 0.4850 0.4800 0.4760 0.4710
9.062000 0.4650 0.4560 0.4480 0.4400 0.4300
9.095275 0.4180 0.4050 0.3900 0.3750 0.3570
9.129000 0.3380 0.3180 0.2970 0.2740 0.2490
9.162275 0.2220 0.1920 0.1710 0.1490 0.1360
9.195000 0.1090 0.0940 0.0840 0.0730 0.0640
9.228275 0.0540 0.0490 0.0440 0.0390 0.0360
9.262000 0.0330 0.0310 0.0310 0.0290 0.0290
9.295275 0.0290 0.0280 0.0280 0.0280 0.0280
9.328000 0.0280 0.0290 0.0290 0.0310 0.0360
9.361275 0.0460 0.0560 0.0690 0.0830 0.0980
9.395000 0.1170 0.1370 0.1620 0.1910 0.2140
9.428275 0.2370 0.2590 0.2800 0.3000 0.3200
9.461000 0.3400 0.3580 0.3770 0.3950 0.4110
9.494275 0.4280 0.4450 0.4600 0.4730 0.4860
9.528000 0.5000 0.5130 0.5240 0.5340 0.5460
9.561275 0.5540 0.5640 0.5710 0.5760 0.5830
9.594000 0.5880 0.5940 0.5980 0.6010 0.6040
9.627275 0.6090 0.6140 0.6190 0.6240 0.6270
9.661000 0.6320 0.6340 0.6370 0.6390 0.6410
9.694275 0.6440 0.6460 0.6490 0.6490 0.6510
9.727000 0.6540 0.6520 0.6560 0.6560 0.6570
9.760275 0.6570 0.6590 0.6570 0.6590 0.6590
9.794000 0.6590 0.6590 0.6590 0.6590 0.6610
9.827275 0.6620 0.6620 0.6640 0.6670 0.6690
9.860000 0.6710 0.6720 0.6740 0.6760 0.6790
9.893275 0.6810 0.6840 0.6890 0.6920 0.6970
9.927000 0.6990 0.7020 0.7040 0.7090 0.7120
9.960275 0.7150 0.7170 0.7190 0.7220 0.7240
9.993000 0.7240 0.7240 0.7250 0.7250 0.7250
10.026275 0.7270 0.7250 0.7250 0.7250 0.7240
10.060000 0.7220 0.7200 0.7190 0.7140 0.7090
10.093275 0.7020 0.6990 0.6960 0.6890 0.6810
10.126000 0.6720 0.6620 0.6520 0.6410 0.6270
10.159275 0.6140 0.5990 0.5830 0.5640 0.5430
10.193000 0.5210 0.4960 0.4700 0.4410 0.4080
10.226275 0.3870 0.3600 0.3370 0.3150 0.2970
10.259000 0.2840 0.2750 0.2700 0.2650 0.2640
10.292275 0.2640 0.2650 0.2720 0.2820 0.3000
10.326000 0.3250 0.3470 0.3720 0.3980 0.4260
10.359275 0.4510 0.4800 0.5110 0.5390 0.5660
10.392000 0.5890 0.6120 0.6320 0.6510 0.6690
10.425275 0.6860 0.6990 0.7140 0.7270 0.7390
10.459000 0.7500 0.7600 0.7740 0.7820 0.7900
10.492275 0.7970 0.8000 0.8050 0.8080 0.8120
10.525000 0.8170 0.8220 0.8250 0.8280 0.8320
10.558275 0.8350 0.8380 0.8380 0.8420 0.8450
10.592000 0.8480 0.8520 0.8570 0.8630 0.8650
10.625275 0.8670 0.8700 0.8730 0.8770 0.8800
10.659000 0.8820 0.8830 0.8850 0.8870 0.8880
10.692275 0.8900 0.8930 0.8950 0.8970 0.8980
10.725000 0.9000 0.9000 0.9010 0.9010 0.9030
10.758275 0.9050 0.9050 0.9060 0.9060 0.9080
10.792000 0.9080 0.9100 0.9100 0.9100 0.9100
10.825275 0.9110 0.9130 0.9130 0.9130 0.9130
10.858000 0.9130 0.9130 0.9130 0.9130 0.9130
10.891275 0.9130 0.9130 0.9130 0.9130 0.9130
10.925000 0.9150 0.9130 0.9110 0.9130 0.9130
10.958275 0.9130 0.9130 0.9130 0.9110 0.9110
10.991000 0.9110 0.9110 0.9100 0.9080 0.9050
11.024275 0.9030 0.9010 0.8980 0.8950 0.8920
11.058000 0.8900 0.8830 0.8780 0.8720 0.8650
11.091275 0.8570 0.8470 0.8370 0.8250 0.8120
11.124000 0.7970 0.7790 0.7620 0.7420 0.7200
11.157275 0.6990 0.6770 0.6560 0.6360 0.6170
11.191000 0.5990 0.5990 0.6010 0.6090 0.6260
11.224275 0.6440 0.6690 0.6990 0.7270 0.7540
11.257000 0.7720 0.7900 0.8020 0.8130 0.8230
11.290275 0.8300 0.8370 0.8420 0.8480 0.8530
11.324000 0.8580 0.8630 0.8670 0.8680 0.8700
11.357275 0.8720 0.8730 0.8730 0.8730 0.8750
11.390000 0.8770 0.8780 0.8800 0.8820 0.8850
11.423275 0.8870 0.8880 0.8900 0.8920 0.8930
11.457000 0.8950 0.8980 0.9000 0.9000 0.9010
11.490275 0.9010 0.9010 0.9030 0.9050 0.9060
11.523000 0.9080 0.9080 0.9080 0.9080 0.9080
11.556275 0.9080 0.9080 0.9080 0.9080 0.9080
11.590000 0.9080 0.9080 0.9080 0.9100 0.9100
11.623275 0.9100 0.9100 0.9100 0.9100 0.9110
11.656000 0.9110 0.9100 0.9110 0.9110 0.9130
11.689275 0.9130 0.9130 0.9130 0.9150 0.9150
11.723000 0.9150 0.9150 0.9150 0.9150 0.9160
11.756275 0.9160 0.9160 0.9160 0.9160 0.9160
11.789000 0.9160 0.9160 0.9160 0.9180 0.9180
11.822275 0.9180 0.9180 0.9180 0.9180 0.9180
11.856000 0.9180 0.9180 0.9180 0.9200 0.9210
11.889275 0.9210 0.9230 0.9230 0.9250 0.9250
11.922000 0.9260 0.9260 0.9280 0.9280 0.9280
11.955275 0.9300 0.9300 0.9280 0.9280 0.9300
11.989000 0.9300 0.9310 0.9310 0.9310 0.9310
12.022275 0.9310 0.9310 0.9310 0.9310 0.9310
12.055000 0.9310 0.9310 0.9310 0.9310 0.9310
12.088275 0.9330 0.9330 0.9330 0.9330 0.9330
12.122000 0.9330 0.9330 0.9330 0.9330 0.9330
12.155275 0.9330 0.9330 0.9330 0.9310 0.9310
12.188000 0.9310 0.9310 0.9300 0.9310 0.9310
12.221275 0.9310 0.9310 0.9300 0.9300 0.9300
12.255000 0.9280 0.9280 0.9280 0.9280 0.9260
12.288275 0.9260 0.9260 0.9260 0.9260 0.9250
12.322000 0.9250 0.9230 0.9210 0.9210 0.9200
12.355275 0.9180 0.9180 0.9160 0.9160 0.9160
12.388000 0.9150 0.9150 0.9130 0.9110 0.9080
12.421275 0.9080 0.9080 0.9060 0.9030 0.9010
12.455000 0.9000 0.9000 0.9000 0.8980 0.8980
12.488275 0.8930 0.8900 0.8850 0.8820 0.8800
12.521000 0.8780 0.8750 0.8720 0.8670 0.8630
12.554275 0.8580 0.8550 0.8500 0.8450 0.8400
12.588000 0.8370 0.8320 0.8230 0.8180 0.8150
12.621275 0.8100 0.8020 0.7990 0.7970 0.7890
12.654000 0.7820 0.7740 0.7650 0.7570 0.7470
12.687275 0.7390 0.7270 0.7150 0.7040 0.6910
12.721000 0.6760 0.6590 0.6390 0.6190 0.5980
12.754275 0.5730 0.5440 0.5140 0.4810 0.4480
12.787000 0.4150 0.3850 0.3570 0.3300 0.3050
12.820275 0.2820 0.2620 0.2450 0.2290 0.2170
12.854000 0.2050 0.1990 0.1910 0.1820 0.1770
12.887275 0.1710 0.1690 0.1690 0.1710 0.1720
12.920000 0.1770 0.1860 0.1970 0.2100 0.2270
12.953275 0.2470 0.2670 0.2890 0.3130 0.3370
12.987000 0.3630 0.3900 0.4130 0.4400 0.4660
13.020275 0.4910 0.5160 0.5390 0.5590 0.5790
13.053000 0.6020 0.6210 0.6390 0.6520 0.6660
13.086275 0.6770 0.6870 0.6970 0.7070 0.7150
13.120000 0.7250 0.7340 0.7400 0.7470 0.7550
13.153275 0.7600 0.7670 0.7720 0.7750 0.7800
13.186000 0.7840 0.7870 0.7890 0.7940 0.7940
13.219275 0.7950 0.7950 0.7970 0.7970 0.7990
13.253000 0.7970 0.7970 0.7970 0.7970 0.7990
13.286275 0.8000 0.8020 0.8070 0.8100 0.8150
13.319000 0.8170 0.8180 0.8220 0.8270 0.8300
13.352275 0.8320 0.8330 0.8350 0.8370 0.8400
13.386000 0.8420 0.8430 0.8450 0.8480 0.8500
13.419275 0.8520 0.8520 0.8530 0.8550 0.8570
13.452000 0.8550 0.8570 0.8570 0.8580 0.8580
13.485275 0.8580 0.8580 0.8580 0.8580 0.8580
13.519000 0.8580 0.8580 0.8580 0.8580 0.8580
13.552275 0.8580 0.8580 0.8580 0.8580 0.8570
13.585000 0.8570 0.8570 0.8570 0.8530 0.8500
13.618275 0.8520 0.8480 0.8480 0.8430 0.8400
13.652000 0.8380 0.8370 0.8350 0.8320 0.8280
13.685275 0.8230 0.8220 0.8180 0.8170 0.8100
13.718000 0.8030 0.8000 0.7970 0.7900 0.7820
13.751275 0.7740 0.7650 0.7550 0.7450 0.7340
13.785000 0.7220 0.7070 0.6910 0.6740 0.6540
13.818275 0.6320 0.6070 0.5810 0.5580 0.5280
13.851000 0.4960 0.4650 0.4330 0.4030 0.3770
13.884275 0.3500 0.3270 0.3070 0.2900 0.2750
13.918000 0.2640 0.2520 0.2500 0.2500 0.2500
13.951275 0.2520 0.2600 0.2740 0.2920 0.3030
13.984000 0.3200 0.3430 0.3680 0.3970 0.4250
14.017275 0.4500 0.4710 0.4910 0.5130 0.5310
14.051000 0.5490 0.5690 0.5880 0.6060 0.6220
14.084275 0.6360 0.6470 0.6570 0.6670 0.6760
14.118000 0.6860 0.6920 0.7000 0.7050 0.7120
14.151275 0.7150 0.7220 0.7240 0.7270 0.7300
14.184000 0.7320 0.7340 0.7350 0.7370 0.7390
14.217275 0.7390 0.7390 0.7400 0.7400 0.7420
14.251000 0.7420 0.7420 0.7420 0.7420 0.7420
14.284275 0.7420 0.7400 0.7400 0.7400 0.7400
14.317000 0.7400 0.7400 0.7400 0.7400 0.7400
14.350275 0.7400 0.7400 0.7400 0.7400 0.7390
14.384000 0.7390 0.7390 0.7390 0.7390 0.7390
14.417275 0.7390 0.7400 0.7400 0.7400 0.7400
14.450000 0.7400 0.7420 0.7420 0.7420 0.7420
14.483275 0.7440 0.7440 0.7440 0.7440 0.7440
14.517000 0.7450 0.7470 0.7450 0.7470 0.7470
14.550275 0.7470 0.7490 0.7490 0.7500 0.7520
14.583000 0.7520 0.7520 0.7520 0.7540 0.7540
14.616275 0.7540 0.7550 0.7550 0.7570 0.7590
14.650000 0.7590 0.7590 0.7590 0.7590 0.7590
14.683275 0.7600 0.7600 0.7620 0.7600 0.7620
14.716000 0.7620 0.7620 0.7620 0.7620 0.7620
14.749275 0.7620 0.7620 0.7620 0.7640 0.7640
14.783000 0.7640 0.7640 0.7640 0.7640 0.7640
14.816275 0.7640 0.7640 0.7640 0.7640 0.7640
14.849000 0.7640 0.7640 0.7640 0.7640 0.7640
14.882275 0.7640 0.7640 0.7640 0.7640 0.7640
14.916000 0.7640 0.7640 0.7640 0.7640 0.7640
14.949275 0.7640 0.7640 0.7640 0.7640 0.7620
14.982000 0.7600 0.7600 0.7600 0.7590 0.7590
15.015275 0.7570 0.7550 0.7550 0.7550 0.7550
15.049000 0.7550 0.7550 0.7550 0.7550 0.7550
15.082275 0.7550 0.7550 0.7550 0.7550 0.7550
15.115000 0.7550 0.7550 0.7570 0.7550 0.7550
15.148275 0.7550 0.7550 0.7550 0.7550 0.7550
15.182000 0.7550 0.7550 0.7550 0.7550 0.7550
15.215275 0.7550 0.7550 0.7550 0.7550 0.7550
15.248000 0.7550 0.7550 0.7550 0.7540 0.7540
15.281275 0.7540 0.7540 0.7540 0.7540 0.7540
15.315000 0.7540 0.7540 0.7540 0.7540 0.7550
15.348275 0.7540 0.7540 0.7540 0.7540 0.7540
15.381000 0.7540 0.7540 0.7540 0.7540 0.7540
15.414275 0.7550 0.7550 0.7540 0.7540 0.7540
15.448000 0.7540 0.7540 0.7540 0.7540 0.7540
15.481275 0.7540 0.7540 0.7540 0.7540 0.7540
15.514000 0.7540 0.7540 0.7540 0.7540 0.7540
15.547275 0.7540 0.7540 0.7540 0.7550 0.7550
15.581000 0.7550 0.7550 0.7550 0.7570 0.7570
15.614275 0.7550 0.7570 0.7570 0.7570 0.7570
15.647000 0.7570 0.7570 0.7570 0.7590 0.7590
15.680275 0.7590 0.7590 0.7600 0.7590 0.7600
15.714000 0.7600 0.7600 0.7600 0.7620 0.7640
15.747275 0.7620 0.7640 0.7640 0.7640 0.7650
15.780000 0.7650 0.7650 0.7670 0.7650 0.7670
15.813275 0.7670 0.7670 0.7690 0.7690 0.7690
15.847000 0.7700 0.7700 0.7700 0.7700 0.7700
15.880275 0.7720 0.7720 0.7740 0.7740 0.7740
15.914000 0.7750 0.7750 0.7770 0.7770 0.7770
15.947275 0.7790 0.7790 0.7800 0.7820 0.7840
15.980000 0.7840 0.7840 0.7840 0.7840 0.7820
##END=
