##TITLE=Methylphosphonic acid
##JCAMP-DX=4.24
$$ By DXEDIT 1.05 (RS McDonald)
##DATA TYPE=INFRARED SPECTRUM
##CLASS=COBLENTZ II
##ORIGIN=DOW CHEMICAL COMPANY
##OWNER=COPYRIGHT (C) 1988 by COBLENTZ SOCIETY INC.
Collection (C) 2018 copyright by the U.S. Secretary of Commerce
on behalf of the United States of America. All rights reserved.
##DATE=1966/02/23
##CAS REGISTRY NO=993-13-5
##MOLFORM=C H5 O3 P
##SOURCE REFERENCE=COBLENTZ NO. 08948
##$NIST SOURCE=COBLENTZ
##$NIST IMAGE=cob8948
##SPECTROMETER/DATA SYSTEM=DOW KBr FOREPRISM-GRATING
##INSTRUMENT PARAMETERS=BLAZED AT 3.5, 12.0, 20.0 MICRON AND CHANGED AT 5.0, 7.5, 14.9 MICRON
##STATE=SOLID (SPLIT MULL), FLUOROLUBE FOR 3800-1330 CM^-^1, NUJOL FOR 1330-400 CM^-^1; (DRY BOX UNDER N2)
##SAMPLING PROCEDURE=TRANSMISSION
##RESOLUTION=2
##DATA PROCESSING=DIGITIZED BY COBLENTZ SOCIETY (BATCH I) FROM HARD COPY
##XUNITS=1/CM
##YUNITS=TRANSMITTANCE
##XFACTOR=1
##YFACTOR=1
##DELTAX=1
##FIRSTX=3810
##LASTX=385
##FIRSTY=0.892
##MAXX=3810
##MINX=385
##MAXY=0.8947
##MINY=0.0452
##NPOINTS=3426
##XYDATA=(X++(Y..Y))
3810.000000 0.8920 0.8920 0.8920 0.8920 0.8921
3805.000000 0.8921 0.8921 0.8921 0.8923 0.8923
3800.000000 0.8923 0.8923 0.8924 0.8924 0.8925
3795.000000 0.8925 0.8925 0.8925 0.8925 0.8927
3790.000000 0.8928 0.8928 0.8928 0.8930 0.8931
3785.000000 0.8931 0.8932 0.8933 0.8934 0.8934
3780.000000 0.8935 0.8936 0.8937 0.8937 0.8938
3775.000000 0.8939 0.8940 0.8940 0.8941 0.8942
3770.000000 0.8943 0.8943 0.8944 0.8945 0.8946
3765.000000 0.8947 0.8947 0.8947 0.8947 0.8946
3760.000000 0.8946 0.8945 0.8945 0.8945 0.8945
3755.000000 0.8944 0.8944 0.8943 0.8943 0.8943
3750.000000 0.8943 0.8942 0.8942 0.8941 0.8941
3745.000000 0.8940 0.8940 0.8940 0.8940 0.8939
3740.000000 0.8939 0.8938 0.8938 0.8937 0.8937
3735.000000 0.8937 0.8937 0.8936 0.8936 0.8935
3730.000000 0.8935 0.8935 0.8935 0.8935 0.8935
3725.000000 0.8935 0.8936 0.8936 0.8936 0.8936
3720.000000 0.8936 0.8936 0.8937 0.8937 0.8937
3715.000000 0.8937 0.8938 0.8938 0.8938 0.8938
3710.000000 0.8938 0.8938 0.8939 0.8939 0.8939
3705.000000 0.8939 0.8940 0.8940 0.8940 0.8940
3700.000000 0.8940 0.8940 0.8941 0.8941 0.8941
3695.000000 0.8941 0.8941 0.8941 0.8942 0.8942
3690.000000 0.8942 0.8942 0.8943 0.8943 0.8943
3685.000000 0.8943 0.8943 0.8943 0.8943 0.8942
3680.000000 0.8941 0.8939 0.8938 0.8937 0.8936
3675.000000 0.8934 0.8933 0.8932 0.8931 0.8928
3670.000000 0.8928 0.8927 0.8925 0.8924 0.8923
3665.000000 0.8921 0.8921 0.8918 0.8918 0.8917
3660.000000 0.8916 0.8914 0.8913 0.8912 0.8911
3655.000000 0.8909 0.8908 0.8907 0.8906 0.8905
3650.000000 0.8904 0.8902 0.8901 0.8899 0.8898
3645.000000 0.8896 0.8895 0.8893 0.8892 0.8890
3640.000000 0.8889 0.8888 0.8887 0.8885 0.8884
3635.000000 0.8882 0.8881 0.8878 0.8878 0.8875
3630.000000 0.8875 0.8873 0.8871 0.8870 0.8868
3625.000000 0.8867 0.8866 0.8864 0.8863 0.8861
3620.000000 0.8860 0.8858 0.8857 0.8855 0.8854
3615.000000 0.8852 0.8851 0.8849 0.8848 0.8846
3610.000000 0.8844 0.8842 0.8841 0.8839 0.8838
3605.000000 0.8836 0.8835 0.8833 0.8832 0.8830
3600.000000 0.8828 0.8827 0.8825 0.8824 0.8823
3595.000000 0.8821 0.8820 0.8818 0.8817 0.8815
3590.000000 0.8814 0.8812 0.8811 0.8809 0.8808
3585.000000 0.8806 0.8805 0.8803 0.8802 0.8800
3580.000000 0.8799 0.8796 0.8794 0.8791 0.8788
3575.000000 0.8785 0.8783 0.8780 0.8777 0.8774
3570.000000 0.8771 0.8768 0.8765 0.8762 0.8759
3565.000000 0.8756 0.8753 0.8750 0.8747 0.8744
3560.000000 0.8741 0.8738 0.8735 0.8732 0.8728
3555.000000 0.8725 0.8723 0.8720 0.8717 0.8713
3550.000000 0.8710 0.8707 0.8704 0.8701 0.8698
3545.000000 0.8694 0.8691 0.8688 0.8685 0.8682
3540.000000 0.8678 0.8675 0.8673 0.8668 0.8666
3535.000000 0.8663 0.8660 0.8657 0.8654 0.8651
3530.000000 0.8648 0.8644 0.8641 0.8638 0.8635
3525.000000 0.8632 0.8628 0.8625 0.8621 0.8618
3520.000000 0.8616 0.8613 0.8610 0.8607 0.8604
3515.000000 0.8600 0.8597 0.8593 0.8590 0.8586
3510.000000 0.8583 0.8578 0.8575 0.8571 0.8568
3505.000000 0.8564 0.8561 0.8557 0.8554 0.8550
3500.000000 0.8546 0.8542 0.8539 0.8535 0.8532
3495.000000 0.8528 0.8524 0.8520 0.8517 0.8513
3490.000000 0.8510 0.8506 0.8502 0.8498 0.8495
3485.000000 0.8491 0.8488 0.8484 0.8480 0.8475
3480.000000 0.8473 0.8468 0.8466 0.8462 0.8458
3475.000000 0.8454 0.8451 0.8447 0.8444 0.8440
3470.000000 0.8436 0.8432 0.8428 0.8425 0.8421
3465.000000 0.8418 0.8414 0.8410 0.8407 0.8403
3460.000000 0.8400 0.8396 0.8392 0.8388 0.8385
3455.000000 0.8381 0.8378 0.8374 0.8371 0.8367
3450.000000 0.8364 0.8361 0.8358 0.8354 0.8351
3445.000000 0.8347 0.8344 0.8340 0.8337 0.8333
3440.000000 0.8330 0.8327 0.8324 0.8320 0.8317
3435.000000 0.8313 0.8310 0.8306 0.8303 0.8299
3430.000000 0.8296 0.8292 0.8289 0.8286 0.8283
3425.000000 0.8278 0.8275 0.8271 0.8268 0.8265
3420.000000 0.8262 0.8258 0.8255 0.8252 0.8249
3415.000000 0.8245 0.8242 0.8238 0.8235 0.8231
3410.000000 0.8228 0.8223 0.8218 0.8215 0.8211
3405.000000 0.8206 0.8202 0.8197 0.8193 0.8189
3400.000000 0.8185 0.8180 0.8175 0.8171 0.8168
3395.000000 0.8162 0.8158 0.8155 0.8151 0.8146
3390.000000 0.8142 0.8138 0.8134 0.8128 0.8125
3385.000000 0.8121 0.8117 0.8111 0.8108 0.8103
3380.000000 0.8099 0.8095 0.8091 0.8086 0.8082
3375.000000 0.8078 0.8074 0.8068 0.8064 0.8058
3370.000000 0.8053 0.8047 0.8041 0.8035 0.8030
3365.000000 0.8024 0.8018 0.8011 0.8006 0.8000
3360.000000 0.7995 0.7989 0.7983 0.7976 0.7971
3355.000000 0.7965 0.7960 0.7954 0.7948 0.7942
3350.000000 0.7937 0.7931 0.7925 0.7918 0.7912
3345.000000 0.7906 0.7899 0.7891 0.7883 0.7875
3340.000000 0.7867 0.7858 0.7851 0.7843 0.7835
3335.000000 0.7826 0.7819 0.7811 0.7804 0.7796
3330.000000 0.7788 0.7780 0.7771 0.7764 0.7756
3325.000000 0.7748 0.7740 0.7732 0.7724 0.7715
3320.000000 0.7708 0.7700 0.7693 0.7685 0.7676
3315.000000 0.7667 0.7658 0.7649 0.7640 0.7630
3310.000000 0.7621 0.7611 0.7603 0.7593 0.7584
3305.000000 0.7575 0.7565 0.7556 0.7547 0.7538
3300.000000 0.7528 0.7518 0.7508 0.7498 0.7488
3295.000000 0.7476 0.7467 0.7457 0.7447 0.7436
3290.000000 0.7425 0.7417 0.7408 0.7396 0.7385
3285.000000 0.7372 0.7361 0.7350 0.7339 0.7326
3280.000000 0.7315 0.7304 0.7292 0.7280 0.7268
3275.000000 0.7257 0.7246 0.7234 0.7222 0.7211
3270.000000 0.7199 0.7187 0.7175 0.7164 0.7153
3265.000000 0.7142 0.7131 0.7118 0.7108 0.7096
3260.000000 0.7084 0.7071 0.7061 0.7049 0.7037
3255.000000 0.7025 0.7012 0.7001 0.6990 0.6978
3250.000000 0.6965 0.6954 0.6942 0.6930 0.6918
3245.000000 0.6907 0.6895 0.6883 0.6871 0.6858
3240.000000 0.6848 0.6836 0.6824 0.6811 0.6800
3235.000000 0.6787 0.6774 0.6761 0.6748 0.6735
3230.000000 0.6721 0.6708 0.6696 0.6683 0.6669
3225.000000 0.6657 0.6645 0.6632 0.6618 0.6606
3220.000000 0.6593 0.6580 0.6567 0.6554 0.6541
3215.000000 0.6525 0.6511 0.6495 0.6480 0.6464
3210.000000 0.6449 0.6433 0.6418 0.6401 0.6386
3205.000000 0.6370 0.6355 0.6339 0.6324 0.6308
3200.000000 0.6293 0.6277 0.6262 0.6247 0.6233
3195.000000 0.6219 0.6206 0.6192 0.6178 0.6164
3190.000000 0.6151 0.6137 0.6123 0.6109 0.6096
3185.000000 0.6082 0.6069 0.6055 0.6041 0.6027
3180.000000 0.6014 0.6000 0.5986 0.5972 0.5959
3175.000000 0.5945 0.5931 0.5917 0.5904 0.5890
3170.000000 0.5876 0.5860 0.5846 0.5831 0.5816
3165.000000 0.5801 0.5787 0.5772 0.5757 0.5742
3160.000000 0.5727 0.5712 0.5698 0.5683 0.5668
3155.000000 0.5653 0.5639 0.5622 0.5606 0.5589
3150.000000 0.5572 0.5555 0.5539 0.5522 0.5505
3145.000000 0.5488 0.5471 0.5454 0.5438 0.5421
3140.000000 0.5404 0.5387 0.5370 0.5353 0.5336
3135.000000 0.5319 0.5303 0.5286 0.5269 0.5253
3130.000000 0.5237 0.5222 0.5207 0.5192 0.5177
3125.000000 0.5162 0.5147 0.5132 0.5117 0.5102
3120.000000 0.5087 0.5072 0.5057 0.5042 0.5027
3115.000000 0.5012 0.4997 0.4981 0.4966 0.4951
3110.000000 0.4936 0.4921 0.4906 0.4891 0.4876
3105.000000 0.4860 0.4846 0.4831 0.4816 0.4799
3100.000000 0.4783 0.4766 0.4750 0.4734 0.4718
3095.000000 0.4701 0.4685 0.4668 0.4652 0.4635
3090.000000 0.4619 0.4603 0.4587 0.4570 0.4554
3085.000000 0.4537 0.4521 0.4505 0.4489 0.4476
3080.000000 0.4462 0.4451 0.4439 0.4427 0.4415
3075.000000 0.4403 0.4391 0.4379 0.4367 0.4355
3070.000000 0.4343 0.4331 0.4319 0.4307 0.4296
3065.000000 0.4284 0.4272 0.4260 0.4248 0.4235
3060.000000 0.4223 0.4209 0.4196 0.4182 0.4169
3055.000000 0.4156 0.4143 0.4129 0.4116 0.4103
3050.000000 0.4090 0.4076 0.4062 0.4050 0.4037
3045.000000 0.4023 0.4009 0.3996 0.3982 0.3970
3040.000000 0.3957 0.3943 0.3930 0.3916 0.3903
3035.000000 0.3889 0.3876 0.3862 0.3848 0.3830
3030.000000 0.3814 0.3796 0.3779 0.3762 0.3745
3025.000000 0.3716 0.3690 0.3662 0.3637 0.3612
3020.000000 0.3589 0.3566 0.3543 0.3536 0.3530
3015.000000 0.3526 0.3522 0.3518 0.3514 0.3509
3010.000000 0.3506 0.3500 0.3495 0.3489 0.3484
3005.000000 0.3478 0.3473 0.3468 0.3464 0.3460
3000.000000 0.3457 0.3453 0.3449 0.3444 0.3439
2995.000000 0.3432 0.3425 0.3418 0.3410 0.3404
2990.000000 0.3397 0.3390 0.3382 0.3376 0.3368
2985.000000 0.3362 0.3355 0.3348 0.3341 0.3332
2980.000000 0.3326 0.3318 0.3312 0.3305 0.3298
2975.000000 0.3291 0.3284 0.3277 0.3270 0.3262
2970.000000 0.3256 0.3249 0.3242 0.3234 0.3226
2965.000000 0.3216 0.3209 0.3200 0.3191 0.3182
2960.000000 0.3174 0.3165 0.3157 0.3150 0.3144
2955.000000 0.3137 0.3131 0.3124 0.3118 0.3111
2950.000000 0.3105 0.3099 0.3093 0.3084 0.3077
2945.000000 0.3067 0.3058 0.3046 0.3034 0.3019
2940.000000 0.3003 0.2992 0.2981 0.2973 0.2965
2935.000000 0.2957 0.2949 0.2941 0.2933 0.2926
2930.000000 0.2920 0.2916 0.2913 0.2909 0.2905
2925.000000 0.2901 0.2898 0.2894 0.2891 0.2888
2920.000000 0.2884 0.2882 0.2879 0.2876 0.2873
2915.000000 0.2870 0.2867 0.2862 0.2858 0.2852
2910.000000 0.2847 0.2841 0.2835 0.2831 0.2826
2905.000000 0.2820 0.2815 0.2809 0.2804 0.2799
2900.000000 0.2794 0.2788 0.2783 0.2777 0.2772
2895.000000 0.2768 0.2764 0.2760 0.2757 0.2753
2890.000000 0.2749 0.2745 0.2741 0.2737 0.2733
2885.000000 0.2729 0.2725 0.2721 0.2718 0.2714
2880.000000 0.2710 0.2706 0.2702 0.2698 0.2694
2875.000000 0.2690 0.2685 0.2682 0.2678 0.2673
2870.000000 0.2669 0.2664 0.2659 0.2653 0.2648
2865.000000 0.2642 0.2637 0.2632 0.2627 0.2621
2860.000000 0.2616 0.2610 0.2605 0.2600 0.2595
2855.000000 0.2589 0.2584 0.2578 0.2573 0.2568
2850.000000 0.2563 0.2559 0.2555 0.2552 0.2549
2845.000000 0.2546 0.2544 0.2541 0.2539 0.2535
2840.000000 0.2533 0.2530 0.2528 0.2525 0.2522
2835.000000 0.2519 0.2517 0.2514 0.2511 0.2508
2830.000000 0.2506 0.2503 0.2500 0.2497 0.2495
2825.000000 0.2492 0.2489 0.2485 0.2484 0.2481
2820.000000 0.2478 0.2475 0.2473 0.2470 0.2467
2815.000000 0.2464 0.2461 0.2458 0.2456 0.2453
2810.000000 0.2450 0.2447 0.2445 0.2442 0.2439
2805.000000 0.2435 0.2434 0.2432 0.2430 0.2428
2800.000000 0.2426 0.2424 0.2422 0.2420 0.2419
2795.000000 0.2417 0.2415 0.2413 0.2411 0.2409
2790.000000 0.2408 0.2406 0.2404 0.2402 0.2400
2785.000000 0.2398 0.2397 0.2395 0.2393 0.2391
2780.000000 0.2389 0.2387 0.2385 0.2384 0.2382
2775.000000 0.2380 0.2379 0.2377 0.2376 0.2375
2770.000000 0.2379 0.2372 0.2371 0.2371 0.2372
2765.000000 0.2372 0.2373 0.2373 0.2374 0.2374
2760.000000 0.2374 0.2374 0.2375 0.2375 0.2376
2755.000000 0.2376 0.2377 0.2377 0.2378 0.2378
2750.000000 0.2379 0.2379 0.2380 0.2380 0.2381
2745.000000 0.2381 0.2382 0.2382 0.2382 0.2382
2740.000000 0.2383 0.2383 0.2384 0.2384 0.2385
2735.000000 0.2387 0.2388 0.2389 0.2390 0.2390
2730.000000 0.2391 0.2392 0.2393 0.2394 0.2395
2725.000000 0.2396 0.2397 0.2398 0.2399 0.2402
2720.000000 0.2405 0.2408 0.2412 0.2415 0.2418
2715.000000 0.2421 0.2424 0.2427 0.2431 0.2434
2710.000000 0.2437 0.2440 0.2444 0.2447 0.2450
2705.000000 0.2453 0.2457 0.2462 0.2467 0.2472
2700.000000 0.2478 0.2483 0.2488 0.2493 0.2499
2695.000000 0.2504 0.2510 0.2515 0.2521 0.2526
2690.000000 0.2531 0.2535 0.2542 0.2547 0.2553
2685.000000 0.2558 0.2564 0.2569 0.2574 0.2579
2680.000000 0.2584 0.2590 0.2596 0.2601 0.2607
2675.000000 0.2612 0.2617 0.2623 0.2630 0.2635
2670.000000 0.2643 0.2649 0.2656 0.2662 0.2669
2665.000000 0.2675 0.2682 0.2689 0.2696 0.2702
2660.000000 0.2709 0.2715 0.2722 0.2728 0.2734
2655.000000 0.2741 0.2748 0.2754 0.2761 0.2767
2650.000000 0.2774 0.2780 0.2787 0.2793 0.2800
2645.000000 0.2806 0.2813 0.2820 0.2827 0.2833
2640.000000 0.2840 0.2846 0.2853 0.2859 0.2866
2635.000000 0.2872 0.2879 0.2884 0.2892 0.2898
2630.000000 0.2905 0.2911 0.2918 0.2924 0.2931
2625.000000 0.2938 0.2945 0.2953 0.2962 0.2970
2620.000000 0.2979 0.2987 0.2996 0.3004 0.3013
2615.000000 0.3021 0.3030 0.3038 0.3047 0.3055
2610.000000 0.3064 0.3072 0.3081 0.3089 0.3098
2605.000000 0.3106 0.3115 0.3123 0.3132 0.3140
2600.000000 0.3149 0.3157 0.3166 0.3174 0.3183
2595.000000 0.3191 0.3200 0.3208 0.3216 0.3225
2590.000000 0.3234 0.3243 0.3253 0.3262 0.3271
2585.000000 0.3280 0.3290 0.3299 0.3309 0.3318
2580.000000 0.3327 0.3336 0.3346 0.3355 0.3364
2575.000000 0.3374 0.3384 0.3393 0.3402 0.3410
2570.000000 0.3421 0.3430 0.3440 0.3449 0.3458
2565.000000 0.3466 0.3477 0.3484 0.3493 0.3500
2560.000000 0.3509 0.3516 0.3525 0.3532 0.3540
2555.000000 0.3548 0.3556 0.3564 0.3572 0.3580
2550.000000 0.3588 0.3595 0.3603 0.3609 0.3616
2545.000000 0.3624 0.3630 0.3638 0.3645 0.3652
2540.000000 0.3659 0.3666 0.3674 0.3678 0.3682
2535.000000 0.3687 0.3691 0.3695 0.3699 0.3703
2530.000000 0.3707 0.3710 0.3714 0.3718 0.3723
2525.000000 0.3727 0.3730 0.3734 0.3738 0.3742
2520.000000 0.3746 0.3750 0.3754 0.3758 0.3762
2515.000000 0.3764 0.3768 0.3772 0.3775 0.3777
2510.000000 0.3780 0.3782 0.3784 0.3788 0.3791
2505.000000 0.3793 0.3796 0.3798 0.3800 0.3803
2500.000000 0.3805 0.3806 0.3808 0.3809 0.3812
2495.000000 0.3812 0.3814 0.3816 0.3818 0.3820
2490.000000 0.3822 0.3824 0.3826 0.3827 0.3829
2485.000000 0.3830 0.3832 0.3834 0.3837 0.3838
2480.000000 0.3840 0.3842 0.3845 0.3848 0.3852
2475.000000 0.3855 0.3859 0.3862 0.3866 0.3870
2470.000000 0.3874 0.3878 0.3882 0.3884 0.3889
2465.000000 0.3891 0.3894 0.3897 0.3900 0.3902
2460.000000 0.3905 0.3907 0.3909 0.3912 0.3940
2455.000000 0.3918 0.3921 0.3923 0.3926 0.3927
2450.000000 0.3929 0.3929 0.3930 0.3930 0.3930
2445.000000 0.3930 0.3930 0.3930 0.3930 0.3930
2440.000000 0.3932 0.3924 0.3916 0.3909 0.3902
2435.000000 0.3894 0.3886 0.3878 0.3871 0.3862
2430.000000 0.3855 0.3846 0.3838 0.3828 0.3818
2425.000000 0.3809 0.3800 0.3792 0.3782 0.3773
2420.000000 0.3764 0.3755 0.3746 0.3736 0.3727
2415.000000 0.3718 0.3709 0.3700 0.3691 0.3680
2410.000000 0.3672 0.3659 0.3647 0.3634 0.3621
2405.000000 0.3608 0.3596 0.3582 0.3570 0.3557
2400.000000 0.3545 0.3532 0.3518 0.3499 0.3480
2395.000000 0.3450 0.3420 0.3390 0.3360 0.3330
2390.000000 0.3300 0.3260 0.3221 0.3214 0.3209
2385.000000 0.3204 0.3199 0.3195 0.3192 0.3188
2380.000000 0.3184 0.3181 0.3178 0.3175 0.3172
2375.000000 0.3170 0.3168 0.3166 0.3165 0.3163
2370.000000 0.3161 0.3159 0.3158 0.3156 0.3154
2365.000000 0.3151 0.3149 0.3146 0.3144 0.3142
2360.000000 0.3140 0.3137 0.3134 0.3132 0.3130
2355.000000 0.3127 0.3125 0.3123 0.3121 0.3118
2350.000000 0.3116 0.3114 0.3112 0.3109 0.3107
2345.000000 0.3105 0.3103 0.3100 0.3098 0.3095
2340.000000 0.3092 0.3087 0.3083 0.3079 0.3075
2335.000000 0.3070 0.3066 0.3062 0.3058 0.3053
2330.000000 0.3049 0.3042 0.3034 0.3028 0.3022
2325.000000 0.3015 0.3009 0.3002 0.2995 0.2988
2320.000000 0.2982 0.2977 0.2973 0.2968 0.2963
2315.000000 0.2960 0.2957 0.2954 0.2952 0.2949
2310.000000 0.2947 0.2944 0.2942 0.2940 0.2940
2305.000000 0.2939 0.2941 0.2942 0.2944 0.2948
2300.000000 0.2953 0.2959 0.2965 0.2971 0.2977
2295.000000 0.2983 0.2989 0.2995 0.3002 0.3008
2290.000000 0.3014 0.3020 0.3026 0.3034 0.3044
2285.000000 0.3054 0.3064 0.3074 0.3084 0.3095
2280.000000 0.3105 0.3115 0.3126 0.3137 0.3148
2275.000000 0.3163 0.3179 0.3195 0.3210 0.3226
2270.000000 0.3242 0.3257 0.3273 0.3289 0.3305
2265.000000 0.3320 0.3336 0.3350 0.3366 0.3382
2260.000000 0.3399 0.3414 0.3430 0.3446 0.3462
2255.000000 0.3477 0.3493 0.3508 0.3524 0.3540
2250.000000 0.3556 0.3571 0.3587 0.3602 0.3618
2245.000000 0.3634 0.3650 0.3674 0.3699 0.3718
2240.000000 0.3740 0.3752 0.3764 0.3775 0.3787
2235.000000 0.3798 0.3809 0.3822 0.3834 0.3844
2230.000000 0.3854 0.3862 0.3873 0.3882 0.3892
2225.000000 0.3902 0.3912 0.3921 0.3930 0.3940
2220.000000 0.3950 0.3959 0.3971 0.3982 0.3994
2215.000000 0.4006 0.4018 0.4029 0.4041 0.4052
2210.000000 0.4064 0.4075 0.4087 0.4099 0.4110
2205.000000 0.4122 0.4134 0.4145 0.4157 0.4170
2200.000000 0.4183 0.4197 0.4210 0.4225 0.4240
2195.000000 0.4254 0.4269 0.4283 0.4297 0.4310
2190.000000 0.4326 0.4339 0.4352 0.4365 0.4379
2185.000000 0.4392 0.4406 0.4419 0.4432 0.4445
2180.000000 0.4459 0.4468 0.4478 0.4484 0.4491
2175.000000 0.4497 0.4504 0.4510 0.4517 0.4523
2170.000000 0.4530 0.4536 0.4543 0.4549 0.4556
2165.000000 0.4562 0.4569 0.4575 0.4582 0.4588
2160.000000 0.4595 0.4604 0.4614 0.4624 0.4634
2155.000000 0.4644 0.4654 0.4664 0.4674 0.4684
2150.000000 0.4694 0.4704 0.4714 0.4724 0.4734
2145.000000 0.4744 0.4755 0.4765 0.4775 0.4785
2140.000000 0.4796 0.4810 0.4825 0.4839 0.4854
2135.000000 0.4868 0.4883 0.4898 0.4912 0.4927
2130.000000 0.4942 0.4956 0.4971 0.4986 0.5001
2125.000000 0.5015 0.5030 0.5044 0.5059 0.5073
2120.000000 0.5088 0.5102 0.5117 0.5131 0.5146
2115.000000 0.5160 0.5175 0.5189 0.5204 0.5218
2110.000000 0.5233 0.5247 0.5262 0.5276 0.5290
2105.000000 0.5304 0.5319 0.5334 0.5349 0.5362
2100.000000 0.5378 0.5393 0.5408 0.5422 0.5437
2095.000000 0.5452 0.5467 0.5481 0.5496 0.5510
2090.000000 0.5526 0.5540 0.5555 0.5569 0.5584
2085.000000 0.5597 0.5610 0.5623 0.5636 0.5648
2080.000000 0.5660 0.5674 0.5687 0.5700 0.5712
2075.000000 0.5726 0.5739 0.5751 0.5764 0.5777
2070.000000 0.5790 0.5803 0.5816 0.5829 0.5842
2065.000000 0.5855 0.5868 0.5880 0.5892 0.5901
2060.000000 0.5910 0.5920 0.5930 0.5939 0.5949
2055.000000 0.5958 0.5968 0.5977 0.5987 0.5996
2050.000000 0.6006 0.6015 0.6025 0.6034 0.6044
2045.000000 0.6053 0.6062 0.6072 0.6082 0.6091
2040.000000 0.6101 0.6110 0.6119 0.6127 0.6135
2035.000000 0.6142 0.6150 0.6158 0.6166 0.6174
2030.000000 0.6182 0.6189 0.6197 0.6205 0.6212
2025.000000 0.6221 0.6229 0.6236 0.6244 0.6252
2020.000000 0.6260 0.6266 0.6273 0.6278 0.6284
2015.000000 0.6290 0.6296 0.6302 0.6308 0.6314
2010.000000 0.6320 0.6326 0.6332 0.6338 0.6344
2005.000000 0.6349 0.6355 0.6360 0.6367 0.6378
2000.000000 0.6389 0.6398 0.6408 0.6418 0.6428
1995.000000 0.6437 0.6447 0.6457 0.6467 0.6475
1990.000000 0.6486 0.6496 0.6505 0.6515 0.6526
1985.000000 0.6539 0.6550 0.6561 0.6574 0.6585
1980.000000 0.6597 0.6608 0.6621 0.6632 0.6644
1975.000000 0.6656 0.6667 0.6675 0.6685 0.6694
1970.000000 0.6703 0.6711 0.6721 0.6730 0.6739
1965.000000 0.6749 0.6758 0.6768 0.6778 0.6789
1960.000000 0.6799 0.6808 0.6818 0.6828 0.6837
1955.000000 0.6845 0.6851 0.6860 0.6868 0.6875
1950.000000 0.6883 0.6891 0.6899 0.6907 0.6915
1945.000000 0.6921 0.6930 0.6938 0.6945 0.6951
1940.000000 0.6958 0.6965 0.6971 0.6978 0.6985
1935.000000 0.6992 0.6998 0.7005 0.7011 0.7018
1930.000000 0.7025 0.7032 0.7039 0.7044 0.7049
1925.000000 0.7053 0.7057 0.7061 0.7065 0.7071
1920.000000 0.7075 0.7080 0.7084 0.7089 0.7093
1915.000000 0.7097 0.7101 0.7106 0.7108 0.7111
1910.000000 0.7115 0.7118 0.7122 0.7125 0.7128
1905.000000 0.7133 0.7136 0.7139 0.7142 0.7145
1900.000000 0.7148 0.7151 0.7154 0.7157 0.7160
1895.000000 0.7162 0.7167 0.7169 0.7174 0.7178
1890.000000 0.7182 0.7185 0.7189 0.7193 0.7197
1885.000000 0.7201 0.7204 0.7208 0.7211 0.7215
1880.000000 0.7218 0.7222 0.7226 0.7231 0.7233
1875.000000 0.7236 0.7239 0.7241 0.7244 0.7246
1870.000000 0.7249 0.7251 0.7254 0.7256 0.7258
1865.000000 0.7261 0.7264 0.7264 0.7265 0.7265
1860.000000 0.7265 0.7265 0.7262 0.7261 0.7258
1855.000000 0.7258 0.7256 0.7254 0.7251 0.7251
1850.000000 0.7249 0.7249 0.7249 0.7251 0.7255
1845.000000 0.7258 0.7261 0.7264 0.7267 0.7269
1840.000000 0.7272 0.7275 0.7276 0.7278 0.7281
1835.000000 0.7282 0.7284 0.7285 0.7288 0.7291
1830.000000 0.7295 0.7299 0.7301 0.7306 0.7308
1825.000000 0.7312 0.7317 0.7319 0.7324 0.7326
1820.000000 0.7330 0.7334 0.7337 0.7340 0.7343
1815.000000 0.7346 0.7349 0.7351 0.7355 0.7358
1810.000000 0.7361 0.7365 0.7368 0.7371 0.7374
1805.000000 0.7378 0.7381 0.7385 0.7388 0.7392
