##TITLE=3-Thiophenone
##JCAMP-DX=4.24
##DATA TYPE=INFRARED SPECTRUM
##ORIGIN=EPA-IR VAPOR PHASE LIBRARY
##OWNER=SRD/NIST
Collection (C) 2018 copyright by the U.S. Secretary of Commerce
on behalf of the United States of America. All rights reserved.
##CAS REGISTRY NO=1003-04-9
##MOLFORM=C 4 H 6 O S
##$NIST SOURCE=MSDC-IR
##STATE=gas
##XUNITS=1/CM
##YUNITS=ABSORBANCE
##XFACTOR=1.
##YFACTOR=0.001
##DELTAX=1.92898
##FIRSTX=549.8
##LASTX=4000.7
##FIRSTY=1.334
##MAXX=4000.7
##MINX=549.759
##MAXY=0.113544
##MINY=0
##NPOINTS=1790
##XYDATA=(X++(Y..Y))
549.759 1.334 1.594 1.764 1.314 0.9345 0.9272 1.1485 0.9946 0.4461 0.4181
569.049 0.7834 1.0203 1.0434 0.4952 0.2638 0.2406 0.3781 0.6371 0.4675 0.6921
588.339 0.8388 0.7196 0.6989 0.7092 0.5918 0.4363 0.39174 0.2883 0.4381 0.36723
607.628 0.081 0.117 0.4957 0.5732 0.30271 0.37453 0.4623 0.34409 0.2212 0.3517
626.918 0.5865 0.5154 0.4959 0.5834 0.4342 0.2294 0.2089 0.4544 0.5026 0.308944
646.208 0.171 0.012 0.084 0.32937 0.4509 0.5121 0.33207 0.4445 0.7261 0.6919
665.498 0.7599 0.8022 0.7329 0.6535 0.5934 0.835 1.134 1.2133 1.2158 1.1169
684.787 0.9566 0.9959 1.2216 1.2762 1.1644 1.1784 1.2286 1.2867 1.494 1.494
704.077 1.744 1.864 1.904 2.254 2.324 2.314 2.484 2.764 2.884 2.944
723.367 2.944 3.014 3.144 3.174 2.944 2.624 2.414 2.364 2.254 2.054
742.657 1.834 1.594 1.524 1.243 0.9573 1.1787 1.1563 0.9875 1.0349 0.9494
761.947 0.9222 1.114 1.1725 1.0281 0.9692 1.0014 0.9079 0.8255 0.8042 0.8545
781.236 0.9317 0.7375 0.6828 0.7176 0.6854 0.8035 0.8865 0.7317 0.6684 0.9485
800.526 1.0947 1.0001 1.1938 1.1897 1.1223 1.424 1.624 1.424 1.2941 1.344
819.816 1.384 1.474 1.464 1.554 1.624 1.684 1.714 1.744 1.804 1.644
839.106 1.654 1.884 1.954 1.884 1.994 2.154 2.244 2.314 2.614 2.664
858.395 2.424 2.554 2.474 2.244 2.074 1.854 1.824 1.874 1.674 1.454
877.685 1.584 1.544 1.324 1.2366 1.1244 0.9668 1.0058 1.0983 0.8462 0.7072
896.975 0.7235 0.8288 0.7514 0.6474 0.826 0.6891 0.4812 0.5825 0.5891 0.5569
916.265 0.6898 0.6769 0.6892 0.6299 0.5734 0.5753 0.6233 0.519 0.34898 0.4727
935.555 0.4881 0.5522 0.6483 0.6864 0.7363 0.8509 0.9792 0.8567 0.7427 0.8918
954.844 1.1574 1.404 1.594 1.794 1.994 2.164 2.364 2.644 3.154 3.644
974.134 3.814 3.854 3.694 3.444 3.404 3.484 3.504 3.554 3.744 3.914
993.424 3.524 3.044 2.914 2.464 1.964 1.784 1.414 1.1276 0.9436 0.9615
1012.714 1.0213 1.0647 1.1286 0.7802 0.7722 1.0003 1.04 0.8689 0.7245 0.7778
1032.003 0.9156 1.0889 1.2172 1.0149 1.2533 1.714 1.464 1.2654 1.384 1.524
1051.293 1.544 1.694 1.754 1.414 1.434 1.834 2.034 2.224 2.384 2.584
1070.583 2.734 2.464 2.464 2.814 3.024 3.384 3.694 3.974 4.744 5.214
1089.873 5.544 6.334 7.044 7.854 8.794 9.824 11.064 12.334 13.834 14.644
1109.163 14.704 14.844 14.884 15.174 15.594 15.974 16.384 16.634 16.974 17.004
1128.452 16.074 14.994 14.214 13.034 11.704 10.994 10.414 9.664 9.054 8.314
1147.742 7.574 7.264 7.024 6.654 6.824 7.164 6.934 6.714 7.054 7.434
1167.032 7.614 7.764 8.244 9.034 9.354 9.544 9.974 10.394 10.734 10.434
1186.322 10.184 10.374 10.404 10.694 10.954 10.884 10.754 10.204 9.554 9.414
1205.611 9.004 8.104 7.714 7.484 6.874 6.724 6.224 5.584 5.404 5.004
1224.901 4.774 5.044 4.894 4.704 4.694 4.394 4.334 4.434 4.704 4.754
1244.191 4.914 5.484 5.824 6.304 6.744 6.954 7.514 8.224 8.574 8.774
1263.481 9.274 9.744 10.044 10.114 9.844 9.404 9.044 8.954 8.764 8.504
1282.771 8.204 7.594 7.034 6.274 5.424 4.744 4.074 3.474 2.864 2.474
1302.060 2.214 1.914 1.744 1.634 1.454 1.314 1.2139 1.1032 1.0586 1.0466
1321.350 1.0171 0.9994 1.0172 0.9888 0.961 0.9455 0.8986 0.8862 0.8823 0.896
1340.640 0.8864 0.8126 0.8324 0.9094 0.9384 0.8882 0.8339 0.8445 0.8362 0.8041
1359.930 0.871 0.9201 0.9039 0.9684 1.0456 1.1263 1.1751 1.2304 1.374 1.584
1379.219 1.834 2.124 2.494 2.914 3.324 3.804 4.424 5.124 5.854 6.574
1398.509 7.164 7.714 8.104 8.224 8.164 8.054 8.124 8.194 8.094 8.024
1417.799 7.944 7.644 7.124 6.484 5.814 5.144 4.514 3.924 3.434 3.054
1437.089 2.734 2.544 2.404 2.274 2.194 2.114 2.084 2.044 2.004 1.974
1456.378 1.904 1.874 1.804 1.784 1.824 1.764 1.694 1.594 1.504 1.364
1475.668 1.2908 1.2626 1.1792 1.076 1.0372 0.9467 0.7923 0.749 0.7403 0.739
1494.958 0.7346 0.6977 0.678 0.6518 0.6079 0.5879 0.5751 0.6265 0.6911 0.6723
1514.248 0.6734 0.6945 0.7567 0.7351 0.6649 0.6675 0.6382 0.6644 0.7117 0.7903
1533.538 0.8223 0.7677 0.7501 0.7758 0.7256 0.7281 0.7941 0.7571 0.7201 0.7625
1552.827 0.8302 0.8638 0.934 0.916 0.7901 0.8024 0.8931 0.9289 0.9454 0.9437
1572.117 0.9131 0.9592 0.9836 0.9633 0.986 0.9963 1.0475 1.0327 0.9067 0.8461
1591.407 0.9602 1.061 1.032 0.9539 0.9199 1.0853 1.08 0.9233 0.9175 0.9227
1610.697 0.9232 0.9746 1.0267 1.007 1.1019 1.1515 1.0508 1.0621 0.9945 0.9737
1629.986 1.0634 1.0892 1.1786 1.2435 1.2565 1.324 1.2841 1.2838 1.384 1.444
1649.276 1.544 1.584 1.594 1.644 1.794 1.894 1.944 2.074 2.164 2.254
1668.566 2.404 2.584 2.714 2.864 3.064 3.094 3.304 3.544 3.644 3.824
1687.856 4.004 4.244 4.524 4.764 4.984 5.254 5.534 5.734 5.954 6.324
1707.146 6.714 7.124 7.594 8.194 9.024 10.104 11.384 12.844 14.734 17.074
1726.435 20.014 23.664 28.164 33.584 40.434 48.314 56.774 66.414 76.074 85.254
1745.725 93.064 99.244 103.744 107.104 109.894 112.244 113.544 112.824 109.684 105.674
1765.015 101.734 96.944 89.644 79.004 65.294 51.334 38.684 28.344 20.694 15.314
1784.305 11.744 9.364 7.794 6.654 5.764 5.144 4.704 4.374 4.144 3.944
1803.594 3.754 3.604 3.574 3.514 3.454 3.394 3.274 3.234 3.194 3.124
1822.884 3.064 2.854 2.674 2.574 2.444 2.294 2.164 2.074 1.954 1.824
1842.174 1.754 1.694 1.614 1.544 1.464 1.324 1.2294 1.2517 1.2365 1.1626
1861.464 1.1733 1.1717 1.089 1.0454 1.0504 1.0431 1.0182 1.0254 0.9767 0.9861
1880.754 0.9982 0.9444 0.966 0.9684 0.9464 0.9522 0.9627 0.8963 0.8494 0.8659
1900.043 0.8445 0.7967 0.7808 0.7503 0.7518 0.7837 0.7387 0.739 0.7619 0.7593
1919.333 0.7224 0.6853 0.7008 0.6986 0.7056 0.697 0.6642 0.6563 0.6838 0.7492
1938.623 0.75 0.742 0.7824 0.7174 0.643 0.6593 0.7287 0.7782 0.7181 0.6759
1957.913 0.7292 0.731 0.6941 0.6961 0.7102 0.8083 0.7864 0.7142 0.7449 0.7287
1977.202 0.756 0.7541 0.7453 0.7439 0.6408 0.5911 0.6373 0.6619 0.6722 0.6555
1996.492 0.6164 0.5838 0.5859 0.5937 0.5781 0.6116 0.5866 0.5449 0.5676 0.6441
2015.782 0.6668 0.6029 0.5536 0.4989 0.4729 0.4887 0.4872 0.5121 0.5726 0.5433
2035.072 0.4968 0.4935 0.5069 0.5383 0.536 0.4675 0.5026 0.5161 0.4981 0.509
2054.362 0.4889 0.5074 0.5371 0.5328 0.5597 0.5408 0.4964 0.5376 0.5651 0.5863
2073.651 0.5454 0.5438 0.5716 0.5262 0.5397 0.5321 0.5005 0.4824 0.5432 0.6076
2092.941 0.5742 0.5661 0.6469 0.6757 0.5855 0.5396 0.5328 0.4997 0.4906 0.5074
2112.231 0.4955 0.504 0.5364 0.5051 0.5097 0.5281 0.5029 0.5791 0.629 0.5847
2131.521 0.531 0.5535 0.6047 0.5919 0.5543 0.5438 0.574 0.6011 0.5562 0.542
2150.810 0.5555 0.553 0.5555 0.5488 0.5516 0.5757 0.5612 0.5541 0.5977 0.6171
2170.100 0.5737 0.5664 0.6203 0.6403 0.6185 0.6157 0.623 0.649 0.6524 0.6046
2189.390 0.6382 0.6399 0.6828 0.7202 0.6738 0.7245 0.7625 0.7371 0.7093 0.6935
2208.680 0.7064 0.6971 0.8027 0.927 0.8812 0.7706 0.7442 0.7664 0.7228 0.7111
2227.970 0.7372 0.754 0.7957 0.8257 0.7648 0.6946 0.7319 0.7745 0.8236 0.8337
2247.259 0.8087 0.794 0.7634 0.7822 0.7579 0.6932 0.6631 0.7011 0.7292 0.7548
2266.549 0.7413 0.6846 0.6949 0.6951 0.6866 0.7161 0.6817 0.6632 0.6877 0.6231
2285.839 0.5823 0.7006 0.7203 0.6414 0.6818 0.6992 0.6575 0.6425 0.6917 0.7016
2305.129 0.6715 0.7306 0.7907 0.7048 0.6772 0.6871 0.6885 0.7075 0.6604 0.6486
2324.418 0.6277 0.6079 0.6907 0.6899 0.6291 0.5721 0.5548 0.5857 0.6141 0.6723
2343.708 0.6045 0.5827 0.555 0.5407 0.573 0.6189 0.6719 0.6161 0.6028 0.7039
2362.998 0.7062 0.6095 0.5629 0.6022 0.658 0.6076 0.605 0.597 0.5557 0.6325
2382.288 0.6594 0.648 0.674 0.5629 0.5344 0.588 0.5704 0.5364 0.4747 0.40163
2401.578 0.4208 0.5381 0.5701 0.4469 0.4451 0.6136 0.5845 0.5301 0.524 0.5084
2420.867 0.5324 0.5016 0.4651 0.37441 0.36962 0.4353 0.37661 0.30513 0.37592 0.4318
2440.157 0.37921 0.38033 0.4163 0.4176 0.4399 0.4858 0.4267 0.4846 0.5471 0.4875
2459.447 0.40226 0.36673 0.39642 0.35625 0.3856 0.4429 0.473 0.4567 0.4061 0.39255
2478.737 0.4375 0.4846 0.4579 0.4811 0.5104 0.4659 0.4893 0.4439 0.4085 0.4239
2498.026 0.4643 0.4874 0.36963 0.34328 0.461 0.4779 0.4981 0.4982 0.38167 0.29429
2517.316 0.29481 0.4285 0.4979 0.4266 0.3539 0.37294 0.4181 0.5111 0.4538 0.37231
2536.606 0.38953 0.31553 0.32722 0.407 0.4213 0.4452 0.4173 0.4246 0.4092 0.4192
2555.896 0.4338 0.30568 0.31744 0.4485 0.5379 0.5347 0.48 0.4402 0.4516 0.40193
2575.186 0.35969 0.39562 0.4632 0.4719 0.4645 0.4669 0.36179 0.35662 0.39037 0.37793
2594.475 0.4233 0.4348 0.36638 0.33803 0.4152 0.39123 0.39643 0.5263 0.5303 0.4122
2613.765 0.35724 0.34794 0.35951 0.29836 0.2389 0.31897 0.4141 0.39234 0.307021 0.33583
2633.055 0.33892 0.32724 0.39286 0.39777 0.4158 0.4366 0.3566 0.38182 0.4199 0.33669
2652.345 0.36561 0.4178 0.39383 0.4096 0.4608 0.36978 0.32447 0.35833 0.36436 0.34812
2671.634 0.35728 0.4372 0.4179 0.39105 0.4455 0.5551 0.5291 0.4228 0.39505 0.36035
2690.924 0.31991 0.4033 0.454 0.4722 0.5049 0.4647 0.4631 0.4799 0.4621 0.4107
2710.214 0.4413 0.5784 0.6144 0.5462 0.5582 0.566 0.5308 0.4966 0.457 0.4943
2729.504 0.4989 0.4778 0.5511 0.5063 0.463 0.4419 0.4325 0.4834 0.5101 0.5043
2748.794 0.5729 0.6409 0.5533 0.5173 0.4362 0.4446 0.5036 0.4965 0.5322 0.5026
2768.083 0.5333 0.5939 0.601 0.5751 0.6274 0.7453 0.7906 0.872 0.8903 0.904
2787.373 0.9755 1.0205 1.0755 1.1142 1.0963 1.0515 1.0444 1.07 1.1459 1.2524
2806.663 1.2995 1.2835 1.2849 1.2793 1.2994 1.384 1.354 1.2385 1.2226 1.2243
2825.953 1.245 1.2797 1.314 1.284 1.2093 1.2416 1.384 1.504 1.594 1.694
2845.242 1.814 1.924 1.994 2.264 2.454 2.534 2.834 3.084 3.234 3.624
2864.532 3.864 4.004 4.264 4.514 4.724 4.884 5.054 5.254 5.484 5.534
2883.822 5.494 5.504 5.534 5.704 5.974 6.164 6.324 6.624 6.894 7.184
2903.112 7.614 7.904 8.104 8.384 8.684 9.144 9.614 9.814 9.984 10.404
2922.401 10.934 11.274 11.474 11.664 11.754 11.884 12.054 12.224 12.594 12.934
2941.691 13.104 13.064 12.764 12.584 12.514 12.424 12.394 12.354 12.214 12.134
2960.981 12.094 12.014 11.954 11.754 11.374 11.194 11.104 11.004 10.824 10.574
2980.271 10.374 10.034 9.564 9.114 8.494 7.934 7.464 6.754 6.094 5.584
2999.561 5.124 4.814 4.304 3.714 3.344 2.964 2.554 2.124 1.954 1.864
3018.850 1.604 1.504 1.434 1.334 1.1679 1.1467 1.2538 1.1952 1.1172 1.1581
3038.140 1.1758 1.111 1.007 1.0626 1.1646 1.0513 0.937 0.8252 0.7679 0.8152
3057.430 0.8108 0.7141 0.7014 0.6584 0.5654 0.6418 0.7515 0.7005 0.6343 0.6409
3076.720 0.6409 0.6406 0.7106 0.7552 0.4756 0.34378 0.5996 0.6209 0.4617 0.4628
3096.009 0.4371 0.4616 0.5576 0.4568 0.4615 0.6146 0.6282 0.5874 0.5457 0.4967
3115.299 0.5346 0.5431 0.4786 0.4581 0.36899 0.39891 0.5323 0.4342 0.4968 0.5855
3134.589 0.4571 0.4148 0.4845 0.5645 0.4485 0.34814 0.5426 0.7362 0.6087 0.417
3153.879 0.37415 0.34532 0.4094 0.4457 0.4359 0.36895 0.38113 0.4413 0.38774 0.38775
3173.169 0.38007 0.39448 0.39966 0.38732 0.34561 0.32221 0.4114 0.4627 0.32804 0.35506
3192.458 0.4871 0.36507 0.18 0.2282 0.137 0 0.33293 0.5662 0.436 0.34443
3211.748 0.27 0.2444 0.2988 0.4125 0.4959 0.40288 0.32249 0.34305 0.309557 0.33035
3231.038 0.36811 0.31414 0.36446 0.3385 0.271 0.37443 0.4822 0.4802 0.32784 0.2294
3250.328 0.30121 0.3768 0.3359 0.32899 0.3671 0.29911 0.31995 0.438 0.3967 0.2694
3269.617 0.4264 0.5083 0.37254 0.3458 0.40027 0.4498 0.3891 0.32768 0.32622 0.38897
3288.907 0.5408 0.5948 0.5391 0.4225 0.33199 0.34308 0.203 0.096 0.082 0.148
3308.197 0.32371 0.35381 0.4549 0.4901 0.4647 0.5254 0.32836 0.2561 0.30052 0.2764
3327.487 0.4556 0.5499 0.6622 0.5956 0.31473 0.2707 0.4149 0.33511 0.243 0.33197
3346.777 0.2441 0.182 0.203 0.2914 0.31999 0.285 0.276 0.3025 0.36458 0.4118
3366.066 0.4821 0.5077 0.5533 0.4156 0.221 0.239 0.32203 0.35436 0.33936 0.4235
3385.356 0.4922 0.34877 0.2651 0.40395 0.4885 0.4264 0.4766 0.6647 0.7023 0.5998
3404.646 0.5377 0.4937 0.4073 0.5027 0.5055 0.4072 0.533 0.7076 0.6968 0.6092
3423.936 0.5024 0.5265 0.6572 0.6998 0.5988 0.5286 0.6823 0.8334 0.8399 0.6694
3443.225 0.6261 0.6793 0.7565 0.869 0.8364 0.9164 0.9743 1.0232 1.1859 1.2575
3462.515 1.334 1.434 1.584 1.634 1.874 1.944 1.834 1.994 2.184 2.374
3481.805 2.534 2.504 2.554 2.634 2.764 2.944 3.074 3.064 2.844 2.824
3501.095 2.744 2.554 2.304 2.044 1.844 1.734 1.684 1.524 1.384 1.1776
3520.385 0.9698 0.8445 0.9185 0.9597 0.8262 0.7033 0.7101 0.7645 0.719 0.6215
3539.674 0.572 0.6861 0.7363 0.5674 0.5266 0.4621 0.4985 0.7876 0.6772 0.5295
3558.964 0.5634 0.6091 0.6377 0.635 0.6156 0.5955 0.502 0.4944 0.6325 0.6425
3578.254 0.5298 0.4084 0.34028 0.2886 0.231 0.4154 0.5649 0.5069 0.4819 0.4356
3597.544 0.5537 0.6056 0.4784 0.5425 0.6325 0.4637 0.36853 0.5301 0.4642 0.35774
3616.833 0.32983 0.38752 0.5338 0.46 0.427 0.5705 0.6194 0.5115 0.5632 0.5744
3636.123 0.6136 0.6622 0.5421 0.6786 0.7394 0.6518 0.4832 0.35576 0.4596 0.4411
3655.413 0.5015 0.6374 0.4354 0.32281 0.39578 0.4855 0.4914 0.37955 0.33832 0.4083
3674.703 0.40158 0.39145 0.494 0.5572 0.5987 0.6866 0.7522 0.5695 0.35855 0.2922
3693.993 0.33032 0.5624 0.7094 0.5411 0.4681 0.4825 0.5258 0.5812 0.4534 0.5003
3713.282 0.5155 0.4543 0.5795 0.5665 0.4665 0.37462 0.38304 0.38571 0.4137 0.4405
3732.572 0.4649 0.5999 0.6694 0.5763 0.5969 0.5382 0.2 0.2055 0.4164 0.4783
3751.862 0.4304 0.4267 0.5372 0.6126 0.5131 0.5269 0.6898 0.5696 0.38993 0.33526
3771.152 0.310454 0.571 0.6704 0.5762 0.6642 0.654 0.4763 0.4565 0.5552 0.6056
3790.441 0.5694 0.4472 0.37478 0.39618 0.4803 0.5309 0.5507 0.4979 0.2892 0.35054
3809.731 0.5663 0.4937 0.3341 0.33446 0.4127 0.35918 0.33715 0.38444 0.411 0.34687
3829.021 0.4378 0.6058 0.5168 0.4562 0.4564 0.4226 0.34337 0.34201 0.4305 0.5014
3848.311 0.4702 0.39925 0.474 0.4584 0.38552 0.33976 0.33185 0.39629 0.4034 0.5248
3867.601 0.5013 0.3687 0.6456 0.5974 0.4893 0.6032 0.5571 0.6841 0.6575 0.4216
3886.890 0.481 0.4817 0.4756 0.6568 0.6354 0.6683 0.74 0.6415 0.4434 0.4657
3906.180 0.5092 0.35495 0.4613 0.4795 0.5314 0.4753 0.32808 0.4971 0.5748 0.537
3925.470 0.39853 0.3552 0.4459 0.5459 0.5687 0.5532 0.6247 0.6239 0.4365 0.38407
3944.760 0.40173 0.434 0.4096 0.4596 0.6289 0.6318 0.5934 0.4866 0.4298 0.32694
3964.049 0.2408 0.32824 0.4609 0.5202 0.4825 0.5654 0.5435 0.4968 0.5368 0.6128
3983.339 0.4728 0.34461 0.411 0.33586 0.2939 0.38223 0.6566 0.6128 0.37435 0.2778
##END=
