##TITLE=1-Iodo-4-chlorobutane
##JCAMP-DX=4.24
##DATA TYPE=INFRARED SPECTRUM
##ORIGIN=EPA-IR VAPOR PHASE LIBRARY
##OWNER=SRD/NIST
Collection (C) 2018 copyright by the U.S. Secretary of Commerce
on behalf of the United States of America. All rights reserved.
##CAS REGISTRY NO=10297-05-9
##MOLFORM=C 4 H 8 Cl I
##$NIST SOURCE=MSDC-IR
##STATE=gas
##XUNITS=1/CM
##YUNITS=ABSORBANCE
##XFACTOR=1.
##YFACTOR=0.001
##DELTAX=3.85796
##FIRSTX=501.5
##LASTX=4000.7
##FIRSTY=1.935
##MAXX=4000.7
##MINX=501.534
##MAXY=0.027755
##MINY=0
##NPOINTS=908
##XYDATA=(X++(Y..Y))
501.534 1.935 2.225 2.195 2.045 1.495 0.9448 0.6851 0.6064 0.4573 0.3283
540.114 0.2862 0.3495 0.3218 0.1665 0.22565 0.3352 0.3704 0.3642 0.5171 0.8934
578.693 1.265 1.665 2.225 2.675 2.915 3.105 2.925 2.365 1.835 1.405
617.273 1.168 1.1653 1.275 1.445 1.655 2.035 2.655 3.455 4.455 5.695
655.852 6.935 7.825 8.085 7.505 6.245 5.065 4.165 3.475 2.955 2.585
694.432 2.405 2.405 2.565 2.775 3.055 3.555 4.235 5.025 5.905 6.865
733.011 8.045 9.655 11.875 13.935 14.895 14.955 14.055 12.175 10.285 8.525
771.591 6.845 5.925 5.595 5.275 4.785 4.165 3.755 3.505 3.195 2.965
810.170 2.705 2.375 2.125 1.925 1.835 1.875 1.865 1.895 2.005 2.005
848.750 1.975 2.005 2.025 2.125 2.245 2.375 2.555 2.685 2.635 2.375
887.330 1.995 1.695 1.485 1.375 1.445 1.555 1.605 1.645 1.705 1.735
925.909 1.765 1.755 1.685 1.645 1.665 1.835 2.045 2.375 2.805 3.235
964.489 3.525 3.535 3.335 3.085 2.835 2.645 2.575 2.555 2.605 2.645
1003.068 2.655 2.675 2.605 2.505 2.365 2.085 1.815 1.545 1.275 1.1726
1041.648 1.1687 1.1176 1.1015 1.1232 1.0518 0.979 0.9812 0.9523 0.8675 0.7516
1080.227 0.6948 0.7258 0.7645 0.8304 0.8505 0.8493 1.0578 1.265 1.375 1.535
1118.807 1.645 1.715 1.835 2.095 2.505 2.975 3.415 3.885 4.645 5.715
1157.387 6.925 8.115 9.065 9.505 9.385 9.025 8.955 9.625 10.915 12.445
1195.966 13.855 14.665 14.725 14.385 13.615 12.835 12.675 12.675 12.405 11.825
1234.546 10.795 9.695 9.235 9.045 8.675 8.185 7.835 8.085 9.185 11.385
1273.125 14.455 17.035 17.995 17.555 15.965 14.165 13.155 12.725 12.615 12.415
1311.705 11.795 10.585 8.905 7.245 5.855 4.845 4.255 4.005 3.935 3.915
1350.284 3.845 3.665 3.435 3.155 2.845 2.525 2.195 1.885 1.685 1.525
1388.864 1.395 1.345 1.375 1.455 1.615 1.915 2.355 3.055 4.035 5.275
1427.443 6.755 8.345 9.715 10.715 11.415 11.685 11.335 10.515 9.105 7.455
1466.023 5.995 4.815 3.765 2.935 2.335 1.835 1.485 1.235 1.0515 0.9269
1504.603 0.837 0.7934 0.7505 0.7063 0.6523 0.5945 0.5604 0.5401 0.5076 0.4483
1543.182 0.4323 0.4129 0.3916 0.3665 0.3224 0.3135 0.3191 0.3168 0.2879 0.27315
1581.762 0.2831 0.26751 0.24322 0.23884 0.23751 0.21492 0.19146 0.20531 0.19944 0.20742
1620.341 0.20276 0.16553 0.18705 0.176659 0.1562 0.17219 0.174148 0.1616 0.1349 0.1176
1658.921 0.1205 0.0998 0.072 0.062 0.065 0.05 0.025 0.039 0.057 0.057
1697.500 0.04 0.037 0.041 0.034 0.041 0.026 0 0.019 0.031 0.032
1736.080 0.044 0.026 0.032 0.048 0.049 0.027 0.024 0.053 0.05 0.043
1774.659 0.056 0.074 0.086 0.0957 0.0993 0.1062 0.0859 0.073 0.0847 0.097
1813.239 0.0775 0.062 0.0892 0.0977 0.0893 0.0869 0.0959 0.1072 0.114 0.1039
1851.819 0.101 0.0999 0.0971 0.1098 0.1111 0.0976 0.1221 0.1489 0.1481 0.16655
1890.398 0.181368 0.16826 0.1431 0.1333 0.1443 0.1494 0.1361 0.1491 0.174402 0.177271
1928.978 0.1877 0.22015 0.23791 0.22792 0.21462 0.21656 0.24066 0.22879 0.20601 0.20549
1967.557 0.18972 0.19038 0.21903 0.21432 0.21181 0.21225 0.21179 0.21844 0.21937 0.22384
2006.137 0.23797 0.27219 0.287 0.26177 0.23311 0.26233 0.2833 0.27434 0.2946 0.3214
2044.716 0.3336 0.3361 0.3348 0.3253 0.3123 0.3253 0.3121 0.3034 0.3147 0.301
2083.296 0.2879 0.2793 0.3057 0.33 0.3174 0.3071 0.3087 0.3173 0.308 0.304
2121.875 0.3282 0.3191 0.2916 0.27456 0.2811 0.3016 0.2974 0.2997 0.3279 0.333
2160.455 0.3255 0.3489 0.3736 0.3828 0.3833 0.4024 0.425 0.4385 0.4306 0.4052
2199.035 0.3928 0.4174 0.4298 0.4111 0.408 0.4212 0.4066 0.3884 0.397 0.3702
2237.614 0.3607 0.363 0.3783 0.3723 0.3554 0.3627 0.3305 0.3068 0.3058 0.3047
2276.194 0.3193 0.3287 0.35 0.3648 0.3757 0.3718 0.3517 0.3621 0.3977 0.401
2314.773 0.3686 0.3718 0.3972 0.3956 0.4064 0.4265 0.4069 0.3956 0.3975 0.3928
2353.353 0.387 0.4032 0.4247 0.4216 0.4081 0.4176 0.4213 0.413 0.4098 0.3892
2391.932 0.3877 0.3731 0.3787 0.4043 0.3865 0.3763 0.3673 0.3462 0.3244 0.3004
2430.512 0.3014 0.2969 0.2916 0.3275 0.3288 0.3203 0.3226 0.3044 0.312 0.3378
2469.092 0.346 0.339 0.3014 0.26124 0.24651 0.24529 0.26858 0.3032 0.311 0.3095
2507.671 0.2944 0.2849 0.3125 0.311 0.3182 0.325 0.2933 0.2888 0.2984 0.2802
2546.251 0.26334 0.26341 0.25379 0.23105 0.22679 0.23689 0.2772 0.3042 0.2912 0.281
2584.830 0.2793 0.3201 0.3331 0.3355 0.3463 0.3295 0.3419 0.3395 0.336 0.372
2623.410 0.3765 0.3823 0.4093 0.419 0.4087 0.437 0.45 0.4577 0.5028 0.4944
2661.989 0.4605 0.4578 0.4816 0.4785 0.4602 0.4907 0.5052 0.5398 0.5966 0.5728
2700.569 0.5853 0.5525 0.4884 0.5078 0.5441 0.5743 0.5626 0.574 0.619 0.6263
2739.148 0.6437 0.6578 0.6637 0.665 0.6424 0.6532 0.6569 0.6112 0.6099 0.6655
2777.728 0.7222 0.7594 0.8006 0.8526 0.8853 0.9481 1.0314 1.1413 1.265 1.365
2816.308 1.455 1.665 1.955 2.345 2.895 3.595 4.455 5.425 6.445 7.355
2854.887 8.025 8.495 8.665 8.645 8.625 8.715 8.905 9.095 9.245 9.445
2893.467 9.745 10.255 10.845 11.485 12.205 12.945 13.895 15.065 16.345 17.645
2932.046 18.765 19.805 20.985 22.255 23.395 24.485 25.585 26.715 27.655 27.755
2970.626 26.485 24.015 20.975 17.995 15.595 13.995 13.265 12.795 11.945 10.725
3009.205 9.205 7.735 6.565 5.505 4.425 3.455 2.715 2.185 1.795 1.525
3047.785 1.335 1.175 1.0111 0.8867 0.8054 0.7408 0.7111 0.6569 0.6636 0.5981
3086.364 0.4753 0.4413 0.4219 0.3783 0.3928 0.4521 0.4507 0.3899 0.3726 0.3665
3124.944 0.3381 0.3284 0.3363 0.3493 0.3228 0.3056 0.3015 0.3056 0.3546 0.3866
3163.524 0.3627 0.3521 0.3389 0.3453 0.3484 0.2822 0.3093 0.3625 0.3366 0.3075
3202.103 0.24774 0.23397 0.22026 0.20913 0.22646 0.22377 0.2099 0.20492 0.24875 0.3029
3240.683 0.2846 0.22116 0.1627 0.1521 0.25173 0.3093 0.2568 0.175777 0.1378 0.1487
3279.262 0.18872 0.23932 0.21171 0.18972 0.2067 0.1479 0.1373 0.1549 0.1374 0.1431
3317.842 0.1026 0.082 0.1415 0.1992 0.181451 0.1007 0.1323 0.21325 0.17152 0.1559
3356.421 0.184816 0.1376 0.111 0.1284 0.1381 0.0982 0.1034 0.1436 0.1112 0.1301
3395.001 0.181507 0.1566 0.1192 0.0968 0.1306 0.183543 0.1599 0.1582 0.1178 0.0761
3433.580 0.1275 0.164 0.1638 0.1414 0.1533 0.1113 0.08 0.18888 0.1626 0.057
3472.160 0.037 0.015 0.042 0.1129 0.1065 0.1148 0.1663 0.074 0.038 0.1031
3510.740 0.067 0.097 0.1087 0.1379 0.1648 0.1528 0.178035 0.1277 0.1036 0.1453
3549.319 0.1369 0.067 0.1027 0.1346 0.0807 0.081 0.1109 0.1056 0.1007 0.1311
3587.899 0.096 0.0936 0.1327 0.19716 0.24117 0.19141 0.1521 0.1211 0.1637 0.181968
3626.478 0.18769 0.20031 0.18852 0.19442 0.1628 0.1469 0.0843 0.1243 0.22785 0.16857
3665.058 0.1546 0.184817 0.23928 0.24076 0.19858 0.1513 0.16948 0.21174 0.16517 0.182137
3703.637 0.22438 0.19408 0.1476 0.19238 0.20346 0.1396 0.147 0.2094 0.179423 0.1462
3742.217 0.1375 0.175768 0.19252 0.1383 0.1467 0.1315 0.1556 0.21409 0.20999 0.20214
3780.797 0.24847 0.25766 0.1923 0.182313 0.18978 0.1569 0.1257 0.1047 0.1347 0.20192
3819.376 0.19949 0.19966 0.2897 0.2927 0.180345 0.18658 0.21616 0.20403 0.18674 0.20567
3857.956 0.162 0.1404 0.2137 0.2442 0.23626 0.22982 0.25324 0.2722 0.18921 0.0791
3896.535 0.1015 0.1194 0.17077 0.19084 0.181329 0.18849 0.1133 0.0889 0.177504 0.26287
3935.115 0.26325 0.179636 0.1573 0.20314 0.21077 0.20232 0.19988 0.19489 0.20704 0.22321
3973.694 0.21784 0.2768 0.3016 0.1635 0.1606 0.2816 0.26657 0.25363
##END=
