##TITLE=.alpha.-Bromoacrylic acid
##JCAMP-DX=4.24
##DATA TYPE=INFRARED SPECTRUM
##ORIGIN=EPA-IR VAPOR PHASE LIBRARY
##OWNER=SRD/NIST
Collection (C) 2018 copyright by the U.S. Secretary of Commerce
on behalf of the United States of America. All rights reserved.
##CAS REGISTRY NO=10443-65-9
##MOLFORM=C 3 H 3 Br O 2
##$NIST SOURCE=MSDC-IR
##STATE=gas
##XUNITS=1/CM
##YUNITS=ABSORBANCE
##XFACTOR=1.
##YFACTOR=0.001
##DELTAX=3.85796
##FIRSTX=501.5
##LASTX=4000.7
##FIRSTY=1.52
##MAXX=4000.7
##MINX=501.534
##MAXY=0.01347
##MINY=0.0000339
##NPOINTS=908
##XYDATA=(X++(Y..Y))
501.534 1.52 1.53 1.63 1.7 2.02 2.32 2.45 2.72 2.91 2.97
540.114 3.09 3.01 2.91 2.98 3 3.02 3 3.01 3.06 2.99
578.693 2.86 2.72 2.36 1.91 1.62 1.48 1.43 1.34 1.27 1.32
617.273 1.4 1.51 1.74 2.04 2.52 3.26 3.86 4.11 4.3 4.58
655.852 4.72 4.3 3.71 3.36 3.01 2.72 2.3 1.62 1.13 0.9133
694.432 0.7963 0.7052 0.5816 0.5313 0.5353 0.4938 0.4558 0.3901 0.3676 0.4157
733.011 0.4278 0.4038 0.4048 0.4243 0.421 0.4189 0.4624 0.5046 0.5222 0.5495
771.591 0.6211 0.8082 1.02 1.12 1.29 1.62 1.65 1.39 1.25 1.15
810.170 1.02 0.926 0.825 0.7089 0.6528 0.6687 0.7371 0.8008 0.7871 0.7682
848.750 0.7982 0.7988 0.7496 0.6378 0.5097 0.4637 0.463 0.4347 0.3828 0.3372
887.330 0.3373 0.3946 0.4496 0.521 0.5701 0.6425 0.8433 1.11 1.4 1.64
925.909 1.87 2.2 2.48 2.49 2.16 1.72 1.44 1.22 0.937 0.6721
964.489 0.492 0.3695 0.3178 0.2858 0.2498 0.2598 0.2398 0.2129 0.2651 0.336
1003.068 0.313 0.3232 0.4011 0.4532 0.4991 0.5337 0.5824 0.6077 0.6982 0.8101
1041.648 0.8882 1.12 1.57 2.17 3.17 4.64 6.34 7.69 8.48 8.94
1080.227 8.86 8.17 6.65 4.95 3.96 3.6 3.6 3.79 4.23 4.59
1118.807 4.72 4.86 5.08 5.26 5.19 5.16 5.4 5.78 6.24 6.64
1157.387 6.66 6.43 6.29 6.19 5.71 4.77 3.88 3.27 2.82 2.49
1195.966 2.25 2.1 1.99 1.9 1.91 1.87 1.83 1.85 1.77 1.71
1234.546 1.74 1.76 1.81 1.87 1.83 1.82 1.87 1.98 2.05 1.96
1273.125 1.9 1.95 2.03 2.09 2.09 2.11 2.24 2.34 2.45 2.63
1311.705 2.77 2.92 3.04 3.11 3.13 3.04 2.84 2.59 2.36 2.16
1350.284 1.92 1.7 1.6 1.63 1.71 1.84 2.01 2.22 2.49 2.82
1388.864 3.09 3.19 3.07 2.9 2.85 2.66 2.23 1.8 1.46 1.21
1427.443 1.02 0.8656 0.7012 0.561 0.4831 0.4329 0.3907 0.3413 0.2902 0.2338
1466.023 0.1907 0.1751 0.1603 0.1531 0.1361 0.1343 0.1325 0.1352 0.1668 0.1732
1504.603 0.1726 0.1535 0.1348 0.1433 0.1529 0.1423 0.1254 0.1296 0.1518 0.1785
1543.182 0.1939 0.2106 0.2322 0.2673 0.3331 0.3907 0.4609 0.5729 0.7031 0.8559
1581.762 1.06 1.33 1.68 2.13 2.55 2.81 2.83 2.7 2.53 2.3
1620.341 1.9 1.39 0.9543 0.6973 0.5664 0.4716 0.4171 0.3934 0.3753 0.3687
1658.921 0.3768 0.3814 0.3937 0.4314 0.4644 0.4969 0.5608 0.6129 0.6457 0.7007
1697.500 0.774 0.8744 0.9712 1.08 1.22 1.38 1.47 1.59 1.8 2.06
1736.080 2.5 3.33 4.74 6.67 8.6 10.02 11.25 12.51 13.47 13.05
1774.659 11.17 9.68 9.36 8.93 7.56 5.94 4.52 3.33 2.53 1.97
1813.239 1.56 1.29 1.13 1.01 0.8883 0.7851 0.6961 0.6244 0.5656 0.5242
1851.819 0.4901 0.4748 0.4756 0.4664 0.4543 0.459 0.4595 0.4272 0.3698 0.3336
1890.398 0.3064 0.2758 0.2565 0.2433 0.2248 0.2054 0.1886 0.1862 0.2003 0.1883
1928.978 0.1819 0.1896 0.1858 0.1906 0.2077 0.2245 0.2375 0.2398 0.2321 0.2205
1967.557 0.2096 0.2066 0.2015 0.199 0.1976 0.2013 0.2071 0.201 0.2048 0.1977
2006.137 0.1848 0.1895 0.1832 0.1751 0.1783 0.1828 0.187 0.1753 0.1489 0.1413
2044.716 0.1442 0.1478 0.1453 0.1467 0.152 0.1338 0.1143 0.1205 0.1388 0.1417
2083.296 0.1266 0.1236 0.1242 0.1211 0.1316 0.1365 0.1417 0.1384 0.1393 0.1431
2121.875 0.127 0.1195 0.1416 0.1688 0.182 0.1804 0.1675 0.1605 0.1563 0.1652
2160.455 0.1739 0.1553 0.1313 0.1268 0.14 0.1394 0.119 0.1151 0.1152 0.1137
2199.035 0.1191 0.1134 0.09517 0.1004 0.1263 0.1331 0.1273 0.1187 0.1105 0.1053
2237.614 0.1247 0.1427 0.13 0.1137 0.113 0.139 0.1377 0.1113 0.1272 0.1458
2276.194 0.1479 0.1457 0.1421 0.1422 0.1563 0.1886 0.1735 0.1573 0.1886 0.1883
2314.773 0.1826 0.1903 0.1836 0.197 0.2254 0.2184 0.2084 0.2089 0.1969 0.2053
2353.353 0.2256 0.2322 0.2515 0.2679 0.2591 0.2426 0.2128 0.1747 0.1514 0.1334
2391.932 0.1343 0.1171 0.09452 0.09532 0.09053 0.1006 0.1139 0.1118 0.09046 0.0908
2430.512 0.1128 0.1151 0.1035 0.08863 0.1058 0.1433 0.1528 0.1346 0.1259 0.1351
2469.092 0.1191 0.1314 0.1547 0.1577 0.1501 0.1374 0.1199 0.1196 0.1248 0.1066
2507.671 0.1138 0.1203 0.1205 0.09635 0.07864 0.09881 0.1043 0.1012 0.08386 0.08298
2546.251 0.09642 0.08926 0.08447 0.06427 0.06263 0.07545 0.08374 0.07624 0.06854 0.08657
2584.830 0.09298 0.08695 0.0787 0.08707 0.09577 0.07109 0.06251 0.08212 0.09301 0.07719
2623.410 0.05854 0.06768 0.08115 0.08248 0.07376 0.05951 0.05353 0.06515 0.06408 0.07229
2661.989 0.09643 0.08083 0.05893 0.06716 0.08191 0.08648 0.08201 0.08341 0.07324 0.07123
2700.569 0.07773 0.06752 0.08589 0.09397 0.09436 0.08955 0.08692 0.07079 0.04561 0.0655
2739.148 0.05488 0.05424 0.06152 0.05766 0.0709 0.06951 0.04838 0.05388 0.06188 0.04166
2777.728 0.04901 0.08763 0.09841 0.07195 0.05998 0.0609 0.05676 0.06842 0.06856 0.04084
2816.308 0.03494 0.04827 0.0744 0.07068 0.05566 0.07184 0.07474 0.05195 0.0413 0.06584
2854.887 0.06834 0.0575 0.08079 0.09383 0.1062 0.09864 0.06468 0.08149 0.09508 0.07912
2893.467 0.08681 0.09072 0.06868 0.06797 0.07904 0.08822 0.1053 0.1035 0.1004 0.1123
2932.046 0.1231 0.09473 0.07463 0.1019 0.09611 0.08122 0.06901 0.06107 0.1026 0.1283
2970.626 0.1128 0.1104 0.09711 0.08495 0.09439 0.07145 0.07106 0.1032 0.1047 0.1102
3009.205 0.118 0.1074 0.1116 0.1097 0.09019 0.1084 0.1278 0.121 0.1431 0.1716
3047.785 0.1453 0.09683 0.0795 0.09196 0.1006 0.1033 0.1152 0.085 0.04326 0.0554
3086.364 0.09613 0.09726 0.06883 0.08158 0.111 0.1064 0.0813 0.08667 0.1127 0.09823
3124.944 0.07559 0.07074 0.08602 0.0847 0.07992 0.08381 0.07546 0.08089 0.09383 0.08542
3163.524 0.07385 0.08637 0.08369 0.08149 0.1095 0.1152 0.09696 0.07544 0.08341 0.1368
3202.103 0.1421 0.1091 0.09152 0.1036 0.1106 0.1288 0.1548 0.1109 0.08432 0.1217
3240.683 0.1349 0.1551 0.1563 0.1081 0.118 0.1322 0.1308 0.1189 0.1014 0.09806
3279.262 0.07784 0.08114 0.08482 0.08573 0.09285 0.1232 0.1515 0.1409 0.1117 0.1023
3317.842 0.09291 0.09964 0.1277 0.09732 0.1167 0.162 0.1148 0.07077 0.08713 0.08598
3356.421 0.08912 0.1057 0.09213 0.09612 0.08552 0.08589 0.1015 0.1055 0.1279 0.146
3395.001 0.1601 0.1461 0.1389 0.1066 0.07886 0.06757 0.05954 0.06864 0.05479 0.1031
3433.580 0.1316 0.1348 0.1632 0.1354 0.1325 0.1857 0.1952 0.1601 0.1466 0.1452
3472.160 0.1556 0.1829 0.2022 0.1981 0.2253 0.2609 0.2662 0.3064 0.3222 0.3491
3510.740 0.3773 0.327 0.3412 0.4521 0.5757 0.6992 0.8183 0.918 0.9957 1.05
3549.319 1.11 1.24 1.5 1.98 2.81 3.96 5.02 5.62 5.81 5.82
3587.899 5.48 4.61 3.46 2.25 1.29 0.8002 0.571 0.4088 0.2819 0.2092
3626.478 0.1558 0.146 0.1771 0.1457 0.1184 0.1481 0.1503 0.1824 0.2122 0.1587
3665.058 0.1324 0.1529 0.1764 0.1684 0.1155 0.07122 0.06479 0.1168 0.1222 0.0857
3703.637 0.1084 0.1578 0.1418 0.09823 0.08455 0.06805 0.08452 0.1266 0.1412 0.159
3742.217 0.1951 0.1498 0.1192 0.1018 0.06066 0.06361 0.08221 0.07566 0.05966 0.1006
3780.797 0.1309 0.1416 0.1882 0.1562 0.0898 0.08769 0.1162 0.1104 0.08906 0.07196
3819.376 0.06518 0.09846 0.1159 0.0936 0.08196 0.08628 0.09941 0.1092 0.106 0.1213
3857.956 0.1453 0.1055 0.04437 0.07213 0.1092 0.1399 0.1504 0.105 0.06894 0.1392
3896.535 0.1683 0.1223 0.08719 0.04271 0.08182 0.1285 0.1358 0.1278 0.1301 0.08823
3935.115 0.0339 0.07745 0.0861 0.07765 0.1024 0.1203 0.06795 0.0498 0.09462 0.1152
3973.694 0.1122 0.09685 0.1044 0.08645 0.04943 0.04524 0.07484 0.08761
##END=
