##TITLE=CHLOROMETHYL METHYL ETHER
##JCAMP-DX=4.24
##DATA TYPE=INFRARED SPECTRUM
##CLASS=COBLENTZ
##ORIGIN=DOW CHEMICAL COMPANY
##OWNER=COBLENTZ SOCIETY
Collection (C) 2018 copyright by the U.S. Secretary of Commerce
on behalf of the United States of America. All rights reserved.
##DATE=1965/02/15
##NAMES=chloro(methoxy)methane
##CAS REGISTRY NO=107-30-2
##MOLFORM=C2 H5 Cl O
##SOURCE REFERENCE=COBLENTZ NO. 6991
##$NIST SOURCE=COBLENTZ
##$NIST IMAGE=cob6991
##SPECTROMETER/DATA SYSTEM=DOW KBr FOREPRISM
##INSTRUMENT PARAMETERS=GRATING BLAZED AT 3.5, 12.0, 20.0 MICRONS AND CHANGED AT 5.0, 7.5, 14.9 MICRONS
##STATE=GAS (100 mmHg DILUTED TO A TOTAL PRESSURE OF 600 mmHg WITH NITROGEN)
##PATH LENGTH=5 CM
##SAMPLING PROCEDURE=TRANSMISSION
##RESOLUTION=4
##DATA PROCESSING=DIGITIZED BY NIST FROM HARD COPY (FROM TWO SEGMENTS)
##XUNITS=1/CM
##YUNITS=TRANSMITTANCE
##XFACTOR=1.000000
##YFACTOR=1
##DELTAX=0.878220
##FIRSTX=383.197
##LASTX=3797.72
##FIRSTY=0.991
##MAXX=3797.72
##MINX=383.197
##MAXY=1.00184
##MINY=0.006
##NPOINTS=3889
##XYDATA=(X++(Y..Y))
383.197000 0.9910 0.9910 0.9910 0.9910 0.9910
387.588102 0.9910 0.9910 0.9910 0.9910 0.9910
391.979204 0.9910 0.9910 0.9900 0.9900 0.9900
396.370306 0.9880 0.9880 0.9880 0.9880 0.9860
400.761407 0.9860 0.9840 0.9840 0.9830 0.9830
405.152509 0.9820 0.9820 0.9800 0.9790 0.9790
409.543611 0.9770 0.9770 0.9770 0.9760 0.9750
413.934713 0.9720 0.9690 0.9680 0.9650 0.9640
418.325815 0.9640 0.9580 0.9550 0.9540 0.9530
422.716917 0.9480 0.9460 0.9430 0.9400 0.9370
427.108018 0.9370 0.9350 0.9300 0.9280 0.9240
431.499120 0.9190 0.9150 0.9120 0.9110 0.9040
435.890222 0.8960 0.8920 0.8890 0.8820 0.8720
440.281324 0.8590 0.8490 0.8350 0.8230 0.8130
444.672426 0.8020 0.7950 0.7920 0.7910 0.7880
449.063528 0.7850 0.7810 0.7790 0.7770 0.7740
453.454629 0.7720 0.7670 0.7660 0.7650 0.7620
457.845731 0.7620 0.7630 0.7690 0.7730 0.7740
462.236833 0.7760 0.7770 0.7800 0.7830 0.7910
466.627935 0.7960 0.8139 0.8210 0.8349 0.8519
471.019037 0.8700 0.8900 0.9010 0.9110 0.9180
475.410139 0.9210 0.9240 0.9280 0.9300 0.9330
479.801240 0.9350 0.9360 0.9360 0.9390 0.9400
484.192342 0.9410 0.9430 0.9440 0.9440 0.9440
488.583444 0.9460 0.9460 0.9470 0.9500 0.9500
492.974546 0.9500 0.9510 0.9510 0.9510 0.9510
497.365648 0.9510 0.9510 0.9510 0.9510 0.9500
501.756750 0.9510 0.9510 0.9510 0.9510 0.9510
506.147852 0.9510 0.9510 0.9510 0.9510 0.9510
510.538953 0.9530 0.9530 0.9530 0.9530 0.9530
514.930055 0.9530 0.9530 0.9530 0.9530 0.9530
519.321157 0.9530 0.9530 0.9530 0.9530 0.9530
523.712259 0.9530 0.9530 0.9530 0.9530 0.9530
528.103361 0.9530 0.9530 0.9530 0.9530 0.9530
532.494463 0.9530 0.9530 0.9530 0.9540 0.9540
536.885564 0.9540 0.9540 0.9550 0.9550 0.9550
541.276666 0.9550 0.9570 0.9580 0.9580 0.9580
545.667768 0.9580 0.9590 0.9610 0.9620 0.9640
550.058870 0.9640 0.9550 0.9540 0.9540 0.9540
554.449972 0.9530 0.9530 0.9510 0.9510 0.9500
558.841074 0.9500 0.9480 0.9470 0.9460 0.9440
563.232175 0.9430 0.9430 0.9410 0.9400 0.9390
567.623277 0.9370 0.9360 0.9360 0.9350 0.9330
572.014379 0.9320 0.9300 0.9300 0.9290 0.9280
576.405481 0.9250 0.9240 0.9240 0.9220 0.9210
580.796583 0.9190 0.9190 0.9180 0.9170 0.9140
585.187685 0.9120 0.9110 0.9100 0.9080 0.9070
589.578786 0.9040 0.9040 0.9040 0.9030 0.9030
593.969888 0.9030 0.9030 0.9030 0.9030 0.9030
598.360990 0.9030 0.9030 0.9030 0.9030 0.9030
602.752092 0.9010 0.9000 0.9000 0.8990 0.8970
607.143194 0.8950 0.8950 0.8930 0.8920 0.8900
611.534296 0.8890 0.8860 0.8830 0.8810 0.8780
615.925398 0.8770 0.8750 0.8710 0.8700 0.8670
620.316499 0.8590 0.8540 0.8530 0.8500 0.8430
624.707601 0.8380 0.8340 0.8310 0.8300 0.8280
629.098703 0.8240 0.8170 0.8090 0.7980 0.7940
633.489805 0.7800 0.7730 0.7590 0.7510 0.7410
637.880907 0.7370 0.7230 0.7080 0.6890 0.6680
642.272009 0.6570 0.6430 0.6161 0.6021 0.5871
646.663110 0.5640 0.5370 0.5080 0.4790 0.4371
651.054212 0.3971 0.3541 0.3341 0.2912 0.2472
655.445314 0.2150 0.1900 0.1710 0.1450 0.0981
659.836416 0.0461 0.0131 0.0110 0.0110 0.0090
664.227518 0.0090 0.0080 0.0080 0.0060 0.0060
668.618620 0.0060 0.0060 0.0060 0.0060 0.0060
673.009721 0.0060 0.0060 0.0060 0.0060 0.0060
677.400823 0.0060 0.0060 0.0060 0.0060 0.0060
681.791925 0.0060 0.0060 0.0060 0.0080 0.0080
686.183027 0.0090 0.0090 0.0110 0.0130 0.0190
690.574129 0.0490 0.0820 0.1070 0.1180 0.1998
694.965231 0.2628 0.3248 0.3878 0.4009 0.4727
699.356332 0.5020 0.5560 0.6000 0.6419 0.6570
703.747434 0.6780 0.6999 0.7229 0.7330 0.7798
708.138536 0.7980 0.8160 0.8340 0.8520 0.8700
712.529638 0.8790 0.8900 0.9030 0.9169 0.9319
716.920740 0.9430 0.9530 0.9550 0.9570 0.9650
721.311842 0.9690 0.9700 0.9750 0.9760 0.9790
725.702944 0.9830 0.9840 0.9860 0.9860 0.9860
730.094045 0.9900 0.9930 0.9940 0.9940 0.9940
734.485147 0.9940 0.9940 0.9940 0.9950 0.9950
738.876249 0.9950 0.9940 0.9940 0.9940 0.9940
743.267351 0.9940 0.9940 0.9940 0.9950 0.9950
747.658453 0.9950 0.9950 0.9950 0.9970 0.9980
752.049555 0.9980 0.9980 0.9980 0.9980 0.9970
756.440656 0.9970 0.9970 0.9970 0.9970 0.9970
760.831758 0.9950 0.9940 0.9940 0.9930 0.9930
765.222860 0.9930 0.9930 0.9910 0.9900 0.9900
769.613962 0.9880 0.9860 0.9840 0.9830 0.9820
774.005064 0.9800 0.9790 0.9790 0.9770 0.9760
778.396166 0.9750 0.9720 0.9690 0.9660 0.9640
782.787267 0.9640 0.9610 0.9590 0.9570 0.9550
787.178369 0.9540 0.9540 0.9500 0.9470 0.9460
791.569471 0.9440 0.9430 0.9430 0.9430 0.9430
795.960573 0.9440 0.9440 0.9440 0.9460 0.9460
800.351675 0.9440 0.9440 0.9430 0.9430 0.9440
804.742777 0.9440 0.9440 0.9440 0.9440 0.9440
809.133878 0.9470 0.9470 0.9510 0.9550 0.9570
813.524980 0.9590 0.9620 0.9650 0.9680 0.9690
817.916082 0.9720 0.9760 0.9760 0.9770 0.9770
822.307184 0.9770 0.9790 0.9800 0.9790 0.9790
826.698286 0.9790 0.9790 0.9790 0.9790 0.9800
831.089388 0.9820 0.9820 0.9820 0.9820 0.9820
835.480490 0.9820 0.9820 0.9830 0.9820 0.9820
839.871591 0.9820 0.9820 0.9800 0.9800 0.9790
844.262693 0.9790 0.9790 0.9790 0.9790 0.9790
848.653795 0.9790 0.9790 0.9790 0.9790 0.9790
853.044897 0.9790 0.9790 0.9770 0.9770 0.9770
857.435999 0.9760 0.9760 0.9760 0.9760 0.9760
861.827101 0.9760 0.9750 0.9760 0.9760 0.9760
866.218202 0.9750 0.9730 0.9720 0.9700 0.9690
870.609304 0.9680 0.9660 0.9650 0.9640 0.9620
875.000406 0.9590 0.9570 0.9540 0.9530 0.9510
879.391508 0.9460 0.9390 0.9330 0.9300 0.9260
883.782610 0.9180 0.9120 0.9060 0.8990 0.8920
888.173712 0.8890 0.8790 0.8680 0.8531 0.8410
892.564813 0.8300 0.8130 0.7950 0.7800 0.7590
896.955915 0.7430 0.7250 0.7031 0.6791 0.6531
901.347017 0.6280 0.6020 0.5870 0.5670 0.5291
905.738119 0.5051 0.4791 0.4571 0.4411 0.4002
910.129221 0.3630 0.3310 0.2960 0.2770 0.2590
914.520323 0.2440 0.2290 0.2151 0.2030 0.1930
918.911424 0.1830 0.1740 0.1670 0.1610 0.1560
923.302526 0.1510 0.1490 0.1450 0.1430 0.1390
927.693628 0.1250 0.1250 0.1450 0.1720 0.1690
932.084730 0.1570 0.1470 0.1400 0.1430 0.1510
936.475832 0.1600 0.1750 0.1790 0.1940 0.2220
940.866934 0.2430 0.2620 0.2809 0.3079 0.3409
945.258036 0.3540 0.3880 0.4150 0.4320 0.4689
949.649137 0.4899 0.5289 0.5310 0.5529 0.5868
954.040239 0.6030 0.6280 0.6450 0.6610 0.6830
958.431341 0.7000 0.7229 0.7479 0.7719 0.7899
962.822443 0.7950 0.8050 0.8140 0.8170 0.8200
967.213545 0.8200 0.8190 0.8160 0.8130 0.8080
971.604647 0.7960 0.7920 0.7650 0.7500 0.7270
975.995748 0.7090 0.6801 0.6541 0.6450 0.6032
980.386850 0.5270 0.5080 0.4840 0.4620 0.4220
984.777952 0.4120 0.4110 0.4140 0.4260 0.4350
989.169054 0.4400 0.4400 0.4360 0.3961 0.3711
993.560156 0.2513 0.2510 0.3197 0.4036 0.4757
997.951258 0.4730 0.3970 0.3610 0.3340 0.3310
1002.342359 0.3340 0.3380 0.3500 0.3659 0.3740
1006.733461 0.3970 0.4170 0.4320 0.4760 0.5129
1011.124563 0.5529 0.5949 0.6169 0.6449 0.6639
1015.515665 0.6780 0.6890 0.6930 0.7000 0.7030
1019.906767 0.7230 0.7439 0.7450 0.7510 0.7580
1024.297869 0.7610 0.7630 0.7730 0.7770 0.7800
1028.688970 0.7870 0.7910 0.7950 0.7990 0.8030
1033.080072 0.8060 0.8100 0.8130 0.8140 0.8160
1037.471174 0.8190 0.8210 0.8230 0.8250 0.8270
1041.862276 0.8280 0.8280 0.8300 0.8310 0.8320
1046.253378 0.8320 0.8340 0.8340 0.8350 0.8350
1050.644480 0.8370 0.8370 0.8380 0.8380 0.8380
1055.035581 0.8380 0.8390 0.8390 0.8390 0.8390
1059.426683 0.8380 0.8350 0.8340 0.8320 0.8310
1063.817785 0.8310 0.8240 0.8200 0.8170 0.8140
1068.208887 0.8120 0.8050 0.7940 0.7830 0.7720
1072.599989 0.7670 0.7590 0.7560 0.7410 0.7231
1076.991091 0.7080 0.7050 0.6980 0.6850 0.6750
1081.382193 0.6710 0.6610 0.6580 0.6470 0.6361
1085.773294 0.6290 0.6170 0.6030 0.5990 0.5740
1090.164396 0.5521 0.5311 0.5061 0.4980 0.4771
1094.555498 0.4540 0.4210 0.3930 0.3820 0.3461
1098.946600 0.2871 0.2411 0.2051 0.1761 0.1541
1103.337702 0.1350 0.1160 0.0950 0.0690 0.0340
1107.728804 0.0230 0.0130 0.0080 0.0060 0.0060
1112.119905 0.0080 0.0080 0.0080 0.0080 0.0080
1116.511007 0.0080 0.0080 0.0080 0.0080 0.0060
1120.902109 0.0060 0.0060 0.0060 0.0060 0.0060
1125.293211 0.0060 0.0060 0.0060 0.0060 0.0060
1129.684313 0.0060 0.0060 0.0080 0.0080 0.0080
1134.075415 0.0080 0.0080 0.0080 0.0090 0.0090
1138.466516 0.0110 0.0130 0.0160 0.0240 0.0330
1142.857618 0.0340 0.0380 0.0410 0.0480 0.0599
1147.248720 0.0990 0.1040 0.1090 0.1160 0.1180
1151.639822 0.1210 0.1220 0.1240 0.1240 0.1240
1156.030924 0.1220 0.1210 0.1210 0.1310 0.1540
1160.422026 0.1909 0.2000 0.2050 0.2110 0.2180
1164.813127 0.2230 0.2320 0.2380 0.2470 0.2520
1169.204229 0.2560 0.2580 0.2610 0.2560 0.2500
1173.595331 0.2330 0.2180 0.1980 0.1610 0.1251
1177.986433 0.1090 0.0801 0.0481 0.0171 0.0150
1182.377535 0.0130 0.0120 0.0110 0.0110 0.0110
1186.768637 0.0120 0.0120 0.0120 0.0120 0.0130
1191.159739 0.0150 0.0150 0.0150 0.0150 0.0160
1195.550840 0.0170 0.0190 0.0160 0.0150 0.0120
1199.941942 0.0110 0.0090 0.0090 0.0110 0.0110
1204.333044 0.0110 0.0120 0.0130 0.0130 0.0160
1208.724146 0.0200 0.0270 0.0710 0.1089 0.1429
1213.115248 0.1430 0.2108 0.2409 0.2719 0.3009
1217.506350 0.3270 0.3560 0.4070 0.4460 0.4759
1221.897451 0.5009 0.5239 0.5459 0.5629 0.5749
1226.288553 0.5890 0.6000 0.6040 0.6100 0.6140
1230.679655 0.6310 0.6380 0.6430 0.6460 0.6570
1235.070757 0.6600 0.6610 0.6670 0.6680 0.6710
1239.461859 0.6740 0.6740 0.6740 0.6740 0.6740
1243.852961 0.6720 0.6710 0.6690 0.6680 0.6670
1248.244062 0.6670 0.6620 0.6610 0.6560 0.6490
1252.635164 0.6430 0.6380 0.6310 0.6290 0.6200
1257.026266 0.6160 0.6130 0.6040 0.6000 0.5891
1261.417368 0.5850 0.5750 0.5740 0.5710 0.5660
1265.808470 0.5630 0.5630 0.5620 0.5600 0.5560
1270.199572 0.5530 0.5520 0.5520 0.5490 0.5480
1274.590673 0.5370 0.5220 0.4901 0.4900 0.4950
1278.981775 0.5400 0.5560 0.5700 0.5710 0.5710
1283.372877 0.5730 0.5770 0.5870 0.5890 0.5930
1287.763979 0.6000 0.6020 0.6060 0.6130 0.6180
1292.155081 0.6200 0.6200 0.6200 0.6180 0.6160
1296.546183 0.6130 0.6090 0.6040 0.5910 0.5780
1300.937285 0.5640 0.5490 0.5350 0.5201 0.5041
1305.328386 0.4860 0.4660 0.4400 0.4080 0.3781
1309.719488 0.3600 0.3381 0.3081 0.2721 0.2561
1314.110590 0.2540 0.2550 0.2620 0.2650 0.2770
1318.501692 0.3099 0.3369 0.3410 0.3380 0.2185
1322.892794 0.2181 0.3630 0.4000 0.3970 0.2662
1327.283896 0.2181 0.2160 0.2180 0.2379 0.2579
1331.674997 0.2790 0.2980 0.3190 0.3370 0.3810
1336.066099 0.4319 0.4649 0.5059 0.5309 0.5639
1340.457201 0.6030 0.6320 0.6560 0.6740 0.6890
1344.848303 0.7000 0.7080 0.7160 0.7260 0.7369
1349.239405 0.7510 0.7670 0.7800 0.7880 0.7920
1353.630507 0.7950 0.8030 0.8120 0.8160 0.8299
1358.021608 0.8350 0.8410 0.8500 0.8590 0.8660
1362.412710 0.8710 0.8740 0.8780 0.8790 0.8810
1366.803812 0.8810 0.8820 0.8830 0.8890 0.8890
1371.194914 0.8900 0.8900 0.8900 0.8900 0.8900
1375.586016 0.8900 0.8900 0.8920 0.8930 0.8950
1379.977118 0.8950 0.8930 0.8890 0.8810 0.8720
1384.368219 0.8700 0.8700 0.8630 0.8610 0.8610
1388.759321 0.8600 0.8610 0.8610 0.8590 0.8530
1393.150423 0.8500 0.8430 0.8410 0.8420 0.8540
1397.541525 0.8610 0.8610 0.8590 0.8530 0.8480
1401.932627 0.8460 0.8460 0.8480 0.8480 0.8500
1406.323729 0.8500 0.8520 0.8530 0.8560 0.8570
1410.714831 0.8610 0.8660 0.8700 0.8710 0.8720
1415.105932 0.8750 0.8770 0.8780 0.8770 0.8770
1419.497034 0.8740 0.8720 0.8700 0.8680 0.8660
1423.888136 0.8610 0.8570 0.8540 0.8500 0.8460
1428.279238 0.8340 0.8280 0.8140 0.7990 0.7920
1432.670340 0.7760 0.7660 0.7580 0.7411 0.7231
1437.061442 0.7110 0.7070 0.7000 0.6780 0.6471
1441.452543 0.6171 0.5821 0.5581 0.5172 0.4971
1445.843645 0.4900 0.4900 0.4910 0.4930 0.4930
1450.234747 0.4880 0.4830 0.4730 0.4610 0.4411
1454.625849 0.4010 0.3850 0.3830 0.3860 0.3930
1459.016951 0.3950 0.3970 0.4000 0.4010 0.3990
1463.408053 0.3920 0.3880 0.3710 0.3710 0.4170
1467.799154 0.4619 0.4640 0.4291 0.4111 0.3921
1472.190256 0.3720 0.3720 0.4140 0.4410 0.4689
1476.581358 0.4899 0.5010 0.5060 0.5349 0.5509
1480.972460 0.5800 0.5890 0.6020 0.6170 0.6310
1485.363562 0.6460 0.6600 0.6720 0.6820 0.6860
1489.754664 0.7050 0.7250 0.7450 0.7660 0.7740
1494.145765 0.7800 0.7870 0.7950 0.8050 0.8120
1498.536867 0.8190 0.8270 0.8350 0.8450 0.8520
1502.927969 0.8600 0.8630 0.8680 0.8700 0.8710
1507.319071 0.8720 0.8740 0.8780 0.8810 0.8880
1511.710173 0.8900 0.8920 0.8920 0.8930 0.8960
1516.101275 0.8970 0.9000 0.9030 0.9060 0.9070
1520.492377 0.9070 0.9080 0.9080 0.9100 0.9100
1524.883478 0.9100 0.9100 0.9100 0.9110 0.9110
1529.274580 0.9120 0.9120 0.9120 0.9120 0.9110
1533.665682 0.9110 0.9120 0.9120 0.9140 0.9140
1538.056784 0.9140 0.9140 0.9140 0.9120 0.9120
1542.447886 0.9120 0.9120 0.9110 0.9110 0.9110
1546.838988 0.9100 0.9100 0.9100 0.9080 0.9080
1551.230089 0.9080 0.9080 0.9070 0.9070 0.9070
1555.621191 0.9070 0.9060 0.9040 0.9030 0.9030
1560.012293 0.9010 0.8990 0.8970 0.8960 0.8960
1564.403395 0.8960 0.8950 0.8950 0.8950 0.8930
1568.794497 0.8930 0.8930 0.8920 0.8920 0.8920
1573.185599 0.8900 0.8900 0.8890 0.8890 0.8890
1577.576700 0.8880 0.8880 0.8860 0.8860 0.8850
1581.967802 0.8850 0.8850 0.8850 0.8850 0.8830
1586.358904 0.8830 0.8830 0.8830 0.8830 0.8830
1590.750006 0.8830 0.8830 0.8850 0.8860 0.8860
1595.141108 0.8880 0.8890 0.8890 0.8900 0.8920
1599.532210 0.8920 0.8930 0.8950 0.8950 0.8970
1603.923311 0.8970 0.8990 0.9000 0.9000 0.9000
1608.314413 0.9010 0.9010 0.9010 0.9030 0.9040
1612.705515 0.9040 0.9060 0.9070 0.9080 0.9110
1617.096617 0.9110 0.9120 0.9120 0.9140 0.9150
1621.487719 0.9150 0.9150 0.9150 0.9170 0.9170
1625.878821 0.9170 0.9170 0.9170 0.9150 0.9150
1630.269923 0.9150 0.9150 0.9140 0.9140 0.9140
1634.661024 0.9140 0.9120 0.9120 0.9120 0.9120
1639.052126 0.9120 0.9120 0.9120 0.9140 0.9140
1643.443228 0.9140 0.9140 0.9150 0.9170 0.9180
1647.834330 0.9180 0.9180 0.9180 0.9180 0.9150
1652.225432 0.9150 0.9150 0.9140 0.9150 0.9150
1656.616534 0.9170 0.9170 0.9170 0.9180 0.9190
1661.007635 0.9210 0.9220 0.9220 0.9240 0.9250
1665.398737 0.9260 0.9300 0.9300 0.9300 0.9300
1669.789839 0.9290 0.9320 0.9320 0.9300 0.9300
1674.180941 0.9320 0.9320 0.9320 0.9330 0.9330
1678.572043 0.9330 0.9330 0.9350 0.9330 0.9320
1682.963145 0.9320 0.9320 0.9320 0.9320 0.9320
1687.354246 0.9320 0.9320 0.9320 0.9320 0.9300
1691.745348 0.9300 0.9300 0.9300 0.9320 0.9320
1696.136450 0.9320 0.9320 0.9320 0.9300 0.9280
1700.527552 0.9250 0.9210 0.9190 0.9190 0.9180
1704.918654 0.9180 0.9180 0.9170 0.9170 0.9170
1709.309756 0.9170 0.9150 0.9120 0.9150 0.9150
1713.700857 0.9140 0.9120 0.9120 0.9110 0.9110
1718.091959 0.9110 0.9110 0.9110 0.9110 0.9100
1722.483061 0.9110 0.9100 0.9080 0.9100 0.9080
1726.874163 0.9070 0.9100 0.9080 0.9060 0.9040
1731.265265 0.9010 0.8990 0.8970 0.8960 0.8920
1735.656367 0.8900 0.8900 0.8820 0.8790 0.8790
1740.047469 0.8740 0.8491 0.7842 0.7840 0.8696
1744.438570 0.8750 0.8770 0.8780 0.8780 0.8780
1748.829672 0.8780 0.8780 0.8790 0.8780 0.8780
1753.220774 0.8770 0.8770 0.8750 0.8720 0.8720
1757.611876 0.8710 0.8720 0.8740 0.8780 0.8820
1762.002978 0.8860 0.8900 0.8900 0.8920 0.8930
1766.394080 0.8970 0.8990 0.9010 0.9010 0.9030
1770.785181 0.9100 0.9110 0.9110 0.9110 0.9120
1775.176283 0.9140 0.9150 0.9180 0.9190 0.9190
1779.567385 0.9190 0.9210 0.9220 0.9240 0.9240
1783.958487 0.9240 0.9240 0.9250 0.9250 0.9250
1788.349589 0.9260 0.9260 0.9280 0.9280 0.9290
1792.740691 0.9290 0.9300 0.9300 0.9300 0.9300
1797.131792 0.9300 0.9300 0.9300 0.9300 0.9300
1801.522894 0.9300 0.9300 0.9320 0.9320 0.9320
1805.913996 0.9320 0.9330 0.9330 0.9330 0.9350
1810.305098 0.9350 0.9360 0.9370 0.9370 0.9390
1814.696200 0.9400 0.9410 0.9430 0.9440 0.9470
1819.087302 0.9470 0.9470 0.9480 0.9500 0.9500
1823.478403 0.9500 0.9500 0.9500 0.9480 0.9480
1827.869505 0.9480 0.9470 0.9470 0.9470 0.9460
1832.260607 0.9460 0.9460 0.9440 0.9440 0.9440
1836.651709 0.9430 0.9430 0.9430 0.9430 0.9440
1841.042811 0.9440 0.9430 0.9430 0.9430 0.9430
1845.433913 0.9430 0.9430 0.9430 0.9430 0.9410
1849.825015 0.9410 0.9410 0.9410 0.9400 0.9400
1854.216116 0.9400 0.9390 0.9370 0.9370 0.9360
1858.607218 0.9350 0.9350 0.9330 0.9330 0.9330
1862.998320 0.9330 0.9330 0.9350 0.9350 0.9350
1867.389422 0.9360 0.9360 0.9370 0.9370 0.9390
1871.780524 0.9400 0.9400 0.9400 0.9400 0.9400
1876.171626 0.9400 0.9400 0.9400 0.9400 0.9400
1880.562727 0.9400 0.9410 0.9410 0.9400 0.9430
1884.953829 0.9430 0.9440 0.9460 0.9500 0.9510
1889.344931 0.9530 0.9550 0.9570 0.9590 0.9590
1893.736033 0.9590 0.9610 0.9610 0.9610 0.9610
1898.127135 0.9610 0.9610 0.9610 0.9610 0.9610
1902.518237 0.9590 0.9590 0.9590 0.9590 0.9580
1906.909338 0.9580 0.9580 0.9580 0.9580 0.9580
1911.300440 0.9570 0.9570 0.9570 0.9570 0.9570
1915.691542 0.9570 0.9550 0.9550 0.9550 0.9550
1920.082644 0.9550 0.9550 0.9550 0.9550 0.9550
1924.473746 0.9550 0.9550 0.9550 0.9550 0.9550
1928.864848 0.9550 0.9550 0.9550 0.9550 0.9550
1933.255949 0.9550 0.9550 0.9550 0.9550 0.9550
1937.647051 0.9550 0.9550 0.9550 0.9570 0.9570
1942.038153 0.9570 0.9570 0.9570 0.9570 0.9570
1946.429255 0.9570 0.9570 0.9570 0.9570 0.9570
1950.820357 0.9550 0.9550 0.9550 0.9550 0.9540
1955.211459 0.9540 0.9540 0.9540 0.9540 0.9540
1959.602561 0.9510 0.9470 0.9470 0.9460 0.9460
1963.993662 0.9460 0.9440 0.9440 0.9440 0.9440
1968.384764 0.9440 0.9440 0.9440 0.9440 0.9440
1972.775866 0.9440 0.9440 0.9430 0.9430 0.9430
1977.166968 0.9430 0.9430 0.9430 0.9430 0.9430
1981.558070 0.9440 0.9440 0.9440 0.9460 0.9460
1985.949172 0.9470 0.9470 0.9470 0.9470 0.9460
1990.340273 0.9460 0.9460 0.9460 0.9460 0.9460
1994.731375 0.9470 0.9480 0.9500 0.9510 0.9530
1999.122477 0.9530 0.9540 0.9540 0.9540 0.9540
2003.513579 0.9540 0.9540 0.9540 0.9540 0.9540
2007.904681 0.9540 0.9540 0.9525 0.9510 0.9495
2012.295783 0.9480 0.9475 0.9470 0.9465 0.9460
2016.686884 0.9450 0.9440 0.9435 0.9430 0.9410
2021.077986 0.9389 0.9359 0.9330 0.9325 0.9319
2025.469088 0.9289 0.9259 0.9239 0.9219 0.9184
2029.860190 0.9150 0.9135 0.9119 0.9063 0.9008
2034.251292 0.8953 0.8898 0.8863 0.8828 0.8783
2038.642394 0.8737 0.8667 0.8596 0.8506 0.8415
2043.033495 0.8320 0.8227 0.8157 0.8090 0.8085
2047.424597 0.8080 0.8080 0.8081 0.8101 0.8121
2051.815699 0.8141 0.8160 0.8165 0.8171 0.8181
2056.206801 0.8189 0.8179 0.8168 0.8143 0.8119
2060.597903 0.8104 0.8091 0.8106 0.8123 0.8163
2064.989005 0.8203 0.8238 0.8274 0.8324 0.8376
2069.380107 0.8451 0.8540 0.8755 0.8959 0.9054
2073.771208 0.9147 0.9222 0.9290 0.9295 0.9301
2078.162310 0.9311 0.9320 0.9325 0.9331 0.9346
2082.553412 0.9360 0.9365 0.9370 0.9370 0.9370
2086.944514 0.9370 0.9370 0.9370 0.9370 0.9370
2091.335616 0.9369 0.9364 0.9359 0.9354 0.9350
2095.726718 0.9350 0.9348 0.9333 0.9318 0.9298
2100.117819 0.9276 0.9246 0.9218 0.9198 0.9176
2104.508921 0.9140 0.9108 0.9093 0.9072 0.9017
2108.900023 0.8964 0.8924 0.8877 0.8787 0.8694
2113.291125 0.8584 0.8472 0.8347 0.8239 0.8234
2117.682227 0.8230 0.8230 0.8231 0.8236 0.8242
2122.073329 0.8257 0.8273 0.8293 0.8312 0.8327
2126.464430 0.8365 0.8515 0.8640 0.8640 0.8601
2130.855532 0.8366 0.8167 0.8147 0.8142 0.8212
2135.246634 0.8283 0.8358 0.8436 0.8531 0.8633
2139.637736 0.8769 0.8904 0.9034 0.9160 0.9265
2144.028838 0.9361 0.9421 0.9471 0.9476 0.9485
2148.419940 0.9510 0.9531 0.9536 0.9541 0.9546
2152.811041 0.9550 0.9550 0.9550 0.9550 0.9550
2157.202143 0.9550 0.9550 0.9550 0.9552 0.9562
2161.593245 0.9570 0.9570 0.9568 0.9558 0.9550
