##TITLE=ACETAMIDE, 2-CYANO-
##JCAMP-DX=4.24
$$ By DXEDIT 1.05 (RS McDonald)
##DATA TYPE=INFRARED SPECTRUM
##CLASS=COBLENTZ III
##ORIGIN=DOW CHEMICAL COMPANY
##OWNER=COBLENTZ SOC.
Collection (C) 2018 copyright by the U.S. Secretary of Commerce
on behalf of the United States of America. All rights reserved.
##DATE=1962/12/20
##NAMES=2-cyanoacetamide
##CAS REGISTRY NO=107-91-5
##MOLFORM=C3 H4 N2 O
##SOURCE REFERENCE=COBLENTZ NO. 05791
##$NIST SOURCE=COBLENTZ
##$NIST IMAGE=cob5791
##SPECTROMETER/DATA SYSTEM=DOW KBr FOREPRISM-GRATING
##INSTRUMENT PARAMETERS=BLAZED AT 3.5, 12.0, 20.0 MICRON AND CHANGED AT 5.0, 7.5, 14.9 MICRON
##STATE=SOLID (SPLIT MULL)
##SAMPLING PROCEDURE=TRANSMISSION
##RESOLUTION=2
##DATA PROCESSING=DIGITIZED BY COBLENTZ SOCIETY (BATCH I) FROM HARD COPY
##XUNITS=1/CM
##YUNITS=TRANSMITTANCE
##XLABEL=Wavenumbers (cm-1)
##YLABEL=% Transmission
##XFACTOR=1
##YFACTOR=1
##DELTAX=1
##FIRSTX=3796
##LASTX=379
##FIRSTY=0.8187
##MAXX=3796
##MINX=379
##MAXY=1.0425
##MINY=0.0413
##NPOINTS=3418
##XYDATA=(X++(Y..Y))
3796.000000 0.8187 0.8187 0.8188 0.8188 0.8189
3791.000000 0.8190 0.8191 0.8192 0.8193 0.8193
3786.000000 0.8194 0.8195 0.8196 0.8197 0.8198
3781.000000 0.8198 0.8199 0.8200 0.8201 0.8202
3776.000000 0.8203 0.8204 0.8205 0.8205 0.8206
3771.000000 0.8207 0.8208 0.8209 0.8210 0.8210
3766.000000 0.8211 0.8212 0.8213 0.8213 0.8214
3761.000000 0.8214 0.8215 0.8216 0.8217 0.8217
3756.000000 0.8218 0.8218 0.8218 0.8218 0.8220
3751.000000 0.8221 0.8221 0.8221 0.8223 0.8223
3746.000000 0.8224 0.8224 0.8225 0.8225 0.8227
3741.000000 0.8227 0.8228 0.8228 0.8228 0.8228
3736.000000 0.8230 0.8230 0.8231 0.8231 0.8232
3731.000000 0.8232 0.8233 0.8234 0.8235 0.8235
3726.000000 0.8236 0.8236 0.8237 0.8237 0.8238
3721.000000 0.8238 0.8239 0.8239 0.8240 0.8240
3716.000000 0.8241 0.8241 0.8242 0.8242 0.8243
3711.000000 0.8243 0.8243 0.8243 0.8243 0.8243
3706.000000 0.8244 0.8244 0.8244 0.8244 0.8244
3701.000000 0.8244 0.8244 0.8244 0.8245 0.8245
3696.000000 0.8245 0.8245 0.8245 0.8245 0.8246
3691.000000 0.8246 0.8246 0.8246 0.8247 0.8247
3686.000000 0.8247 0.8247 0.8248 0.8248 0.8249
3681.000000 0.8249 0.8249 0.8249 0.8250 0.8250
3676.000000 0.8250 0.8250 0.8251 0.8251 0.8252
3671.000000 0.8252 0.8252 0.8252 0.8253 0.8253
3666.000000 0.8254 0.8254 0.8255 0.8255 0.8256
3661.000000 0.8256 0.8257 0.8257 0.8258 0.8259
3656.000000 0.8260 0.8260 0.8261 0.8261 0.8262
3651.000000 0.8262 0.8263 0.8263 0.8264 0.8264
3646.000000 0.8265 0.8265 0.8265 0.8265 0.8266
3641.000000 0.8266 0.8266 0.8266 0.8267 0.8267
3636.000000 0.8267 0.8267 0.8268 0.8268 0.8268
3631.000000 0.8267 0.8266 0.8265 0.8264 0.8263
3626.000000 0.8262 0.8258 0.8254 0.8244 0.8235
3621.000000 0.8224 0.8213 0.8197 0.8181 0.8176
3616.000000 0.8172 0.8185 0.8197 0.8208 0.8220
3611.000000 0.8227 0.8235 0.8241 0.8248 0.8254
3606.000000 0.8260 0.8260 0.8260 0.8259 0.8258
3601.000000 0.8255 0.8252 0.8243 0.8235 0.8227
3596.000000 0.8218 0.8207 0.8196 0.8115 0.8034
3591.000000 0.7919 0.7807 0.7761 0.7715 0.7771
3586.000000 0.7826 0.7928 0.8032 0.8114 0.8197
3581.000000 0.8200 0.8204 0.8207 0.8210 0.8213
3576.000000 0.8217 0.8220 0.8223 0.8225 0.8230
3571.000000 0.8233 0.8237 0.8240 0.8243 0.8246
3566.000000 0.8250 0.8253 0.8257 0.8259 0.8262
3561.000000 0.8263 0.8265 0.8266 0.8268 0.8268
3556.000000 0.8271 0.8273 0.8275 0.8275 0.8278
3551.000000 0.8280 0.8282 0.8284 0.8286 0.8288
3546.000000 0.8290 0.8292 0.8294 0.8296 0.8299
3541.000000 0.8301 0.8303 0.8304 0.8306 0.8308
3536.000000 0.8310 0.8312 0.8314 0.8316 0.8318
3531.000000 0.8318 0.8320 0.8321 0.8321 0.8321
3526.000000 0.8323 0.8324 0.8325 0.8325 0.8325
3521.000000 0.8325 0.8327 0.8327 0.8327 0.8327
3516.000000 0.8327 0.8323 0.8318 0.8314 0.8309
3511.000000 0.8303 0.8298 0.8293 0.8288 0.8282
3506.000000 0.8275 0.8268 0.8263 0.8256 0.8250
3501.000000 0.8243 0.8237 0.8228 0.8221 0.8211
3496.000000 0.8202 0.8192 0.8183 0.8171 0.8158
3491.000000 0.8145 0.8132 0.8118 0.8104 0.8090
3486.000000 0.8075 0.8061 0.8046 0.8028 0.8010
3481.000000 0.7992 0.7975 0.7957 0.7939 0.7921
3476.000000 0.7904 0.7880 0.7857 0.7830 0.7803
3471.000000 0.7775 0.7750 0.7722 0.7697 0.7654
3466.000000 0.7611 0.7562 0.7515 0.7468 0.7424
3461.000000 0.7380 0.7336 0.7290 0.7245 0.7194
3456.000000 0.7143 0.7090 0.7037 0.6972 0.6908
3451.000000 0.6845 0.6781 0.6696 0.6611 0.6517
3446.000000 0.6421 0.6306 0.6190 0.5670 0.5151
3441.000000 0.4825 0.4500 0.4210 0.3923 0.3876
3436.000000 0.3829 0.3776 0.3723 0.3666 0.3612
3431.000000 0.3550 0.3489 0.3400 0.3310 0.3212
3426.000000 0.3113 0.3044 0.2975 0.2917 0.2860
3421.000000 0.2811 0.2762 0.2685 0.2611 0.2474
3416.000000 0.2338 0.2325 0.2313 0.2309 0.2301
3411.000000 0.2301 0.2302 0.2302 0.2303 0.2306
3406.000000 0.2310 0.2317 0.2324 0.2330 0.2337
3401.000000 0.2350 0.2364 0.2379 0.2395 0.2412
3396.000000 0.2430 0.2455 0.2481 0.2515 0.2549
3391.000000 0.2588 0.2628 0.2665 0.2703 0.2739
3386.000000 0.2776 0.2804 0.2833 0.2855 0.2878
3381.000000 0.2898 0.2918 0.2938 0.2958 0.2977
3376.000000 0.2997 0.3000 0.3004 0.3008 0.3012
3371.000000 0.3012 0.3012 0.3015 0.3019 0.3024
3366.000000 0.3029 0.3033 0.3038 0.3055 0.3073
3361.000000 0.3107 0.3141 0.3221 0.3302 0.3368
3356.000000 0.3436 0.3490 0.3544 0.3634 0.3726
3351.000000 0.3824 0.3923 0.3964 0.4007 0.4032
3346.000000 0.4059 0.4084 0.4110 0.4132 0.4153
3341.000000 0.4170 0.4187 0.4204 0.4222 0.4239
3336.000000 0.4257 0.4273 0.4290 0.4306 0.4323
3331.000000 0.4340 0.4358 0.4373 0.4388 0.4398
3326.000000 0.4409 0.4417 0.4426 0.4429 0.4433
3321.000000 0.4436 0.4440 0.4444 0.4449 0.4454
3316.000000 0.4459 0.4464 0.4470 0.4477 0.4484
3311.000000 0.4507 0.4530 0.4557 0.4585 0.4612
3306.000000 0.4640 0.4667 0.4695 0.4722 0.4750
3301.000000 0.4777 0.4805 0.4832 0.4860 0.4887
3296.000000 0.4914 0.4941 0.4989 0.4973 0.4978
3291.000000 0.4960 0.4942 0.4890 0.4839 0.4787
3286.000000 0.4736 0.4701 0.4667 0.4639 0.4612
3281.000000 0.4593 0.4574 0.4556 0.4539 0.4528
3276.000000 0.4517 0.4505 0.4494 0.4492 0.4491
3271.000000 0.4490 0.4489 0.4488 0.4488 0.4486
3266.000000 0.4485 0.4482 0.4479 0.4475 0.4472
3261.000000 0.4465 0.4458 0.4433 0.4409 0.4368
3256.000000 0.4327 0.4283 0.4240 0.4203 0.4166
3251.000000 0.4147 0.4128 0.4109 0.4091 0.4068
3246.000000 0.4046 0.4021 0.3997 0.3966 0.3937
3241.000000 0.3890 0.3843 0.3810 0.3780 0.3749
3236.000000 0.3718 0.3693 0.3666 0.3640 0.3612
3231.000000 0.3587 0.3560 0.3540 0.3518 0.3499
3226.000000 0.3480 0.3473 0.3466 0.3462 0.3436
3221.000000 0.3459 0.3459 0.3459 0.3460 0.3470
3216.000000 0.3480 0.3490 0.3500 0.3516 0.3530
3211.000000 0.3549 0.3566 0.3586 0.3606 0.3626
3206.000000 0.3646 0.3666 0.3689 0.3712 0.3737
3201.000000 0.3760 0.3784 0.3823 0.3862 0.3905
3196.000000 0.3949 0.3978 0.4008 0.4037 0.4066
3191.000000 0.4098 0.4130 0.4160 0.4193 0.4224
3186.000000 0.4256 0.4299 0.4342 0.4393 0.4445
3181.000000 0.4506 0.4568 0.4638 0.4708 0.4772
3176.000000 0.4836 0.4897 0.4958 0.5021 0.5085
3171.000000 0.5168 0.5252 0.5289 0.5326 0.5362
3166.000000 0.5400 0.5435 0.5471 0.5505 0.5539
3161.000000 0.5573 0.5608 0.5640 0.5672 0.5700
3156.000000 0.5729 0.5758 0.5787 0.5815 0.5844
3151.000000 0.5872 0.5901 0.5930 0.5959 0.5988
3146.000000 0.6017 0.6045 0.6074 0.6103 0.6132
3141.000000 0.6152 0.6172 0.6192 0.6212 0.6232
3136.000000 0.6252 0.6272 0.6292 0.6312 0.6333
3131.000000 0.6353 0.6373 0.6393 0.6412 0.6433
3126.000000 0.6454 0.6474 0.6495 0.6515 0.6535
3121.000000 0.6556 0.6576 0.6597 0.6618 0.6639
3116.000000 0.6660 0.6681 0.6701 0.6718 0.6736
3111.000000 0.6751 0.6765 0.6781 0.6796 0.6811
3106.000000 0.6826 0.6842 0.6857 0.6871 0.6888
3101.000000 0.6901 0.6915 0.6930 0.6944 0.6958
3096.000000 0.6972 0.6987 0.7001 0.7015 0.7030
3091.000000 0.7041 0.7053 0.7061 0.7071 0.7080
3086.000000 0.7089 0.7098 0.7108 0.7117 0.7125
3081.000000 0.7135 0.7144 0.7153 0.7161 0.7168
3076.000000 0.7176 0.7184 0.7191 0.7198 0.7205
3071.000000 0.7211 0.7218 0.7225 0.7233 0.7240
3066.000000 0.7247 0.7254 0.7261 0.7267 0.7274
3061.000000 0.7281 0.7288 0.7294 0.7301 0.7306
3056.000000 0.7311 0.7318 0.7324 0.7330 0.7336
3051.000000 0.7342 0.7348 0.7354 0.7360 0.7365
3046.000000 0.7371 0.7378 0.7384 0.7390 0.7396
3041.000000 0.7401 0.7408 0.7414 0.7421 0.7426
3036.000000 0.7433 0.7439 0.7446 0.7451 0.7458
3031.000000 0.7465 0.7471 0.7476 0.7484 0.7490
3026.000000 0.7496 0.7501 0.7508 0.7515 0.7522
3021.000000 0.7528 0.7536 0.7542 0.7549 0.7556
3016.000000 0.7562 0.7568 0.7575 0.7582 0.7588
3011.000000 0.7593 0.7598 0.7601 0.7607 0.7611
3006.000000 0.7617 0.7621 0.7626 0.7632 0.7637
3001.000000 0.7642 0.7647 0.7651 0.7658 0.7662
2996.000000 0.7668 0.7669 0.7671 0.7672 0.7674
2991.000000 0.7674 0.7675 0.7671 0.7669 0.7665
2986.000000 0.7661 0.7651 0.7641 0.7628 0.7615
2981.000000 0.7568 0.7521 0.7411 0.7304 0.7196
2976.000000 0.7088 0.7010 0.6932 0.6922 0.6914
2971.000000 0.6903 0.6893 0.6871 0.6725 0.6783
2966.000000 0.6718 0.6712 0.6708 0.6758 0.6811
2961.000000 0.6968 0.7125 0.7284 0.7442 0.7462
2956.000000 0.7484 0.7493 0.7501 0.7508 0.7530
2951.000000 0.7518 0.7524 0.7525 0.7526 0.7505
2946.000000 0.7484 0.7392 0.7300 0.7184 0.7068
2941.000000 0.6953 0.6837 0.6721 0.6607 0.6607
2936.000000 0.6608 0.6608 0.6611 0.6637 0.6662
2931.000000 0.6761 0.6858 0.6956 0.7054 0.7151
2926.000000 0.7250 0.7264 0.7278 0.7271 0.7262
2921.000000 0.7256 0.7249 0.7281 0.7312 0.7362
2916.000000 0.7412 0.7461 0.7511 0.7551 0.7593
2911.000000 0.7608 0.7622 0.7638 0.7653 0.7668
2906.000000 0.7683 0.7692 0.7701 0.7708 0.7717
2901.000000 0.7725 0.7733 0.7741 0.7750 0.7757
2896.000000 0.7765 0.7771 0.7778 0.7784 0.7791
2891.000000 0.7797 0.7804 0.7810 0.7817 0.7822
2886.000000 0.7830 0.7836 0.7843 0.7849 0.7856
2881.000000 0.7861 0.7868 0.7875 0.7882 0.7888
2876.000000 0.7895 0.7901 0.7908 0.7914 0.7921
2871.000000 0.7926 0.7933 0.7938 0.7944 0.7949
2866.000000 0.7954 0.7958 0.7965 0.7969 0.7975
2861.000000 0.7981 0.7987 0.7993 0.7999 0.8005
2856.000000 0.8011 0.8015 0.8021 0.8025 0.8030
2851.000000 0.8030 0.8030 0.8030 0.8030 0.8030
2846.000000 0.8030 0.8028 0.8026 0.8025 0.8041
2841.000000 0.8021 0.8019 0.8018 0.8017 0.8015
2836.000000 0.8014 0.8011 0.8011 0.8008 0.8006
2831.000000 0.8003 0.8000 0.7996 0.7993 0.7990
2826.000000 0.7987 0.7983 0.7980 0.7976 0.7974
2821.000000 0.7969 0.7967 0.7962 0.7960 0.7957
2816.000000 0.7954 0.7950 0.7947 0.7943 0.7940
2811.000000 0.7937 0.7934 0.7928 0.7924 0.7915
2806.000000 0.7908 0.7901 0.7894 0.7887 0.7880
2801.000000 0.7871 0.7864 0.7856 0.7849 0.7843
2796.000000 0.7838 0.7837 0.7837 0.7836 0.7836
2791.000000 0.7841 0.7846 0.7855 0.7865 0.7876
2786.000000 0.7890 0.7903 0.7915 0.7928 0.7940
2781.000000 0.7951 0.7962 0.7974 0.7986 0.7997
2776.000000 0.8008 0.8018 0.8031 0.8040 0.8050
2771.000000 0.8056 0.8062 0.8068 0.8075 0.8081
2766.000000 0.8087 0.8091 0.8095 0.8099 0.8103
2761.000000 0.8107 0.8111 0.8114 0.8115 0.8115
2756.000000 0.8111 0.8108 0.8105 0.8100 0.8095
2751.000000 0.8089 0.8084 0.8078 0.8072 0.8068
2746.000000 0.8064 0.8058 0.8055 0.8054 0.8053
2741.000000 0.8053 0.8053 0.8053 0.8053 0.8056
2736.000000 0.8060 0.8062 0.8067 0.8071 0.8075
2731.000000 0.8078 0.8083 0.8087 0.8091 0.8094
2726.000000 0.8098 0.8101 0.8106 0.8110 0.8115
2721.000000 0.8118 0.8124 0.8128 0.8133 0.8137
2716.000000 0.8142 0.8146 0.8151 0.8155 0.8160
2711.000000 0.8164 0.8168 0.8172 0.8178 0.8182
2706.000000 0.8187 0.8191 0.8196 0.8200 0.8204
2701.000000 0.8208 0.8212 0.8215 0.8218 0.8221
2696.000000 0.8225 0.8228 0.8233 0.8236 0.8240
2691.000000 0.8243 0.8247 0.8250 0.8254 0.8257
2686.000000 0.8261 0.8264 0.8268 0.8271 0.8275
2681.000000 0.8278 0.8282 0.8285 0.8289 0.8292
2676.000000 0.8296 0.8299 0.8303 0.8306 0.8310
2671.000000 0.8313 0.8316 0.8318 0.8321 0.8325
2666.000000 0.8328 0.8331 0.8334 0.8337 0.8340
2661.000000 0.8343 0.8346 0.8349 0.8352 0.8355
2656.000000 0.8358 0.8361 0.8364 0.8367 0.8370
2651.000000 0.8373 0.8375 0.8378 0.8382 0.8385
2646.000000 0.8388 0.8391 0.8394 0.8397 0.8400
2641.000000 0.8403 0.8407 0.8410 0.8413 0.8416
2636.000000 0.8418 0.8421 0.8425 0.8428 0.8432
2631.000000 0.8435 0.8438 0.8441 0.8445 0.8448
2626.000000 0.8451 0.8454 0.8458 0.8461 0.8464
2621.000000 0.8467 0.8470 0.8473 0.8477 0.8478
2616.000000 0.8481 0.8482 0.8484 0.8486 0.8488
2611.000000 0.8489 0.8491 0.8493 0.8495 0.8496
2606.000000 0.8498 0.8500 0.8502 0.8503 0.8505
2601.000000 0.8507 0.8509 0.8510 0.8512 0.8514
2596.000000 0.8516 0.8518 0.8520 0.8521 0.8523
2591.000000 0.8523 0.8524 0.8524 0.8524 0.8523
2586.000000 0.8523 0.8521 0.8521 0.8521 0.8521
2581.000000 0.8521 0.8521 0.8521 0.8521 0.8520
2576.000000 0.8520 0.8518 0.8518 0.8518 0.8518
2571.000000 0.8518 0.8518 0.8517 0.8517 0.8516
2566.000000 0.8515 0.8514 0.8513 0.8512 0.8511
2561.000000 0.8510 0.8509 0.8508 0.8507 0.8506
2556.000000 0.8505 0.8504 0.8503 0.8502 0.8501
2551.000000 0.8500 0.8499 0.8498 0.8497 0.8496
2546.000000 0.8496 0.8495 0.8494 0.8493 0.8493
2541.000000 0.8492 0.8491 0.8488 0.8486 0.8477
2536.000000 0.8468 0.8460 0.8452 0.8445 0.8438
2531.000000 0.8432 0.8425 0.8423 0.8420 0.8420
2526.000000 0.8420 0.8423 0.8425 0.8434 0.8442
2521.000000 0.8448 0.8454 0.8457 0.8460 0.8462
2516.000000 0.8465 0.8467 0.8470 0.8471 0.8475
2511.000000 0.8478 0.8481 0.8483 0.8486 0.8486
2506.000000 0.8487 0.8488 0.8489 0.8489 0.8490
2501.000000 0.8491 0.8492 0.8492 0.8493 0.8494
2496.000000 0.8495 0.8495 0.8496 0.8497 0.8498
2491.000000 0.8498 0.8499 0.8498 0.8496 0.8493
2486.000000 0.8490 0.8487 0.8484 0.8481 0.8478
2481.000000 0.8475 0.8475 0.8473 0.8471 0.8468
2476.000000 0.8467 0.8465 0.8464 0.8462 0.8460
2471.000000 0.8458 0.8456 0.8454 0.8452 0.8450
2466.000000 0.8449 0.8447 0.8445 0.8444 0.8444
2461.000000 0.8446 0.8449 0.8451 0.8454 0.8456
2456.000000 0.8459 0.8461 0.8464 0.8466 0.8468
2451.000000 0.8471 0.8474 0.8475 0.8478 0.8480
2446.000000 0.8481 0.8482 0.8483 0.8484 0.8486
2441.000000 0.8487 0.8488 0.8489 0.8491 0.8492
2436.000000 0.8493 0.8494 0.8495 0.8496 0.8498
2431.000000 0.8499 0.8500 0.8500 0.8500 0.8500
2426.000000 0.8500 0.8499 0.8499 0.8499 0.8499
2421.000000 0.8498 0.8498 0.8498 0.8498 0.8498
2416.000000 0.8498 0.8497 0.8497 0.8497 0.8497
2411.000000 0.8495 0.8494 0.8493 0.8492 0.8490
2406.000000 0.8489 0.8488 0.8487 0.8485 0.8484
2401.000000 0.8482 0.8481 0.8480 0.8478 0.8477
2396.000000 0.8475 0.8475 0.8474 0.8471 0.8471
2391.000000 0.8470 0.8468 0.8467 0.8466 0.8464
2386.000000 0.8463 0.8461 0.8459 0.8457 0.8455
2381.000000 0.8453 0.8451 0.8448 0.8446 0.8443
2376.000000 0.8441 0.8440 0.8439 0.8439 0.8439
2371.000000 0.8439 0.8439 0.8438 0.8438 0.8446
2366.000000 0.8454 0.8460 0.8467 0.8473 0.8480
2361.000000 0.8486 0.8492 0.8498 0.8505 0.8511
2356.000000 0.8518 0.8523 0.8528 0.8525 0.8523
2351.000000 0.8520 0.8517 0.8508 0.8499 0.8488
2346.000000 0.8477 0.8466 0.8455 0.8444 0.8433
2341.000000 0.8424 0.8415 0.8410 0.8406 0.8401
2336.000000 0.8397 0.8393 0.8389 0.8389 0.8389
2331.000000 0.8389 0.8389 0.8389 0.8390 0.8390
2326.000000 0.8391 0.8392 0.8393 0.8393 0.8394
2321.000000 0.8394 0.8395 0.8396 0.8397 0.8397
2316.000000 0.8398 0.8398 0.8399 0.8400 0.8401
2311.000000 0.8402 0.8404 0.8405 0.8407 0.8408
2306.000000 0.8410 0.8410 0.8410 0.8409 0.8408
2301.000000 0.8407 0.8407 0.8405 0.8403 0.8401
2296.000000 0.8399 0.8385 0.8393 0.8348 0.8325
2291.000000 0.8298 0.8271 0.8028 0.7785 0.7526
2286.000000 0.7269 0.7011 0.6755 0.6497 0.6240
2281.000000 0.5982 0.5626 0.5626 0.5626 0.5669
2276.000000 0.5712 0.5899 0.6087 0.6274 0.6461
2271.000000 0.6648 0.6836 0.7003 0.7171 0.7236
2266.000000 0.7301 0.7357 0.7411 0.7460 0.7508
2261.000000 0.7557 0.7606 0.7657 0.7708 0.7768
2256.000000 0.7828 0.7904 0.7980 0.8065 0.8150
2251.000000 0.8183 0.8217 0.8234 0.8251 0.8259
2246.000000 0.8268 0.8277 0.8286 0.8294 0.8303
2241.000000 0.8311 0.8318 0.8325 0.8333 0.8340
2236.000000 0.8347 0.8354 0.8361 0.8368 0.8375
2231.000000 0.8381 0.8388 0.8395 0.8402 0.8409
2226.000000 0.8416 0.8421 0.8428 0.8435 0.8442
2221.000000 0.8448 0.8454 0.8460 0.8466 0.8471
2216.000000 0.8478 0.8482 0.8486 0.8489 0.8492
2211.000000 0.8495 0.8499 0.8500 0.8500 0.8500
2206.000000 0.8500 0.8499 0.8499 0.8498 0.8497
2201.000000 0.8496 0.8496 0.8495 0.8495 0.8494
2196.000000 0.8493 0.8492 0.8492 0.8491 0.8490
2191.000000 0.8489 0.8488 0.8487 0.8487 0.8486
2186.000000 0.8485 0.8484 0.8483 0.8482 0.8481
2181.000000 0.8480 0.8478 0.8478 0.8477 0.8475
2176.000000 0.8475 0.8474 0.8473 0.8471 0.8471
2171.000000 0.8470 0.8468 0.8468 0.8468 0.8467
2166.000000 0.8466 0.8466 0.8466 0.8466 0.8466
2161.000000 0.8466 0.8466 0.8466 0.8466 0.8466
2156.000000 0.8466 0.8466 0.8466 0.8466 0.8466
2151.000000 0.8466 0.8466 0.8466 0.8466 0.8466
2146.000000 0.8466 0.8466 0.8466 0.8466 0.8466
2141.000000 0.8466 0.8466 0.8466 0.8466 0.8466
2136.000000 0.8466 0.8466 0.8466 0.8466 0.8466
2131.000000 0.8466 0.8466 0.8466 0.8467 0.8467
2126.000000 0.8468 0.8468 0.8470 0.8470 0.8471
2121.000000 0.8471 0.8471 0.8471 0.8473 0.8474
2116.000000 0.8475 0.8475 0.8475 0.8475 0.8477
2111.000000 0.8477 0.8478 0.8478 0.8480 0.8480
2106.000000 0.8481 0.8481 0.8482 0.8482 0.8483
2101.000000 0.8483 0.8484 0.8485 0.8486 0.8486
2096.000000 0.8487 0.8487 0.8488 0.8488 0.8489
2091.000000 0.8490 0.8491 0.8491 0.8492 0.8492
2086.000000 0.8493 0.8494 0.8495 0.8495 0.8496
2081.000000 0.8496 0.8497 0.8498 0.8499 0.8499
2076.000000 0.8500 0.8500 0.8501 0.8502 0.8503
2071.000000 0.8503 0.8504 0.8504 0.8505 0.8505
2066.000000 0.8506 0.8506 0.8507 0.8507 0.8508
2061.000000 0.8508 0.8509 0.8510 0.8512 0.8514
2056.000000 0.8516 0.8518 0.8520 0.8521 0.8525
2051.000000 0.8527 0.8528 0.8532 0.8535 0.8538
2046.000000 0.8541 0.8544 0.8547 0.8552 0.8558
2041.000000 0.8565 0.8571 0.8578 0.8585 0.8643
2036.000000 0.8702 0.8766 0.8830 0.8894 0.8958
2031.000000 0.8987 0.9017 0.8975 0.8934 0.8847
2026.000000 0.8761 0.8684 0.8608 0.8607 0.8606
2021.000000 0.8605 0.8605 0.8604 0.8603 0.8602
2016.000000 0.8602 0.8601 0.8600 0.8598 0.8597
2011.000000 0.8596 0.8595 0.8594 0.8593 0.8591
2006.000000 0.8590 0.8595 0.8601 0.8606 0.8611
2001.000000 0.8648 0.8686 0.8728 0.8768 0.8795
1996.000000 0.8807 0.8818 0.8831 0.8835 0.8838
1991.000000 0.8841 0.8844 0.8847 0.8850 0.8852
1986.000000 0.8855 0.8858 0.8861 0.8863 0.8866
1981.000000 0.8868 0.8871 0.8874 0.8877 0.8878
1976.000000 0.8882 0.8885 0.8890 0.8894 0.8898
1971.000000 0.8903 0.8907 0.8912 0.8918 0.8927
1966.000000 0.8937 0.8952 0.8986 0.9321 0.9658
1961.000000 0.9995 1.0331 1.0424 1.0425 0.9008
1956.000000 0.8981 0.8964 0.8952 0.8971 0.9008
1951.000000 0.9062 0.9088 0.9078 0.9033 0.9000
1946.000000 0.8967 0.8951 0.8936 0.8928 0.8928
1941.000000 0.8930 0.8931 0.8931 0.8932 0.8933
1936.000000 0.8934 0.8935 0.8935 0.8936 0.8937
1931.000000 0.8938 0.8938 0.8938 0.8938 0.8938
1926.000000 0.8938 0.8937 0.8937 0.8937 0.8937
1921.000000 0.8936 0.8936 0.8936 0.8936 0.8936
1916.000000 0.8936 0.8936 0.8937 0.8937 0.8938
1911.000000 0.8939 0.8939 0.8940 0.8940 0.8941
1906.000000 0.8942 0.8942 0.8943 0.8943 0.8944
1901.000000 0.8944 0.8945 0.8946 0.8946 0.8947
1896.000000 0.8948 0.8948 0.8949 0.8949 0.8950
1891.000000 0.8951 0.8951 0.8952 0.8953 0.8953
1886.000000 0.8954 0.8955 0.8955 0.8956 0.8957
1881.000000 0.8957 0.8958 0.8958 0.8959 0.8960
1876.000000 0.8960 0.8961 0.8961 0.8960 0.8959
1871.000000 0.8959 0.8958 0.8958 0.8957 0.8956
1866.000000 0.8956 0.8955 0.8954 0.8954 0.8953
1861.000000 0.8952 0.8952 0.8951 0.8951 0.8949
1856.000000 0.8947 0.8945 0.8942 0.8940 0.8938
1851.000000 0.8936 0.8934 0.8932 0.8930 0.8928
1846.000000 0.8925 0.8924 0.8921 0.8920 0.8917
1841.000000 0.8915 0.8914 0.8912 0.8910 0.8909
1836.000000 0.8907 0.8906 0.8904 0.8902 0.8901
1831.000000 0.8899 0.8898 0.8895 0.8891 0.8886
1826.000000 0.8882 0.8878 0.8874 0.8868 0.8865
1821.000000 0.8861 0.8856 0.8852 0.8848 0.8844
1816.000000 0.8840 0.8836 0.8831 0.8827 0.8823
1811.000000 0.8818 0.8815 0.8811 0.8807 0.8803
1806.000000 0.8799 0.8795 0.8790 0.8786 0.8782
1801.000000 0.8778 0.8773 0.8768 0.8763 0.8759
1796.000000 0.8754 0.8749 0.8744 0.8740 0.8735
1791.000000 0.8730 0.8725 0.8721 0.8716 0.8711
1786.000000 0.8706 0.8700 0.8693 0.8686 0.8680
