##TITLE=Propane, 1,2-epithio-
##JCAMP-DX=4.24
$$ By DXEDIT 1.05 (RS McDonald)
##DATA TYPE=INFRARED SPECTRUM
##CLASS=COBLENTZ III
##ORIGIN=DOW CHEMICAL COMPANY
##OWNER=COPYRIGHT (C) 1988 by COBLENTZ SOCIETY INC.
Collection (C) 2018 copyright by the U.S. Secretary of Commerce
on behalf of the United States of America. All rights reserved.
##DATE=1964/11/12
##NAMES=2-methylthiirane
##CAS REGISTRY NO=1072-43-1
##MOLFORM=C3 H6 S
##SOURCE REFERENCE=COBLENTZ NO. 5647
##$NIST SOURCE=COBLENTZ
##$NIST IMAGE=cob5647
##SPECTROMETER/DATA SYSTEM=DOW KBr FOREPRISM-GRATING
$$SPECTRAL CONTAMINATIONS DUE TO CS2 AROUND 400, AND CCl4 AROUND 1550 CM^-^1 HAVE BEEN SUBTRACTED
##INSTRUMENT PARAMETERS=BLAZED AT 3.5, 12.0, 20.0 AND CHANGED AT 5.0, 7.5, 14.9 MICRON
##STATE=SOLUTION (10% CCl4 FOR 2.6-7.5, 10% CS2 FOR 7.5-26)
##PATH LENGTH=0.011 CM, 0.011 CM
##SAMPLING PROCEDURE=TRANSMISSION
##RESOLUTION=2
##DATA PROCESSING=DIGITIZED BY COBLENTZ SOCIETY (BATCH I) FROM HARD COPY
##XUNITS=1/CM
##YUNITS=TRANSMITTANCE
##XFACTOR=1
##YFACTOR=1
##DELTAX=1
##FIRSTX=381
##LASTX=3816
##FIRSTY=0.1326
##MAXX=3816
##MINX=381
##MAXY=0.9631
##MINY=0.0416
##NPOINTS=3436
##XYDATA=(X++(Y..Y))
381.000000 0.1326 0.1372 0.1433 0.1505 0.1565
386.000000 0.1608 0.1642 0.1673 0.1708 0.1746
391.000000 0.1780 0.1814 0.1852 0.1896 0.1946
396.000000 0.1993 0.2032 0.2076 0.2119 0.2185
401.000000 0.2263 0.2321 0.2364 0.2404 0.2579
406.000000 0.2777 0.2974 0.3172 0.3369 0.3567
411.000000 0.3899 0.4089 0.4231 0.4413 0.4609
416.000000 0.4802 0.4993 0.5184 0.5356 0.5791
421.000000 0.5939 0.6078 0.6184 0.6259 0.6309
426.000000 0.6360 0.6412 0.6462 0.6511 0.6555
431.000000 0.6599 0.6642 0.6685 0.6728 0.6772
436.000000 0.6818 0.6863 0.6908 0.6953 0.6997
441.000000 0.7045 0.7093 0.7139 0.7187 0.7235
446.000000 0.7283 0.7328 0.7362 0.7397 0.7431
451.000000 0.7465 0.7502 0.7536 0.7570 0.7611
456.000000 0.7658 0.7705 0.7751 0.7788 0.7815
461.000000 0.7842 0.7870 0.7897 0.7922 0.7950
466.000000 0.7978 0.8005 0.8031 0.8060 0.8090
471.000000 0.8118 0.8145 0.8175 0.8202 0.8231
476.000000 0.8260 0.8288 0.8309 0.8323 0.8338
481.000000 0.8352 0.8367 0.8381 0.8396 0.8410
486.000000 0.8425 0.8440 0.8454 0.8464 0.8473
491.000000 0.8482 0.8491 0.8500 0.8508 0.8516
496.000000 0.8525 0.8534 0.8541 0.8549 0.8556
501.000000 0.8564 0.8571 0.8579 0.8587 0.8594
506.000000 0.8601 0.8609 0.8611 0.8613 0.8614
511.000000 0.8617 0.8628 0.8621 0.8624 0.8626
516.000000 0.8629 0.8631 0.8633 0.8635 0.8635
521.000000 0.8635 0.8636 0.8636 0.8637 0.8637
526.000000 0.8632 0.8623 0.8622 0.8622 0.8623
531.000000 0.8623 0.8623 0.8624 0.8613 0.8619
536.000000 0.8621 0.8606 0.8599 0.8584 0.8578
541.000000 0.8575 0.8566 0.8554 0.8542 0.8530
546.000000 0.8513 0.8490 0.8466 0.8442 0.8413
551.000000 0.8368 0.8323 0.8292 0.8251 0.8220
556.000000 0.8202 0.8198 0.8194 0.8191 0.8187
561.000000 0.8184 0.8181 0.8178 0.8185 0.8184
566.000000 0.8168 0.8161 0.8170 0.8158 0.8145
571.000000 0.8123 0.8089 0.8059 0.8015 0.7950
576.000000 0.7898 0.7849 0.7794 0.7727 0.7660
581.000000 0.7592 0.7512 0.7435 0.7355 0.7286
586.000000 0.7191 0.7071 0.6954 0.6831 0.6661
591.000000 0.6492 0.6295 0.4649 0.4080 0.3511
596.000000 0.2943 0.2374 0.1807 0.1238 0.0733
601.000000 0.0730 0.0729 0.0732 0.0868 0.0722
606.000000 0.1869 0.2371 0.2876 0.3377 0.3879
611.000000 0.4381 0.4883 0.5384 0.5892 0.6399
616.000000 0.6902 0.6974 0.7006 0.6995 0.6993
621.000000 0.6976 0.6944 0.6749 0.6476 0.6192
626.000000 0.5908 0.5633 0.5349 0.5073 0.4787
631.000000 0.4504 0.4226 0.4044 0.4058 0.4331
636.000000 0.4865 0.5400 0.5946 0.6496 0.6986
641.000000 0.7258 0.7471 0.7656 0.7924 0.8122
646.000000 0.8219 0.8297 0.8367 0.8420 0.8454
651.000000 0.8490 0.8507 0.8540 0.8560 0.8596
656.000000 0.8629 0.8657 0.8682 0.8853 0.8832
661.000000 0.8811 0.8796 0.8791 0.8804 0.8984
666.000000 0.9060 0.9197 0.9315 0.9258 0.9166
671.000000 0.9162 0.9180 0.9208 0.9226 0.9255
676.000000 0.9251 0.9227 0.9217 0.9192 0.9199
681.000000 0.9192 0.9202 0.9209 0.9206 0.9216
686.000000 0.9225 0.9233 0.9235 0.9230 0.9238
691.000000 0.9245 0.9251 0.9259 0.9267 0.9265
696.000000 0.9267 0.9275 0.9284 0.9292 0.9306
701.000000 0.9307 0.9317 0.9330 0.9326 0.9335
706.000000 0.9345 0.9354 0.9366 0.9377 0.9387
711.000000 0.9398 0.9404 0.9412 0.9416 0.9412
716.000000 0.9426 0.9437 0.9442 0.9457 0.9476
721.000000 0.9482 0.9482 0.9480 0.9482 0.9491
726.000000 0.9487 0.9491 0.9500 0.9508 0.9517
731.000000 0.9506 0.9510 0.9514 0.9519 0.9524
736.000000 0.9529 0.9533 0.9539 0.9543 0.9548
741.000000 0.9552 0.9555 0.9558 0.9560 0.9562
746.000000 0.9565 0.9568 0.9573 0.9582 0.9592
751.000000 0.9603 0.9615 0.9627 0.9615 0.9611
756.000000 0.9611 0.9609 0.9631 0.9604 0.9603
761.000000 0.9601 0.9599 0.9597 0.9593 0.9592
766.000000 0.9602 0.9597 0.9593 0.9592 0.9599
771.000000 0.9592 0.9586 0.9589 0.9592 0.9588
776.000000 0.9584 0.9581 0.9588 0.9591 0.9586
781.000000 0.9596 0.9597 0.9606 0.9619 0.9616
786.000000 0.9611 0.9607 0.9601 0.9597 0.9594
791.000000 0.9602 0.9583 0.9576 0.9577 0.9586
796.000000 0.9582 0.9577 0.9573 0.9569 0.9566
801.000000 0.9562 0.9558 0.9553 0.9548 0.9541
806.000000 0.9524 0.9512 0.9518 0.9516 0.9495
811.000000 0.9486 0.9465 0.9440 0.9428 0.9420
816.000000 0.9409 0.9385 0.9375 0.9366 0.9356
821.000000 0.9350 0.9342 0.9322 0.9302 0.9281
826.000000 0.9264 0.9249 0.9231 0.9231 0.9226
831.000000 0.9223 0.9233 0.9243 0.9265 0.9269
836.000000 0.9280 0.9282 0.9270 0.9260 0.9227
841.000000 0.9199 0.9210 0.9226 0.9245 0.9275
846.000000 0.9284 0.9308 0.9329 0.9320 0.9315
851.000000 0.9283 0.9224 0.9143 0.9033 0.8920
856.000000 0.8844 0.8759 0.8666 0.8567 0.8461
861.000000 0.8345 0.8241 0.8141 0.8030 0.7722
866.000000 0.7377 0.7036 0.6685 0.6350 0.6208
871.000000 0.6175 0.6462 0.6854 0.7242 0.7630
876.000000 0.7846 0.8021 0.8252 0.8435 0.8547
881.000000 0.8686 0.8771 0.8809 0.8838 0.8847
886.000000 0.8857 0.8844 0.8822 0.8775 0.8735
891.000000 0.8689 0.8640 0.8586 0.8543 0.8480
896.000000 0.8426 0.8374 0.8314 0.8240 0.7994
901.000000 0.7708 0.7430 0.7147 0.6874 0.6597
906.000000 0.6316 0.6043 0.6016 0.6154 0.6383
911.000000 0.6611 0.6675 0.6646 0.6518 0.6224
916.000000 0.5931 0.5630 0.5343 0.5044 0.5001
921.000000 0.4982 0.5336 0.5698 0.6059 0.6421
926.000000 0.6980 0.7519 0.7954 0.8115 0.8256
931.000000 0.8390 0.8460 0.8529 0.8576 0.8617
936.000000 0.8657 0.8693 0.8720 0.8747 0.8774
941.000000 0.8795 0.8813 0.8830 0.8848 0.8863
946.000000 0.8872 0.8883 0.8891 0.8903 0.8912
951.000000 0.8920 0.8922 0.8923 0.8925 0.8926
956.000000 0.8925 0.8925 0.8924 0.8921 0.8918
961.000000 0.8914 0.8911 0.8906 0.8901 0.8896
966.000000 0.8890 0.8885 0.8880 0.8866 0.8852
971.000000 0.8836 0.8810 0.8805 0.8793 0.8777
976.000000 0.8760 0.8743 0.8727 0.8689 0.8649
981.000000 0.8609 0.8569 0.8519 0.8466 0.8412
986.000000 0.8340 0.8260 0.8183 0.8062 0.7846
991.000000 0.7714 0.7575 0.7402 0.7214 0.7039
996.000000 0.6483 0.5912 0.5348 0.4890 0.4899
1001.000000 0.5089 0.5596 0.6103 0.6609 0.7129
1006.000000 0.7576 0.7669 0.7752 0.7817 0.7845
1011.000000 0.7848 0.7858 0.7847 0.7834 0.7821
1016.000000 0.7804 0.7781 0.7753 0.7717 0.7677
1021.000000 0.7588 0.7502 0.7409 0.7306 0.7200
1026.000000 0.7079 0.6069 0.5534 0.4999 0.4465
1031.000000 0.3938 0.3402 0.3191 0.3195 0.3214
1036.000000 0.4009 0.4644 0.5279 0.5915 0.6586
1041.000000 0.6790 0.6911 0.7051 0.7153 0.7196
1046.000000 0.7203 0.7180 0.7191 0.7175 0.7158
1051.000000 0.7118 0.7069 0.7007 0.6930 0.6835
1056.000000 0.6670 0.6191 0.5695 0.5189 0.4701
1061.000000 0.4204 0.3707 0.3202 0.2708 0.2211
1066.000000 0.1715 0.1219 0.0722 0.0416 0.0473
1071.000000 0.0727 0.1300 0.1872 0.2442 0.3014
1076.000000 0.3588 0.4166 0.5091 0.7016 0.7224
1081.000000 0.7367 0.7484 0.7595 0.7708 0.7831
1086.000000 0.7957 0.8046 0.8132 0.8234 0.8337
1091.000000 0.8397 0.8459 0.8498 0.8533 0.8567
1096.000000 0.8589 0.8612 0.8634 0.8654 0.8671
1101.000000 0.8688 0.8700 0.8708 0.8718 0.8728
1106.000000 0.8737 0.8754 0.8748 0.8759 0.8761
1111.000000 0.8761 0.8759 0.8757 0.8752 0.8751
1116.000000 0.8744 0.8724 0.8719 0.8713 0.8701
1121.000000 0.8687 0.8669 0.8644 0.8627 0.8609
1126.000000 0.8591 0.8572 0.8552 0.8540 0.8526
1131.000000 0.8505 0.8480 0.8451 0.8433 0.8406
1136.000000 0.8363 0.8320 0.8260 0.8199 0.8134
1141.000000 0.8063 0.7990 0.7904 0.7839 0.7759
1146.000000 0.7677 0.7587 0.7501 0.7393 0.7250
1151.000000 0.7061 0.6225 0.6059 0.5976 0.5979
1156.000000 0.5999 0.6006 0.6144 0.6177 0.6208
1161.000000 0.6239 0.6285 0.6362 0.6594 0.6921
1166.000000 0.7249 0.7576 0.7752 0.7880 0.8045
1171.000000 0.8165 0.8242 0.8292 0.8328 0.8362
1176.000000 0.8394 0.8420 0.8438 0.8437 0.8437
1181.000000 0.8435 0.8446 0.8466 0.8473 0.8473
1186.000000 0.8474 0.8475 0.8476 0.8477 0.8479
1191.000000 0.8483 0.8486 0.8489 0.8478 0.8481
1196.000000 0.8486 0.8496 0.8507 0.8530 0.8538
1201.000000 0.8548 0.8554 0.8559 0.8563 0.8567
1206.000000 0.8567 0.8569 0.8570 0.8572 0.8572
1211.000000 0.8571 0.8570 0.8557 0.8553 0.8552
1216.000000 0.8550 0.8547 0.8542 0.8538 0.8534
1221.000000 0.8530 0.8526 0.8523 0.8523 0.8523
1226.000000 0.8523 0.8523 0.8528 0.8535 0.8541
1231.000000 0.8546 0.8553 0.8554 0.8553 0.8560
1236.000000 0.8567 0.8575 0.8581 0.8579 0.8580
1241.000000 0.8586 0.8592 0.8598 0.8603 0.8623
1246.000000 0.8630 0.8637 0.8636 0.8636 0.8632
1251.000000 0.8628 0.8623 0.8618 0.8624 0.8615
1256.000000 0.8612 0.8608 0.8605 0.8607 0.8608
1261.000000 0.8613 0.8616 0.8619 0.8614 0.8614
1266.000000 0.8619 0.8614 0.8615 0.8621 0.8627
1271.000000 0.8631 0.8638 0.8645 0.8654 0.8662
1276.000000 0.8670 0.8655 0.8655 0.8655 0.8655
1281.000000 0.8654 0.8650 0.8647 0.8643 0.8639
1286.000000 0.8635 0.8629 0.8622 0.8614 0.8608
1291.000000 0.8608 0.8608 0.8600 0.8592 0.8582
1296.000000 0.8562 0.8549 0.8539 0.8531 0.8521
1301.000000 0.8509 0.8498 0.8486 0.8475 0.8477
1306.000000 0.8468 0.8459 0.8450 0.8441 0.8432
1311.000000 0.8424 0.8415 0.8407 0.8407 0.8406
1316.000000 0.8406 0.8400 0.8394 0.8393 0.8393
1321.000000 0.8392 0.8386 0.8391 0.8384 0.8372
1326.000000 0.8370 0.8354 0.8332 0.8298 0.8280
1331.000000 0.8245 0.8196 0.8147 0.8043 0.7934
1336.000000 0.7816 0.7660 0.7470 0.7315 0.6736
1341.000000 0.6094 0.5435 0.4780 0.4119 0.3456
1346.000000 0.3058 0.3055 0.3051 0.4094 0.6168
1351.000000 0.7207 0.7779 0.7952 0.8018 0.8056
1356.000000 0.8079 0.8098 0.8095 0.8093 0.8099
1361.000000 0.8082 0.8073 0.8055 0.8029 0.8000
1366.000000 0.7954 0.7899 0.7846 0.7769 0.7606
1371.000000 0.7529 0.7451 0.7331 0.7157 0.6928
1376.000000 0.6031 0.5418 0.4802 0.4186 0.3575
1381.000000 0.3373 0.3382 0.3439 0.4616 0.5779
1386.000000 0.6536 0.7372 0.7486 0.7609 0.7677
1391.000000 0.7749 0.7825 0.7888 0.7920 0.7954
1396.000000 0.7966 0.7975 0.7950 0.7956 0.7952
1401.000000 0.7943 0.7934 0.7925 0.7912 0.7897
1406.000000 0.7880 0.7856 0.7835 0.7812 0.7787
1411.000000 0.7758 0.7732 0.7701 0.7668 0.7633
1416.000000 0.7602 0.7561 0.7507 0.7451 0.7348
1421.000000 0.7224 0.7132 0.7041 0.6815 0.6678
1426.000000 0.6536 0.6368 0.5574 0.5134 0.4691
1431.000000 0.4248 0.3799 0.3355 0.2914 0.2525
1436.000000 0.2541 0.2541 0.3178 0.3996 0.4455
1441.000000 0.4429 0.4390 0.4115 0.3841 0.3566
1446.000000 0.3314 0.3281 0.4005 0.5005 0.5046
1451.000000 0.4950 0.4617 0.4284 0.3951 0.3622
1456.000000 0.3306 0.3310 0.3295 0.5044 0.5538
1461.000000 0.5722 0.5904 0.6096 0.6281 0.6476
1466.000000 0.6658 0.6854 0.7039 0.7247 0.7442
1471.000000 0.7539 0.7615 0.7680 0.7744 0.7828
1476.000000 0.7900 0.7957 0.8024 0.8075 0.8120
1481.000000 0.8153 0.8120 0.8102 0.8088 0.8090
1486.000000 0.8092 0.8095 0.8107 0.8121 0.8133
1491.000000 0.8141 0.8139 0.8137 0.8123 0.8110
1496.000000 0.8084 0.8071 0.8060 0.8059 0.8045
1501.000000 0.8032 0.8022 0.8022 0.8017 0.8009
1506.000000 0.8009 0.8008 0.8008 0.8006 0.7996
1511.000000 0.7988 0.7986 0.7973 0.7966 0.7951
1516.000000 0.7945 0.7928 0.7908 0.7903 0.7883
1521.000000 0.7863 0.7856 0.7836 0.7828 0.7808
1526.000000 0.7801 0.7797 0.7805 0.7812 0.7847
1531.000000 0.7830 0.7795 0.7759 0.7763 0.7766
1536.000000 0.7701 0.7630 0.7616 0.7623 0.7630
1541.000000 0.7643 0.7669 0.7667 0.7668 0.7652
1546.000000 0.7626 0.7602 0.7625 0.7604 0.7676
1551.000000 0.7648 0.7593 0.7545 0.7530 0.7580
1556.000000 0.7609 0.7662 0.7718 0.7748 0.7759
1561.000000 0.7767 0.7813 0.7872 0.7919 0.7961
1566.000000 0.8009 0.8105 0.8156 0.8157 0.8153
1571.000000 0.8147 0.8115 0.8117 0.8114 0.8096
1576.000000 0.8095 0.8109 0.8108 0.8124 0.8124
1581.000000 0.8138 0.8142 0.8161 0.8143 0.8130
1586.000000 0.8125 0.8137 0.8178 0.8230 0.8303
1591.000000 0.8439 0.8475 0.8498 0.8526 0.8566
1596.000000 0.8613 0.8650 0.8666 0.8661 0.8667
1601.000000 0.8654 0.8695 0.8693 0.8714 0.8704
1606.000000 0.8727 0.8719 0.8740 0.8747 0.8748
1611.000000 0.8771 0.8781 0.8806 0.8808 0.8805
1616.000000 0.8801 0.8803 0.8806 0.8809 0.8807
1621.000000 0.8813 0.8797 0.8793 0.8788 0.8770
1626.000000 0.8780 0.8784 0.8773 0.8776 0.8763
1631.000000 0.8765 0.8754 0.8753 0.8743 0.8745
1636.000000 0.8743 0.8734 0.8731 0.8722 0.8722
1641.000000 0.8722 0.8716 0.8709 0.8709 0.8711
1646.000000 0.8702 0.8697 0.8697 0.8697 0.8698
1651.000000 0.8698 0.8686 0.8698 0.8700 0.8701
1656.000000 0.8701 0.8701 0.8687 0.8689 0.8702
1661.000000 0.8690 0.8692 0.8692 0.8694 0.8695
1666.000000 0.8697 0.8697 0.8700 0.8703 0.8705
1671.000000 0.8709 0.8712 0.8706 0.8702 0.8704
1676.000000 0.8708 0.8711 0.8715 0.8719 0.8722
1681.000000 0.8726 0.8730 0.8734 0.8738 0.8742
1686.000000 0.8745 0.8749 0.8754 0.8758 0.8763
1691.000000 0.8768 0.8773 0.8778 0.8784 0.8789
1696.000000 0.8794 0.8800 0.8804 0.8805 0.8807
1701.000000 0.8809 0.8810 0.8812 0.8814 0.8815
1706.000000 0.8817 0.8813 0.8809 0.8805 0.8802
1711.000000 0.8797 0.8794 0.8790 0.8787 0.8782
1716.000000 0.8780 0.8776 0.8774 0.8771 0.8769
1721.000000 0.8766 0.8763 0.8760 0.8758 0.8755
1726.000000 0.8754 0.8752 0.8751 0.8749 0.8748
1731.000000 0.8746 0.8745 0.8744 0.8747 0.8753
1736.000000 0.8759 0.8765 0.8770 0.8777 0.8784
1741.000000 0.8792 0.8800 0.8807 0.8814 0.8816
1746.000000 0.8819 0.8821 0.8823 0.8827 0.8829
1751.000000 0.8824 0.8821 0.8818 0.8815 0.8811
1756.000000 0.8808 0.8805 0.8802 0.8786 0.8779
1761.000000 0.8776 0.8773 0.8771 0.8767 0.8764
1766.000000 0.8762 0.8758 0.8755 0.8752 0.8750
1771.000000 0.8748 0.8747 0.8745 0.8744 0.8742
1776.000000 0.8747 0.8754 0.8753 0.8751 0.8750
1781.000000 0.8748 0.8746 0.8745 0.8744 0.8743
1786.000000 0.8743 0.8743 0.8745 0.8747 0.8748
1791.000000 0.8749 0.8750 0.8751 0.8751 0.8751
1796.000000 0.8751 0.8750 0.8750 0.8749 0.8747
1801.000000 0.8742 0.8739 0.8736 0.8739 0.8744
1806.000000 0.8740 0.8737 0.8732 0.8739 0.8742
1811.000000 0.8740 0.8738 0.8736 0.8734 0.8732
1816.000000 0.8730 0.8727 0.8726 0.8724 0.8706
1821.000000 0.8704 0.8702 0.8700 0.8698 0.8696
1826.000000 0.8693 0.8692 0.8693 0.8693 0.8695
1831.000000 0.8697 0.8699 0.8701 0.8703 0.8705
1836.000000 0.8717 0.8725 0.8727 0.8729 0.8731
1841.000000 0.8733 0.8735 0.8737 0.8740 0.8743
1846.000000 0.8746 0.8748 0.8750 0.8753 0.8755
1851.000000 0.8757 0.8761 0.8763 0.8766 0.8768
1856.000000 0.8775 0.8780 0.8772 0.8773 0.8774
1861.000000 0.8775 0.8778 0.8779 0.8780 0.8782
1866.000000 0.8783 0.8785 0.8788 0.8790 0.8792
1871.000000 0.8796 0.8798 0.8800 0.8803 0.8802
1876.000000 0.8791 0.8791 0.8791 0.8791 0.8788
1881.000000 0.8787 0.8784 0.8780 0.8769 0.8755
1886.000000 0.8747 0.8736 0.8726 0.8715 0.8705
1891.000000 0.8704 0.8698 0.8686 0.8676 0.8665
1896.000000 0.8654 0.8641 0.8631 0.8627 0.8622
1901.000000 0.8618 0.8614 0.8615 0.8622 0.8631
1906.000000 0.8638 0.8646 0.8646 0.8657 0.8665
1911.000000 0.8675 0.8684 0.8694 0.8701 0.8707
1916.000000 0.8714 0.8719 0.8719 0.8719 0.8718
1921.000000 0.8709 0.8698 0.8689 0.8678 0.8667
1926.000000 0.8654 0.8642 0.8629 0.8615 0.8603
1931.000000 0.8586 0.8567 0.8549 0.8530 0.8512
1936.000000 0.8501 0.8495 0.8493 0.8503 0.8514
1941.000000 0.8526 0.8540 0.8554 0.8566 0.8579
1946.000000 0.8591 0.8603 0.8612 0.8622 0.8643
1951.000000 0.8655 0.8664 0.8666 0.8668 0.8684
1956.000000 0.8686 0.8687 0.8687 0.8684 0.8680
1961.000000 0.8677 0.8673 0.8664 0.8647 0.8647
1966.000000 0.8644 0.8630 0.8629 0.8626 0.8625
1971.000000 0.8623 0.8622 0.8621 0.8619 0.8618
1976.000000 0.8617 0.8617 0.8617 0.8630 0.8633
1981.000000 0.8633 0.8633 0.8633 0.8634 0.8636
1986.000000 0.8640 0.8655 0.8656 0.8642 0.8628
1991.000000 0.8615 0.8603 0.8685 0.8686 0.8687
1996.000000 0.8701 0.8708 0.8723 0.8737 0.8740
2001.000000 0.8740 0.8743 0.8743 0.8744 0.8744
2006.000000 0.8744 0.8744 0.8744 0.8744 0.8745
2011.000000 0.8745 0.8745 0.8745 0.8745 0.8744
2016.000000 0.8744 0.8743 0.8742 0.8740 0.8740
2021.000000 0.8739 0.8737 0.8736 0.8735 0.8724
2026.000000 0.8717 0.8725 0.8718 0.8712 0.8711
2031.000000 0.8709 0.8708 0.8704 0.8701 0.8698
2036.000000 0.8695 0.8691 0.8688 0.8681 0.8675
2041.000000 0.8664 0.8655 0.8645 0.8636 0.8627
2046.000000 0.8617 0.8607 0.8596 0.8586 0.8577
2051.000000 0.8552 0.8538 0.8526 0.8510 0.8492
2056.000000 0.8474 0.8444 0.8422 0.8393 0.8363
2061.000000 0.8333 0.8303 0.8246 0.8191 0.8149
2066.000000 0.8108 0.8065 0.8024 0.8022 0.8013
2071.000000 0.8062 0.8106 0.8169 0.8231 0.8293
2076.000000 0.8354 0.8417 0.8481 0.8528 0.8576
2081.000000 0.8593 0.8610 0.8629 0.8647 0.8659
2086.000000 0.8670 0.8680 0.8689 0.8688 0.8687
2091.000000 0.8686 0.8686 0.8684 0.8671 0.8683
2096.000000 0.8680 0.8668 0.8672 0.8683 0.8683
2101.000000 0.8683 0.8683 0.8688 0.8694 0.8700
2106.000000 0.8706 0.8713 0.8719 0.8731 0.8741
2111.000000 0.8752 0.8763 0.8772 0.8782 0.8787
2116.000000 0.8792 0.8796 0.8800 0.8803 0.8805
2121.000000 0.8804 0.8795 0.8810 0.8812 0.8813
2126.000000 0.8815 0.8816 0.8817 0.8817 0.8819
2131.000000 0.8820 0.8821 0.8821 0.8822 0.8822
2136.000000 0.8822 0.8822 0.8824 0.8824 0.8825
2141.000000 0.8825 0.8825 0.8825 0.8825 0.8825
2146.000000 0.8825 0.8825 0.8825 0.8824 0.8824
2151.000000 0.8824 0.8824 0.8822 0.8822 0.8822
2156.000000 0.8822 0.8822 0.8822 0.8821 0.8821
2161.000000 0.8820 0.8819 0.8819 0.8819 0.8819
2166.000000 0.8819 0.8818 0.8818 0.8834 0.8837
2171.000000 0.8840 0.8841 0.8844 0.8845 0.8848
2176.000000 0.8850 0.8852 0.8851 0.8840 0.8842
2181.000000 0.8843 0.8845 0.8851 0.8854 0.8847
2186.000000 0.8848 0.8848 0.8849 0.8849 0.8850
2191.000000 0.8850 0.8849 0.8861 0.8863 0.8848
2196.000000 0.8858 0.8858 0.8857 0.8855 0.8854
2201.000000 0.8852 0.8851 0.8848 0.8847 0.8845
2206.000000 0.8845 0.8843 0.8841 0.8840 0.8838
2211.000000 0.8837 0.8836 0.8834 0.8832 0.8830
2216.000000 0.8827 0.8824 0.8822 0.8820 0.8818
2221.000000 0.8816 0.8827 0.8826 0.8824 0.8822
2226.000000 0.8820 0.8817 0.8815 0.8813 0.8811
2231.000000 0.8808 0.8806 0.8804 0.8801 0.8804
2236.000000 0.8813 0.8809 0.8807 0.8805 0.8803
2241.000000 0.8801 0.8799 0.8796 0.8794 0.8801
2246.000000 0.8803 0.8800 0.8798 0.8795 0.8792
2251.000000 0.8802 0.8801 0.8798 0.8797 0.8808
2256.000000 0.8806 0.8803 0.8802 0.8812 0.8810
2261.000000 0.8811 0.8819 0.8816 0.8814 0.8817
2266.000000 0.8823 0.8820 0.8818 0.8823 0.8826
2271.000000 0.8823 0.8831 0.8831 0.8829 0.8825
2276.000000 0.8833 0.8831 0.8828 0.8838 0.8835
2281.000000 0.8830 0.8827 0.8824 0.8834 0.8831
2286.000000 0.8826 0.8822 0.8823 0.8830 0.8825
2291.000000 0.8821 0.8818 0.8813 0.8810 0.8806
2296.000000 0.8803 0.8798 0.8795 0.8781 0.8776
2301.000000 0.8776 0.8780 0.8780 0.8782 0.8797
2306.000000 0.8803 0.8807 0.8813 0.8818 0.8823
2311.000000 0.8831 0.8838 0.8845 0.8853 0.8859
2316.000000 0.8866 0.8872 0.8877 0.8885 0.8891
2321.000000 0.8898 0.8904 0.8908 0.8911 0.8901
2326.000000 0.8897 0.8887 0.8884 0.8884 0.8885
2331.000000 0.8872 0.8869 0.8869 0.8871 0.8855
2336.000000 0.8856 0.8867 0.8862 0.8848 0.8859
2341.000000 0.8858 0.8857 0.8856 0.8861 0.8870
2346.000000 0.8869 0.8862 0.8846 0.8840 0.8843
2351.000000 0.8854 0.8862 0.8865 0.8869 0.8872
2356.000000 0.8864 0.8851 0.8851 0.8838 0.8837
2361.000000 0.8824 0.8823 0.8823 0.8823 0.8822
2366.000000 0.8822 0.8822 0.8822 0.8828 0.8840
2371.000000 0.8844 0.8846 0.8848 0.8847 0.8842
2376.000000 0.8847 0.8843 0.8840 0.8835 0.8834
2381.000000 0.8839 0.8833 0.8833 0.8838 0.8831
2386.000000 0.8836 0.8842 0.8850 0.8857 0.8849
2391.000000 0.8856 0.8863 0.8866 0.8873 0.8877
