##TITLE=GLYCINONITRILE, N-METHYLENE-
##JCAMP-DX=4.24
##DATA TYPE=INFRARED SPECTRUM
##CLASS=COBLENTZ
##ORIGIN=TENNESSEE EASTMAN COMPANY, RESEARCH LABORATORIES
##OWNER=COBLENTZ SOCIETY
Collection (C) 2018 copyright by the U.S. Secretary of Commerce
on behalf of the United States of America. All rights reserved.
##DATE=1960
##NAMES=(methyleneamino)acetonitrile
##CAS REGISTRY NO=109-82-0
##MOLFORM=C3 H4 N2
##SOURCE REFERENCE=COBLENTZ NO. 820
##$NIST SOURCE=COBLENTZ
##$NIST IMAGE=cob820
##SPECTROMETER/DATA SYSTEM=Not specified, most likely a prism, grating, or hybrid spectrometer.
##STATE=SOLID (KBr PELLET)
##SAMPLING PROCEDURE=TRANSMISSION
##RESOLUTION=4
##DATA PROCESSING=DIGITIZED BY NIST FROM HARD COPY
##XUNITS=MICROMETERS
##YUNITS=TRANSMITTANCE
##XFACTOR=1.000000
##YFACTOR=1
##DELTAX=000.006875
##FIRSTX=2.027
##LASTX=16.0036
##FIRSTY=0.285
##MAXX=16.0036
##MINX=2.027
##MAXY=0.986
##MINY=0.03
##NPOINTS=2034
##XYDATA=(X++(Y..Y))
2.027000 0.2850 0.2870 0.2870 0.2890 0.2920
2.061390 0.2940 0.2990 0.2990 0.3030 0.3040
2.096000 0.3090 0.3200 0.3200 0.3210 0.3210
2.130390 0.3250 0.3270 0.3300 0.3330 0.3350
2.165000 0.3370 0.3420 0.3450 0.3470 0.3490
2.199390 0.3510 0.3510 0.3510 0.3510 0.3510
2.234000 0.3510 0.3520 0.3520 0.3520 0.3520
2.268390 0.3520 0.3520 0.3540 0.3560 0.3570
2.302000 0.3610 0.3630 0.3640 0.3660 0.3680
2.336390 0.3690 0.3730 0.3780 0.3810 0.3830
2.371000 0.3830 0.3850 0.3880 0.3880 0.3920
2.405390 0.3930 0.3950 0.3970 0.3970 0.3980
2.440000 0.4000 0.4020 0.4020 0.4040 0.4040
2.474390 0.4090 0.4100 0.4140 0.4190 0.4210
2.509000 0.4220 0.4240 0.4240 0.4240 0.4240
2.543390 0.4260 0.4260 0.4280 0.4290 0.4290
2.577000 0.4310 0.4330 0.4360 0.4380 0.4430
2.611390 0.4460 0.4500 0.4530 0.4580 0.4620
2.646000 0.4670 0.4670 0.4700 0.4700 0.4740
2.680390 0.4770 0.4790 0.4810 0.4840 0.4880
2.715000 0.4890 0.4890 0.4890 0.4880 0.4880
2.749390 0.4880 0.4860 0.4860 0.4840 0.4810
2.784000 0.4790 0.4790 0.4790 0.4790 0.4770
2.818390 0.4760 0.4740 0.4720 0.4690 0.4670
2.852000 0.4650 0.4650 0.4640 0.4600 0.4580
2.886390 0.4580 0.4580 0.4570 0.4570 0.4570
2.921000 0.4580 0.4580 0.4580 0.4600 0.4650
2.955390 0.4720 0.4770 0.4820 0.4880 0.4890
2.990000 0.4960 0.4980 0.5050 0.5060 0.5110
3.024390 0.5150 0.5180 0.5220 0.5290 0.5320
3.059000 0.5350 0.5370 0.5390 0.5390 0.5410
3.093390 0.5410 0.5420 0.5460 0.5510 0.5540
3.127000 0.5560 0.5580 0.5590 0.5580 0.5590
3.161390 0.5590 0.5610 0.5630 0.5650 0.5650
3.196000 0.5660 0.5680 0.5680 0.5660 0.5630
3.230390 0.5590 0.5560 0.5540 0.5530 0.5530
3.265000 0.5530 0.5530 0.5530 0.5530 0.5530
3.299390 0.5530 0.5530 0.5530 0.5250 0.5030
3.334000 0.4790 0.2960 0.2510 0.2510 0.2680
3.368390 0.3210 0.3560 0.3730 0.3750 0.3760
3.402000 0.3750 0.3710 0.3710 0.3570 0.3540
3.436390 0.3570 0.4040 0.4550 0.4550 0.3180
3.471000 0.2600 0.2000 0.1840 0.1840 0.2290
3.505390 0.3880 0.4240 0.4700 0.4910 0.5050
3.540000 0.5150 0.5390 0.5490 0.5490 0.5390
3.574390 0.5250 0.5150 0.5100 0.5060 0.5100
3.609000 0.5200 0.5510 0.5510 0.5490 0.5170
3.643390 0.4940 0.4700 0.4290 0.3970 0.3920
3.677000 0.3920 0.3920 0.3920 0.3980 0.4260
3.711390 0.4530 0.4700 0.4700 0.4640 0.4170
3.746000 0.3690 0.3420 0.2890 0.2770 0.2770
3.780390 0.3280 0.3810 0.4100 0.4650 0.5470
3.815000 0.5590 0.5590 0.5590 0.5610 0.5630
3.849390 0.5660 0.5710 0.5770 0.5900 0.6130
3.884000 0.6280 0.6350 0.6400 0.6430 0.6500
3.918390 0.6600 0.6760 0.6860 0.6950 0.7020
3.952000 0.7050 0.7070 0.7080 0.7080 0.7080
3.986390 0.7080 0.7080 0.7080 0.7020 0.7020
4.021000 0.7020 0.7020 0.7020 0.7020 0.7050
4.055390 0.7050 0.7020 0.7000 0.7000 0.7020
4.090000 0.7030 0.7070 0.7100 0.7120 0.7150
4.124390 0.7190 0.7240 0.7290 0.7380 0.7440
4.159000 0.7500 0.7550 0.7550 0.7560 0.7550
4.193390 0.7510 0.7480 0.7430 0.7380 0.7240
4.227000 0.7120 0.7050 0.7000 0.6980 0.6980
4.261390 0.6980 0.6980 0.6980 0.6980 0.6980
4.296000 0.7000 0.7030 0.7050 0.7170 0.7290
4.330390 0.7430 0.7680 0.7770 0.7790 0.7790
4.365000 0.7790 0.7800 0.7770 0.7700 0.7600
4.399390 0.7510 0.7460 0.7390 0.7260 0.7030
4.434000 0.6760 0.6360 0.6350 0.6310 0.6300
4.468390 0.5390 0.5390 0.5800 0.6950 0.8090
4.502000 0.8090 0.7630 0.7630 0.7630 0.7650
4.536390 0.7920 0.8030 0.8060 0.8040 0.8030
4.571000 0.7940 0.7960 0.7990 0.8040 0.8090
4.605390 0.8160 0.8160 0.8180 0.8180 0.8160
4.640000 0.8180 0.8180 0.8180 0.8200 0.8210
4.674390 0.8230 0.8270 0.8280 0.8300 0.8300
4.709000 0.8300 0.8280 0.8280 0.8320 0.8300
4.743390 0.8300 0.8300 0.8320 0.8320 0.8320
4.777000 0.8320 0.8330 0.8320 0.8330 0.8350
4.811390 0.8350 0.8350 0.8390 0.8400 0.8400
4.846000 0.8420 0.8440 0.8440 0.8440 0.8440
4.880390 0.8440 0.8440 0.8440 0.8440 0.8440
4.915000 0.8420 0.8420 0.8400 0.8390 0.8400
4.949390 0.8400 0.8400 0.8420 0.8440 0.8450
4.984000 0.8470 0.8510 0.8520 0.8520 0.8520
5.018390 0.8520 0.8510 0.8420 0.8370 0.8320
5.052000 0.8300 0.8300 0.8300 0.8300 0.8320
5.086390 0.8330 0.8350 0.8390 0.8400 0.8420
5.121000 0.8420 0.8420 0.8420 0.8420 0.8420
5.155390 0.8420 0.8420 0.8440 0.8420 0.8450
5.190000 0.8520 0.8520 0.8450 0.8490 0.8510
5.224390 0.8520 0.8520 0.8540 0.8540 0.8560
5.259000 0.8610 0.8610 0.8610 0.8630 0.8610
5.293390 0.8610 0.8590 0.8570 0.8540 0.8520
5.327000 0.8510 0.8510 0.8520 0.8560 0.8590
5.361390 0.8630 0.8640 0.8640 0.8660 0.8640
5.396000 0.8590 0.8560 0.8590 0.8590 0.8610
5.430390 0.8630 0.8640 0.8630 0.8640 0.8640
5.465000 0.8640 0.8640 0.8660 0.8640 0.8640
5.499390 0.8640 0.8610 0.8540 0.8520 0.8520
5.534000 0.8520 0.8540 0.8540 0.8540 0.8520
5.568390 0.8520 0.8540 0.8570 0.8640 0.8640
5.602000 0.8640 0.8640 0.8640 0.8640 0.8630
5.636390 0.8630 0.8660 0.8710 0.8730 0.8750
5.671000 0.8750 0.8750 0.8750 0.8750 0.8730
5.705390 0.8710 0.8680 0.8690 0.8690 0.8680
5.740000 0.8630 0.8610 0.8590 0.8610 0.8640
5.774390 0.8680 0.8640 0.8570 0.8520 0.8450
5.809000 0.8440 0.8440 0.8510 0.8570 0.8570
5.843390 0.8540 0.8470 0.8400 0.8370 0.8370
5.877000 0.8390 0.8470 0.8560 0.8640 0.8640
5.911390 0.8610 0.8560 0.8510 0.8490 0.8490
5.946000 0.8570 0.8570 0.8570 0.8540 0.8540
5.980390 0.8520 0.8540 0.8540 0.8560 0.8560
6.015000 0.8560 0.8540 0.8490 0.8420 0.8350
6.049390 0.8330 0.8330 0.8330 0.8350 0.8390
6.084000 0.8400 0.8370 0.8300 0.8250 0.8230
6.118390 0.8250 0.8270 0.8280 0.8300 0.8300
6.152000 0.8300 0.8320 0.8330 0.8350 0.8400
6.186390 0.8440 0.8450 0.8470 0.8490 0.8510
6.221000 0.8520 0.8520 0.8540 0.8560 0.8570
6.255390 0.8590 0.8610 0.8640 0.8660 0.8680
6.290000 0.8690 0.8690 0.8680 0.8640 0.8590
6.324390 0.8520 0.8520 0.8570 0.8590 0.8610
6.359000 0.8590 0.8560 0.8520 0.8470 0.8470
6.393390 0.8490 0.8590 0.8610 0.8610 0.8590
6.427000 0.8540 0.8490 0.8370 0.8320 0.8280
6.461390 0.8300 0.8350 0.8390 0.8390 0.8400
6.496000 0.8400 0.8400 0.8400 0.8400 0.8400
6.530390 0.8400 0.8400 0.8420 0.8470 0.8510
6.565000 0.8520 0.8520 0.8520 0.8520 0.8510
6.599390 0.8370 0.8420 0.8440 0.8520 0.8520
6.634000 0.8510 0.8470 0.8440 0.8420 0.8400
6.668390 0.8330 0.8270 0.8160 0.8040 0.7890
6.702000 0.7610 0.7340 0.6760 0.6130 0.5630
6.736390 0.5250 0.4880 0.4620 0.4640 0.5000
6.771000 0.5890 0.5890 0.5130 0.4690 0.4240
6.805390 0.3420 0.2560 0.2150 0.1720 0.1720
6.840000 0.1860 0.3470 0.4050 0.4890 0.6090
6.874390 0.6090 0.6040 0.6010 0.5710 0.5350
6.909000 0.5080 0.4790 0.3980 0.2670 0.2120
6.943390 0.1570 0.0730 0.0680 0.0680 0.0730
6.977000 0.0890 0.1010 0.1010 0.0990 0.0890
7.011390 0.0800 0.0680 0.0590 0.0580 0.0610
7.046000 0.0870 0.1230 0.1740 0.2390 0.3130
7.080390 0.3590 0.3880 0.4360 0.4520 0.4550
7.115000 0.4550 0.4020 0.3390 0.3330 0.3390
7.149390 0.4050 0.4520 0.5650 0.5940 0.6130
7.184000 0.6280 0.6450 0.6670 0.6840 0.7030
7.218390 0.7030 0.7030 0.7020 0.7020 0.6950
7.252000 0.6790 0.6590 0.6450 0.6160 0.5920
7.286390 0.5560 0.5130 0.4690 0.4090 0.3760
7.321000 0.3640 0.3560 0.3490 0.3280 0.3160
7.355390 0.3080 0.3160 0.3490 0.3900 0.4550
7.390000 0.4840 0.5490 0.5580 0.5440 0.5100
7.424390 0.4760 0.3880 0.3210 0.2600 0.2480
7.458000 0.2340 0.2290 0.2290 0.2340 0.2680
7.492390 0.2820 0.2850 0.2870 0.2870 0.2840
7.527000 0.2610 0.2380 0.1690 0.1040 0.0650
7.561390 0.0490 0.0470 0.0470 0.0490 0.0490
7.596000 0.0530 0.1660 0.2050 0.2460 0.3270
7.630390 0.3660 0.4040 0.4400 0.4700 0.4960
7.665000 0.5290 0.5320 0.5300 0.5080 0.4790
7.699390 0.4480 0.3710 0.3450 0.3450 0.3510
7.733000 0.3950 0.4380 0.5000 0.5650 0.5780
7.767390 0.5890 0.5990 0.5970 0.5660 0.5560
7.802000 0.5390 0.5180 0.5010 0.4840 0.4550
7.836390 0.4330 0.4310 0.4340 0.4580 0.4910
7.871000 0.5770 0.6130 0.6430 0.6690 0.6910
7.905390 0.7100 0.7260 0.7380 0.7480 0.7630
7.940000 0.7650 0.7670 0.7670 0.7650 0.7480
7.974390 0.7290 0.6960 0.6640 0.6140 0.5420
8.008000 0.4690 0.3920 0.3490 0.3490 0.3520
8.042390 0.4220 0.4720 0.5700 0.6110 0.6350
8.077000 0.6640 0.6960 0.7240 0.7480 0.7680
8.111390 0.7790 0.7940 0.8040 0.8110 0.8110
8.146000 0.8110 0.8090 0.8030 0.7940 0.7890
8.180390 0.7840 0.7650 0.7530 0.7530 0.7820
8.215000 0.8060 0.8160 0.8200 0.8210 0.8210
8.249390 0.8210 0.8210 0.8210 0.8210 0.8230
8.283000 0.8270 0.8210 0.7940 0.7730 0.7580
8.317390 0.7510 0.7440 0.7360 0.7240 0.7100
8.352000 0.6910 0.6690 0.6420 0.6040 0.5560
8.386390 0.5270 0.4980 0.4220 0.3320 0.2890
8.421000 0.2440 0.1540 0.0920 0.0580 0.0440
8.455390 0.0390 0.0350 0.0340 0.0340 0.0340
8.490000 0.0390 0.0490 0.0710 0.0920 0.1330
8.524390 0.1540 0.1840 0.2020 0.2100 0.2100
8.558000 0.2020 0.1640 0.1470 0.0510 0.0300
8.592390 0.0300 0.0300 0.0320 0.0390 0.0560
8.627000 0.0870 0.1310 0.1880 0.2500 0.3780
8.661390 0.4360 0.4840 0.5440 0.5630 0.5830
8.696000 0.5990 0.6110 0.6210 0.6300 0.6380
8.730390 0.6450 0.6450 0.6420 0.6280 0.6180
8.765000 0.5970 0.5710 0.5390 0.5050 0.4860
8.799390 0.4650 0.4220 0.3750 0.3270 0.2720
8.833000 0.2510 0.2290 0.2000 0.1600 0.1230
8.867390 0.0870 0.0630 0.0540 0.0490 0.0440
8.902000 0.0370 0.0340 0.0340 0.0320 0.0340
8.936390 0.0420 0.0530 0.0710 0.0990 0.1350
8.971000 0.1740 0.2200 0.3200 0.3690 0.4190
9.005390 0.4580 0.4930 0.5540 0.5730 0.5870
9.040000 0.5970 0.6070 0.6090 0.6070 0.5920
9.074390 0.5830 0.5220 0.4770 0.4310 0.3230
9.108000 0.2730 0.2220 0.1430 0.1160 0.1020
9.142390 0.1130 0.1480 0.1980 0.3230 0.3680
9.177000 0.4650 0.5650 0.5820 0.6250 0.6500
9.211390 0.6720 0.6910 0.7080 0.7240 0.7380
9.246000 0.7500 0.7680 0.7750 0.7820 0.7890
9.280390 0.7970 0.8030 0.8090 0.8130 0.8150
9.315000 0.8210 0.8250 0.8280 0.8300 0.8320
9.349390 0.8330 0.8330 0.8330 0.8350 0.8390
9.383000 0.8390 0.8350 0.8210 0.8110 0.7940
9.417390 0.7790 0.7650 0.7630 0.7630 0.7650
9.452000 0.7790 0.7910 0.7990 0.8060 0.8150
9.486390 0.8150 0.8160 0.8180 0.8180 0.8180
9.521000 0.8180 0.8180 0.8180 0.8160 0.8160
9.555390 0.8150 0.8110 0.8060 0.8030 0.7940
9.590000 0.7840 0.7750 0.7650 0.7510 0.7440
9.624390 0.7380 0.7200 0.7000 0.6760 0.6470
9.658000 0.6110 0.5700 0.5220 0.4940 0.4670
9.692390 0.4040 0.3090 0.2770 0.2430 0.1450
9.727000 0.0850 0.0610 0.0530 0.0530 0.0530
9.761390 0.0530 0.0530 0.0530 0.0510 0.0510
9.796000 0.0540 0.0610 0.0770 0.1020 0.1570
9.830390 0.2150 0.3330 0.3900 0.4410 0.4840
9.865000 0.5390 0.5630 0.5890 0.6210 0.6470
9.899390 0.6690 0.6900 0.7100 0.7270 0.7410
9.933000 0.7650 0.7730 0.7820 0.7890 0.7970
9.967390 0.8030 0.8090 0.8150 0.8200 0.8230
10.002000 0.8270 0.8300 0.8320 0.8320 0.8320
10.036390 0.8330 0.8330 0.8330 0.8330 0.8330
10.071000 0.8330 0.8330 0.8320 0.8320 0.8320
10.105390 0.8280 0.8250 0.8180 0.8110 0.8030
10.140000 0.7920 0.7820 0.7700 0.7560 0.7480
10.174390 0.7390 0.7190 0.6950 0.6670 0.6400
10.208000 0.6090 0.5770 0.5440 0.5180 0.4910
10.242390 0.4260 0.3950 0.3390 0.2910 0.2610
10.277000 0.2510 0.2390 0.2290 0.2260 0.2290
10.311390 0.2360 0.2870 0.3350 0.3640 0.4020
10.346000 0.4330 0.4580 0.4770 0.4940 0.5230
10.380390 0.5350 0.5510 0.5680 0.5890 0.6130
10.415000 0.6310 0.6430 0.6540 0.6600 0.6670
10.449390 0.6720 0.6740 0.6760 0.6760 0.6760
10.483000 0.6760 0.6780 0.6790 0.6830 0.6860
10.517390 0.6910 0.7000 0.7020 0.7030 0.7080
10.552000 0.7080 0.7070 0.7020 0.6980 0.6860
10.586390 0.6720 0.6520 0.6300 0.5990 0.5630
10.621000 0.5170 0.4910 0.4640 0.3980 0.3210
10.655390 0.2850 0.2500 0.1760 0.1070 0.0920
10.690000 0.0710 0.0630 0.0580 0.0540 0.0530
10.724390 0.0560 0.0890 0.1210 0.1620 0.2140
10.758000 0.3200 0.3540 0.3830 0.4240 0.4930
10.792390 0.5170 0.5320 0.5900 0.6360 0.6500
10.827000 0.6660 0.6780 0.6910 0.6980 0.7030
10.861390 0.7080 0.7140 0.7140 0.7140 0.7140
10.896000 0.7120 0.7080 0.6980 0.6840 0.6670
10.930390 0.6470 0.6280 0.6070 0.5870 0.5680
10.965000 0.5270 0.5050 0.4820 0.4810 0.4580
10.999390 0.4000 0.3210 0.2790 0.2580 0.2380
11.033000 0.1840 0.1500 0.1090 0.0920 0.0770
11.067390 0.0660 0.0530 0.0490 0.0470 0.0460
11.102000 0.0460 0.0470 0.0540 0.0730 0.0950
11.136390 0.1360 0.1830 0.2310 0.3230 0.3690
11.171000 0.4140 0.4570 0.4980 0.5710 0.6060
11.205390 0.6350 0.6600 0.6810 0.6980 0.7080
11.240000 0.7240 0.7380 0.7480 0.7650 0.7720
11.274390 0.7770 0.7840 0.7870 0.7910 0.7920
11.308000 0.7940 0.7960 0.7960 0.7970 0.7970
11.342390 0.7990 0.7970 0.7960 0.7960 0.7920
11.377000 0.7890 0.7840 0.7730 0.7630 0.7510
11.411390 0.7440 0.7380 0.7240 0.7080 0.6930
11.446000 0.6740 0.6520 0.6280 0.6010 0.5700
11.480390 0.5350 0.5170 0.4960 0.4520 0.4040
11.515000 0.3470 0.2960 0.2510 0.2290 0.2070
11.549390 0.1600 0.1430 0.1250 0.1070 0.0940
11.583000 0.0820 0.0700 0.0650 0.0610 0.0610
11.617390 0.0610 0.0590 0.0590 0.0590 0.0610
11.652000 0.0650 0.0730 0.0870 0.1130 0.1400
11.686390 0.1640 0.1880 0.2140 0.2440 0.3160
11.721000 0.3420 0.3860 0.4160 0.4460 0.4720
11.755390 0.4940 0.5320 0.5490 0.5680 0.5850
11.790000 0.6060 0.6280 0.6470 0.6660 0.6810
11.824390 0.6960 0.7100 0.7240 0.7340 0.7460
11.858000 0.7650 0.7730 0.7800 0.7890 0.7970
11.892390 0.8010 0.8030 0.8030 0.8060 0.8060
11.927000 0.8090 0.8090 0.8110 0.8130 0.8130
11.961390 0.8130 0.8130 0.8130 0.8130 0.8130
11.996000 0.8130 0.8130 0.8130 0.8130 0.8130
12.030390 0.8130 0.8150 0.8150 0.8180 0.8200
12.065000 0.8210 0.8250 0.8280 0.8320 0.8390
12.099390 0.8440 0.8490 0.8520 0.8560 0.8590
12.133000 0.8640 0.8690 0.8750 0.8800 0.8830
12.167390 0.8880 0.8920 0.8970 0.9000 0.9040
12.202000 0.9090 0.9120 0.9160 0.9190 0.9220
12.236390 0.9260 0.9310 0.9330 0.9310 0.9340
12.271000 0.9360 0.9380 0.9400 0.9430 0.9450
12.305390 0.9480 0.9520 0.9530 0.9550 0.9550
12.340000 0.9570 0.9570 0.9580 0.9620 0.9600
12.374390 0.9640 0.9640 0.9650 0.9650 0.9650
12.408000 0.9650 0.9650 0.9650 0.9670 0.9650
12.442390 0.9670 0.9670 0.9670 0.9670 0.9690
12.477000 0.9700 0.9690 0.9720 0.9700 0.9720
12.511390 0.9720 0.9720 0.9720 0.9720 0.9740
12.546000 0.9740 0.9740 0.9720 0.9740 0.9740
12.580390 0.9740 0.9760 0.9770 0.9790 0.9760
12.614000 0.9770 0.9790 0.9770 0.9790 0.9820
12.648390 0.9810 0.9820 0.9820 0.9840 0.9840
12.683000 0.9840 0.9840 0.9840 0.9840 0.9840
12.717390 0.9840 0.9840 0.9840 0.9840 0.9840
12.752000 0.9840 0.9840 0.9840 0.9840 0.9840
12.786390 0.9860 0.9860 0.9820 0.9820 0.9820
12.821000 0.9820 0.9820 0.9820 0.9840 0.9840
12.855390 0.9820 0.9820 0.9820 0.9840 0.9840
12.889000 0.9820 0.9820 0.9820 0.9820 0.9820
12.923390 0.9840 0.9820 0.9820 0.9820 0.9820
12.958000 0.9820 0.9820 0.9810 0.9810 0.9790
12.992390 0.9760 0.9700 0.9650 0.9600 0.9570
13.027000 0.9550 0.9550 0.9520 0.9460 0.9450
13.061390 0.9400 0.9380 0.9340 0.9330 0.9310
13.096000 0.9310 0.9290 0.9290 0.9290 0.9290
13.130390 0.9290 0.9310 0.9310 0.9310 0.9310
13.164000 0.9310 0.9310 0.9330 0.9330 0.9330
13.198390 0.9340 0.9360 0.9380 0.9400 0.9410
13.233000 0.9430 0.9450 0.9480 0.9500 0.9520
13.267390 0.9530 0.9550 0.9570 0.9570 0.9570
13.302000 0.9580 0.9620 0.9640 0.9640 0.9670
13.336390 0.9670 0.9670 0.9670 0.9670 0.9670
13.371000 0.9670 0.9670 0.9670 0.9690 0.9690
13.405390 0.9690 0.9690 0.9690 0.9690 0.9670
13.439000 0.9670 0.9670 0.9690 0.9670 0.9670
13.473390 0.9670 0.9690 0.9690 0.9690 0.9670
13.508000 0.9670 0.9650 0.9670 0.9670 0.9670
13.542390 0.9670 0.9670 0.9670 0.9670 0.9670
13.577000 0.9670 0.9670 0.9670 0.9650 0.9620
13.611390 0.9600 0.9570 0.9550 0.9570 0.9550
13.646000 0.9550 0.9550 0.9530 0.9530 0.9520
13.680390 0.9480 0.9450 0.9410 0.9380 0.9360
13.714000 0.9380 0.9380 0.9360 0.9360 0.9360
13.748390 0.9360 0.9340 0.9340 0.9340 0.9340
13.783000 0.9330 0.9330 0.9330 0.9330 0.9330
13.817390 0.9330 0.9310 0.9330 0.9330 0.9330
13.852000 0.9330 0.9330 0.9330 0.9330 0.9330
13.886390 0.9330 0.9310 0.9290 0.9290 0.9280
13.921000 0.9280 0.9260 0.9260 0.9240 0.9220
13.955390 0.9220 0.9210 0.9210 0.9190 0.9190
13.989000 0.9190 0.9190 0.9190 0.9190 0.9190
14.023390 0.9170 0.9160 0.9160 0.9160 0.9160
14.058000 0.9140 0.9120 0.9120 0.9050 0.9040
14.092390 0.9020 0.8980 0.8950 0.8920 0.8880
14.127000 0.8850 0.8830 0.8780 0.8750 0.8710
14.161390 0.8680 0.8630 0.8570 0.8520 0.8470
14.196000 0.8420 0.8370 0.8300 0.8230 0.8160
14.230390 0.8080 0.8010 0.7960 0.7840 0.7770
14.264000 0.7670 0.7530 0.7460 0.7390 0.7240
14.298390 0.7070 0.6930 0.6780 0.6660 0.6540
14.333000 0.6430 0.6330 0.6280 0.6180 0.6110
14.367390 0.6070 0.6060 0.6040 0.6040 0.6040
14.402000 0.6060 0.6070 0.6090 0.6180 0.6260
14.436390 0.6380 0.6540 0.6720 0.6900 0.7030
14.471000 0.7070 0.7170 0.7270 0.7360 0.7440
14.505390 0.7600 0.7680 0.7750 0.7820 0.7890
14.539000 0.7960 0.8030 0.8080 0.8150 0.8180
14.573390 0.8230 0.8270 0.8320 0.8320 0.8330
14.608000 0.8330 0.8330 0.8330 0.8370 0.8390
14.642390 0.8400 0.8420 0.8440 0.8470 0.8470
14.677000 0.8490 0.8490 0.8490 0.8490 0.8490
14.711390 0.8490 0.8490 0.8490 0.8510 0.8510
14.746000 0.8520 0.8520 0.8520 0.8520 0.8520
14.780390 0.8520 0.8520 0.8520 0.8520 0.8520
14.814000 0.8520 0.8520 0.8520 0.8520 0.8520
14.848390 0.8520 0.8520 0.8510 0.8510 0.8490
14.883000 0.8490 0.8450 0.8400 0.8370 0.8330
14.917390 0.8300 0.8280 0.8230 0.8180 0.8150
14.952000 0.8130 0.8090 0.8080 0.8060 0.8060
14.986390 0.8060 0.8060 0.8060 0.8060 0.8060
15.021000 0.8060 0.8060 0.8040 0.8040 0.8040
15.055390 0.8030 0.7990 0.7970 0.7920 0.7890
15.089000 0.7800 0.7750 0.7700 0.7630 0.7600
15.123390 0.7560 0.7530 0.7500 0.7460 0.7430
15.158000 0.7410 0.7380 0.7360 0.7310 0.7290
15.192390 0.7270 0.7260 0.7220 0.7190 0.7150
15.227000 0.7150 0.7100 0.7080 0.7050 0.7030
15.261390 0.7030 0.7020 0.7000 0.6980 0.6980
15.296000 0.6960 0.6960 0.6910 0.6900 0.6880
15.330390 0.6860 0.6830 0.6810 0.6760 0.6740
15.364000 0.6710 0.6660 0.6640 0.6600 0.6570
15.398390 0.6550 0.6520 0.6480 0.6450 0.6420
15.433000 0.6400 0.6380 0.6380 0.6380 0.6380
15.467390 0.6380 0.6380 0.6380 0.6380 0.6380
15.502000 0.6360 0.6380 0.6380 0.6380 0.6380
15.536390 0.6360 0.6360 0.6360 0.6360 0.6360
15.571000 0.6360 0.6360 0.6360 0.6360 0.6360
15.605390 0.6360 0.6360 0.6360 0.6360 0.6360
15.639000 0.6360 0.6360 0.6360 0.6360 0.6360
15.673390 0.6350 0.6360 0.6360 0.6360 0.6360
15.708000 0.6360 0.6350 0.6350 0.6330 0.6310
15.742390 0.6310 0.6300 0.6280 0.6260 0.6230
15.777000 0.6210 0.6210 0.6190 0.6180 0.6160
15.811390 0.6140 0.6140 0.6130 0.6130 0.6130
15.846000 0.6110 0.6110 0.6110 0.6110 0.6110
15.880390 0.6090 0.6090 0.6070 0.6070 0.6090
15.914000 0.6070 0.6070 0.6070 0.6070 0.6070
15.948390 0.6070 0.6070 0.6070 0.6070 0.6070
15.983000 0.6070 0.6070 0.6070 0.6070
##END=
