##TITLE=3-PYRROLINE
##JCAMP-DX=4.24
##DATA TYPE=INFRARED SPECTRUM
##CLASS=COBLENTZ III
##ORIGIN=WESTERN REGIONAL RES. USDA
##OWNER=COBLENTZ SOCIETY
Collection (C) 2018 copyright by the U.S. Secretary of Commerce
on behalf of the United States of America. All rights reserved.
##DATE=1967/07/28
##NAMES=2,5-dihydro-1H-pyrrole
##CAS REGISTRY NO=109-96-6
##MOLFORM=C4 H7 N
##SOURCE REFERENCE=COBLENTZ NO. 10430
##$NIST SOURCE=COBLENTZ
##$NIST IMAGE=cob10430
##SPECTROMETER/DATA SYSTEM=CARY 90 (GRATING)
##INSTRUMENT PARAMETERS=GRATING CHANGES AT 3000, 2000, 1200 CM^-^1
##STATE=LIQUID (NEAT)
##PATH LENGTH=CAPILLARY
##SAMPLING PROCEDURE=TRANSMISSION
##RESOLUTION=4
##DATA PROCESSING=DIGITIZED BY NIST FROM HARD COPY (FROM TWO SEGMENTS)
##XUNITS=1/CM
##YUNITS=TRANSMITTANCE
##XFACTOR=1.000000
##YFACTOR=1
##DELTAX=0.905662
##FIRSTX=454.943
##LASTX=3981.59
##FIRSTY=0.832
##MAXX=3981.59
##MINX=454.943
##MAXY=0.943
##MINY=0.062
##NPOINTS=3895
##XYDATA=(X++(Y..Y))
454.943000 0.8320 0.8330 0.8340 0.8340 0.8350
459.471312 0.8360 0.8360 0.8390 0.8400 0.8410
463.999625 0.8420 0.8440 0.8450 0.8470 0.8480
468.527937 0.8480 0.8480 0.8470 0.8450 0.8450
473.056249 0.8440 0.8430 0.8410 0.8400 0.8390
477.584561 0.8380 0.8360 0.8350 0.8340 0.8330
482.112874 0.8320 0.8320 0.8310 0.8310 0.8300
486.641186 0.8300 0.8300 0.8300 0.8300 0.8310
491.169498 0.8310 0.8310 0.8310 0.8310 0.8310
495.697811 0.8320 0.8320 0.8330 0.8330 0.8340
500.226123 0.8340 0.8360 0.8360 0.8380 0.8380
504.754435 0.8380 0.8380 0.8380 0.8380 0.8380
509.282747 0.8360 0.8360 0.8350 0.8340 0.8340
513.811060 0.8330 0.8320 0.8310 0.8300 0.8280
518.339372 0.8270 0.8260 0.8260 0.8250 0.8240
522.867684 0.8230 0.8220 0.8210 0.8190 0.8180
527.395996 0.8170 0.8160 0.8150 0.8130 0.8120
531.924309 0.8100 0.8090 0.8080 0.8070 0.8060
536.452621 0.8050 0.8040 0.8020 0.8010 0.8000
540.980933 0.7990 0.7980 0.7970 0.7960 0.7960
545.509246 0.7950 0.7930 0.7920 0.7910 0.7900
550.037558 0.7890 0.7880 0.7870 0.7850 0.7840
554.565870 0.7830 0.7820 0.7810 0.7800 0.7780
559.094182 0.7760 0.7750 0.7740 0.7730 0.7720
563.622495 0.7710 0.7700 0.7670 0.7640 0.7620
568.150807 0.7590 0.7570 0.7570 0.7560 0.7560
572.679119 0.7540 0.7500 0.7500 0.7490 0.7490
577.207432 0.7480 0.7470 0.7460 0.7450 0.7440
581.735744 0.7380 0.7360 0.7340 0.7340 0.7330
586.264056 0.7310 0.7230 0.7200 0.7180 0.7160
590.792368 0.7160 0.7120 0.7100 0.7070 0.7050
595.320681 0.7050 0.7040 0.7040 0.7030 0.6990
599.848993 0.6980 0.6970 0.6960 0.6960 0.6940
604.377305 0.6930 0.6890 0.6880 0.6860 0.6840
608.905617 0.6810 0.6800 0.6800 0.6790 0.6730
613.433930 0.6670 0.6650 0.6630 0.6630 0.6610
617.962242 0.6560 0.6540 0.6540 0.6530 0.6530
622.490554 0.6520 0.6510 0.6510 0.6450 0.6400
627.018867 0.6380 0.6370 0.6360 0.6360 0.6340
631.547179 0.6250 0.6220 0.6210 0.6190 0.6120
636.075491 0.6100 0.6050 0.6030 0.6020 0.6010
640.603803 0.5990 0.5860 0.5800 0.5760 0.5740
645.132116 0.5650 0.5580 0.5530 0.5500 0.5410
649.660428 0.5350 0.5300 0.5180 0.5100 0.5060
654.188740 0.4920 0.4730 0.4690 0.4620 0.4510
658.717053 0.4360 0.4230 0.4091 0.4040 0.3980
663.245365 0.3920 0.3900 0.3900 0.3890 0.3890
667.773677 0.3890 0.3900 0.3900 0.3910 0.3920
672.301989 0.3980 0.4000 0.4130 0.4230 0.4300
676.830302 0.4410 0.4500 0.4580 0.4749 0.4879
681.358614 0.4970 0.5130 0.5180 0.5220 0.5280
685.886926 0.5340 0.5450 0.5590 0.5630 0.5730
690.415238 0.5790 0.5860 0.5950 0.6010 0.6020
694.943551 0.6070 0.6130 0.6190 0.6210 0.6250
699.471863 0.6300 0.6330 0.6340 0.6360 0.6390
704.000175 0.6420 0.6430 0.6430 0.6440 0.6440
708.528488 0.6450 0.6450 0.6450 0.6450 0.6450
713.056800 0.6460 0.6460 0.6470 0.6470 0.6470
717.585112 0.6480 0.6500 0.6500 0.6520 0.6530
722.113424 0.6540 0.6570 0.6600 0.6600 0.6610
726.641737 0.6620 0.6700 0.6730 0.6800 0.6840
731.170049 0.6890 0.6940 0.6980 0.6990 0.7010
735.698361 0.7100 0.7130 0.7150 0.7150 0.7180
740.226674 0.7200 0.7210 0.7230 0.7240 0.7240
744.754986 0.7270 0.7290 0.7290 0.7290 0.7300
749.283298 0.7300 0.7300 0.7300 0.7300 0.7300
753.811610 0.7290 0.7290 0.7280 0.7280 0.7280
758.339923 0.7280 0.7280 0.7280 0.7270 0.7270
762.868235 0.7250 0.7240 0.7220 0.7210 0.7210
767.396547 0.7190 0.7160 0.7150 0.7140 0.7130
771.924859 0.7110 0.7070 0.7110 0.7070 0.7040
776.453172 0.7020 0.6990 0.6980 0.6970 0.6960
780.981484 0.6950 0.6910 0.6870 0.6840 0.6820
785.509796 0.6770 0.6760 0.6730 0.6700 0.6670
790.038109 0.6630 0.6600 0.6570 0.6570 0.6570
794.566421 0.6560 0.6560 0.6550 0.6550 0.6550
799.094733 0.6540 0.6530 0.6510 0.6470 0.6440
803.623045 0.6420 0.6400 0.6380 0.6370 0.6360
808.151358 0.6350 0.6340 0.6330 0.6300 0.6270
812.679670 0.6250 0.6240 0.6210 0.6190 0.6170
817.207982 0.6160 0.6160 0.6140 0.6130 0.6120
821.736295 0.6110 0.6100 0.6090 0.6080 0.6070
826.264607 0.6070 0.6070 0.6050 0.6050 0.6040
830.792919 0.6040 0.6040 0.6040 0.6030 0.6030
835.321231 0.6030 0.6030 0.6020 0.6020 0.6020
839.849544 0.6010 0.6010 0.6010 0.6000 0.6000
844.377856 0.6000 0.6000 0.6000 0.6000 0.6010
848.906168 0.6010 0.6010 0.6010 0.6020 0.6020
853.434480 0.6020 0.6020 0.6020 0.6030 0.6030
857.962793 0.6040 0.6040 0.6050 0.6050 0.6070
862.491105 0.6080 0.6080 0.6090 0.6100 0.6110
867.019417 0.6120 0.6130 0.6140 0.6180 0.6190
871.547730 0.6200 0.6210 0.6240 0.6270 0.6280
876.076042 0.6310 0.6350 0.6400 0.6460 0.6500
880.604354 0.6520 0.6540 0.6590 0.6620 0.6650
885.132666 0.6720 0.6790 0.6850 0.6900 0.6950
889.660979 0.7010 0.7060 0.7130 0.7210 0.7280
894.189291 0.7330 0.7400 0.7440 0.7460 0.7500
898.717603 0.7510 0.7510 0.7540 0.7550 0.7530
903.245916 0.7500 0.7420 0.7330 0.7250 0.7140
907.774228 0.6980 0.6910 0.6900 0.6910 0.7030
912.302540 0.7150 0.7290 0.7420 0.7579 0.7699
916.830852 0.7750 0.7840 0.7980 0.8020 0.8050
921.359165 0.8070 0.8120 0.8140 0.8150 0.8150
925.887477 0.8170 0.8170 0.8180 0.8210 0.8220
930.415789 0.8230 0.8240 0.8240 0.8240 0.8230
934.944102 0.8230 0.8230 0.8220 0.8220 0.8210
939.472414 0.8190 0.8190 0.8190 0.8190 0.8210
944.000726 0.8210 0.8210 0.8210 0.8210 0.8220
948.529038 0.8220 0.8220 0.8190 0.8180 0.8180
953.057351 0.8160 0.8150 0.8140 0.8130 0.8100
957.585663 0.8060 0.7990 0.7950 0.7880 0.7731
962.113975 0.7710 0.7660 0.7540 0.7510 0.7500
966.642287 0.7500 0.7500 0.7500 0.7500 0.7510
971.170600 0.7550 0.7590 0.7650 0.7720 0.7760
975.698912 0.7800 0.7840 0.7920 0.7970 0.8000
980.227224 0.8010 0.8060 0.8120 0.8160 0.8190
984.755537 0.8220 0.8230 0.8250 0.8310 0.8340
989.283849 0.8350 0.8360 0.8360 0.8360 0.8380
993.812161 0.8380 0.8380 0.8380 0.8360 0.8360
998.340473 0.8350 0.8330 0.8330 0.8320 0.8280
1002.868786 0.8260 0.8260 0.8260 0.8260 0.8250
1007.397098 0.8250 0.8250 0.8240 0.8240 0.8230
1011.925410 0.8150 0.8070 0.8050 0.8020 0.7920
1016.453723 0.7840 0.7780 0.7730 0.7650 0.7580
1020.982035 0.7530 0.7410 0.7270 0.7140 0.7030
1025.510347 0.6900 0.6730 0.6540 0.6470 0.6360
1030.038659 0.6250 0.6100 0.6000 0.5970 0.5940
1034.566972 0.5910 0.5880 0.5860 0.5850 0.5840
1039.095284 0.5830 0.5820 0.5830 0.5850 0.5870
1043.623596 0.5930 0.6000 0.6020 0.6040 0.6080
1048.151908 0.6110 0.6170 0.6200 0.6210 0.6270
1052.680221 0.6340 0.6370 0.6390 0.6430 0.6470
1057.208533 0.6510 0.6530 0.6540 0.6570 0.6590
1061.736845 0.6590 0.6570 0.6520 0.6500 0.6420
1066.265158 0.6350 0.6280 0.6140 0.6040 0.5970
1070.793470 0.5870 0.5670 0.5510 0.5400 0.5250
1075.321782 0.5060 0.4970 0.4751 0.4680 0.4580
1079.850094 0.4510 0.4460 0.4450 0.4450 0.4450
1084.378407 0.4460 0.4490 0.4540 0.4600 0.4630
1088.906719 0.4680 0.4820 0.4920 0.5060 0.5200
1093.435031 0.5330 0.5510 0.5630 0.5819 0.5930
1097.963344 0.6030 0.6180 0.6270 0.6560 0.6780
1102.491656 0.6950 0.7060 0.7180 0.7290 0.7370
1107.019968 0.7530 0.7720 0.7810 0.7840 0.7880
1111.548280 0.8000 0.8040 0.8080 0.8150 0.8230
1116.076593 0.8340 0.8390 0.8430 0.8490 0.8500
1120.604905 0.8530 0.8560 0.8590 0.8600 0.8610
1125.133217 0.8650 0.8680 0.8720 0.8740 0.8760
1129.661529 0.8780 0.8790 0.8790 0.8820 0.8830
1134.189842 0.8870 0.8890 0.8910 0.8940 0.8940
1138.718154 0.8950 0.8960 0.8960 0.8960 0.8960
1143.246466 0.8960 0.8960 0.8960 0.8960 0.8960
1147.774779 0.8960 0.8960 0.8960 0.8980 0.8990
1152.303091 0.8990 0.9000 0.9000 0.9000 0.9000
1156.831403 0.8990 0.8990 0.8980 0.8980 0.8960
1161.359715 0.8950 0.8950 0.8940 0.8940 0.8930
1165.888028 0.8910 0.8900 0.8890 0.8870 0.8860
1170.416340 0.8850 0.8830 0.8790 0.8780 0.8740
1174.944652 0.8660 0.8550 0.8450 0.8320 0.8300
1179.472965 0.8260 0.8240 0.8210 0.8180 0.8170
1184.001277 0.8180 0.8220 0.8230 0.8300 0.8380
1188.529589 0.8410 0.8560 0.8620 0.8640 0.8740
1193.057901 0.8750 0.8760 0.8770 0.8770 0.8780
1197.586214 0.8790 0.8790 0.8810 0.8810 0.8810
1202.114526 0.8810 0.8810 0.8810 0.8810 0.8790
1206.642838 0.8790 0.8790 0.8780 0.8780 0.8780
1211.171150 0.8780 0.8780 0.8780 0.8770 0.8770
1215.699463 0.8760 0.8760 0.8750 0.8750 0.8740
1220.227775 0.8740 0.8730 0.8730 0.8720 0.8700
1224.756087 0.8700 0.8700 0.8690 0.8690 0.8690
1229.284400 0.8680 0.8680 0.8670 0.8670 0.8670
1233.812712 0.8670 0.8660 0.8660 0.8660 0.8650
1238.341024 0.8650 0.8640 0.8620 0.8620 0.8620
1242.869336 0.8610 0.8610 0.8610 0.8610 0.8600
1247.397649 0.8600 0.8600 0.8600 0.8590 0.8590
1251.925961 0.8590 0.8590 0.8570 0.8570 0.8570
1256.454273 0.8570 0.8560 0.8560 0.8560 0.8560
1260.982586 0.8560 0.8550 0.8550 0.8550 0.8530
1265.510898 0.8530 0.8530 0.8520 0.8520 0.8520
1270.039210 0.8510 0.8510 0.8510 0.8500 0.8500
1274.567522 0.8500 0.8500 0.8490 0.8490 0.8490
1279.095835 0.8480 0.8480 0.8480 0.8480 0.8470
1283.624147 0.8470 0.8470 0.8450 0.8450 0.8450
1288.152459 0.8450 0.8450 0.8450 0.8450 0.8450
1292.680771 0.8450 0.8470 0.8470 0.8470 0.8470
1297.209084 0.8480 0.8480 0.8490 0.8490 0.8490
1301.737396 0.8500 0.8500 0.8500 0.8490 0.8490
1306.265708 0.8480 0.8480 0.8470 0.8470 0.8450
1310.794021 0.8450 0.8440 0.8430 0.8420 0.8410
1315.322333 0.8400 0.8390 0.8360 0.8340 0.8310
1319.850645 0.8270 0.8240 0.8190 0.8140 0.8080
1324.378957 0.8000 0.7900 0.7810 0.7710 0.7570
1328.907270 0.7470 0.7340 0.7330 0.7340 0.7420
1333.435582 0.7510 0.7550 0.7630 0.7670 0.7710
1337.963894 0.7740 0.7790 0.7810 0.7820 0.7840
1342.492207 0.7840 0.7870 0.7880 0.7890 0.7890
1347.020519 0.7900 0.7900 0.7910 0.7930 0.7950
1351.548831 0.7960 0.7970 0.7970 0.7980 0.7980
1356.077143 0.7990 0.8000 0.8000 0.7990 0.7980
1360.605456 0.7970 0.7960 0.7920 0.7910 0.7900
1365.133768 0.7890 0.7890 0.7880 0.7880 0.7850
1369.662080 0.7820 0.7800 0.7780 0.7760 0.7740
1374.190392 0.7730 0.7720 0.7700 0.7620 0.7550
1378.718705 0.7530 0.7510 0.7500 0.7490 0.7440
1383.247017 0.7410 0.7330 0.7270 0.7220 0.7200
1387.775329 0.7180 0.7150 0.7140 0.7110 0.7050
1392.303642 0.7010 0.6960 0.6900 0.6850 0.6800
1396.831954 0.6730 0.6680 0.6600 0.6530 0.6450
1401.360266 0.6350 0.6220 0.6160 0.6090 0.6020
1405.888578 0.5960 0.5900 0.5850 0.5800 0.5760
1410.416891 0.5740 0.5710 0.5700 0.5700 0.5690
1414.945203 0.5690 0.5700 0.5710 0.5740 0.5760
1419.473515 0.5780 0.5800 0.5840 0.5870 0.5900
1424.001828 0.5940 0.5970 0.6020 0.6050 0.6100
1428.530140 0.6120 0.6170 0.6200 0.6240 0.6290
1433.058452 0.6330 0.6370 0.6430 0.6440 0.6460
1437.586764 0.6510 0.6540 0.6570 0.6630 0.6680
1442.115077 0.6700 0.6710 0.6740 0.6790 0.6820
1446.643389 0.6840 0.6860 0.6890 0.6910 0.6940
1451.171701 0.6990 0.7050 0.7060 0.7100 0.7110
1455.700014 0.7130 0.7150 0.7160 0.7160 0.7180
1460.228326 0.7180 0.7190 0.7190 0.7180 0.7150
1464.756638 0.7130 0.7110 0.7050 0.7040 0.7030
1469.284950 0.6940 0.6870 0.6820 0.6730 0.6670
1473.813263 0.6650 0.6670 0.6710 0.6760 0.6850
1478.341575 0.6990 0.7070 0.7180 0.7290 0.7390
1482.869887 0.7500 0.7570 0.7640 0.7710 0.7750
1487.398199 0.7830 0.7880 0.7910 0.7960 0.8010
1491.926512 0.8040 0.8060 0.8090 0.8120 0.8130
1496.454824 0.8140 0.8170 0.8190 0.8220 0.8240
1500.983136 0.8250 0.8260 0.8260 0.8260 0.8260
1505.511449 0.8260 0.8260 0.8270 0.8270 0.8270
1510.039761 0.8280 0.8300 0.8310 0.8300 0.8300
1514.568073 0.8300 0.8300 0.8280 0.8280 0.8270
1519.096385 0.8270 0.8260 0.8260 0.8250 0.8240
1523.624698 0.8240 0.8240 0.8230 0.8210 0.8180
1528.153010 0.8170 0.8160 0.8150 0.8140 0.8120
1532.681322 0.8120 0.8100 0.8090 0.8060 0.8050
1537.209635 0.8020 0.8020 0.7990 0.7970 0.7960
1541.737947 0.7950 0.7930 0.7910 0.7890 0.7870
1546.266259 0.7830 0.7790 0.7760 0.7740 0.7740
1550.794571 0.7730 0.7730 0.7730 0.7740 0.7740
1555.322884 0.7750 0.7800 0.7820 0.7840 0.7870
1559.851196 0.7880 0.7910 0.7950 0.7960 0.7970
1564.379508 0.7980 0.7990 0.8000 0.8010 0.8020
1568.907820 0.8050 0.8050 0.8050 0.8060 0.8060
1573.436133 0.8070 0.8070 0.8080 0.8080 0.8080
1577.964445 0.8100 0.8100 0.8090 0.8090 0.8070
1582.492757 0.8070 0.8060 0.8050 0.8050 0.8040
1587.021070 0.8040 0.8020 0.8020 0.7980 0.7970
1591.549382 0.7970 0.7970 0.7980 0.7990 0.7990
1596.077694 0.7990 0.7990 0.7980 0.7970 0.7960
1600.606006 0.7950 0.7950 0.7930 0.7930 0.7930
1605.134319 0.7920 0.7920 0.7910 0.7900 0.7890
1609.662631 0.7890 0.7850 0.7830 0.7800 0.7780
1614.190943 0.7760 0.7710 0.7660 0.7630 0.7620
1618.719256 0.7620 0.7630 0.7650 0.7670 0.7700
1623.247568 0.7730 0.7760 0.7780 0.7760 0.7740
1627.775880 0.7730 0.7720 0.7710 0.7710 0.7710
1632.304192 0.7710 0.7700 0.7660 0.7640 0.7610
1636.832505 0.7580 0.7570 0.7570 0.7570 0.7560
1641.360817 0.7550 0.7530 0.7500 0.7480 0.7460
1645.889129 0.7440 0.7420 0.7410 0.7410 0.7410
1650.417441 0.7400 0.7390 0.7390 0.7380 0.7380
1654.945754 0.7390 0.7400 0.7410 0.7410 0.7410
1659.474066 0.7420 0.7440 0.7460 0.7470 0.7470
1664.002378 0.7480 0.7480 0.7480 0.7480 0.7470
1668.530691 0.7470 0.7470 0.7470 0.7470 0.7480
1673.059003 0.7490 0.7540 0.7570 0.7580 0.7580
1677.587315 0.7590 0.7610 0.7610 0.7620 0.7620
1682.115627 0.7630 0.7650 0.7670 0.7700 0.7730
1686.643940 0.7750 0.7760 0.7790 0.7800 0.7840
1691.172252 0.7870 0.7880 0.7890 0.7910 0.7920
1695.700564 0.7930 0.7950 0.7960 0.7980 0.8020
1700.228877 0.8060 0.8080 0.8130 0.8150 0.8160
1704.757189 0.8170 0.8190 0.8220 0.8240 0.8250
1709.285501 0.8270 0.8300 0.8330 0.8340 0.8360
1713.813813 0.8380 0.8410 0.8420 0.8430 0.8450
1718.342126 0.8470 0.8480 0.8500 0.8510 0.8530
1722.870438 0.8530 0.8550 0.8550 0.8570 0.8590
1727.398750 0.8610 0.8620 0.8650 0.8670 0.8690
1731.927062 0.8720 0.8720 0.8730 0.8730 0.8740
1736.455375 0.8750 0.8750 0.8770 0.8770 0.8780
1740.983687 0.8790 0.8790 0.8790 0.8810 0.8810
1745.511999 0.8810 0.8820 0.8820 0.8830 0.8830
1750.040312 0.8840 0.8850 0.8860 0.8870 0.8890
1754.568624 0.8900 0.8910 0.8920 0.8920 0.8930
1759.096936 0.8930 0.8940 0.8940 0.8950 0.8950
1763.625248 0.8950 0.8950 0.8950 0.8950 0.8950
1768.153561 0.8950 0.8950 0.8950 0.8950 0.8950
1772.681873 0.8950 0.8950 0.8940 0.8940 0.8940
1777.210185 0.8940 0.8940 0.8950 0.8950 0.8950
1781.738498 0.8950 0.8950 0.8950 0.8950 0.8950
1786.266810 0.8950 0.8950 0.8950 0.8950 0.8950
1790.795122 0.8950 0.8950 0.8950 0.8950 0.8950
1795.323434 0.8950 0.8940 0.8940 0.8940 0.8940
1799.851747 0.8950 0.8960 0.8990 0.9010 0.9010
1804.380059 0.9020 0.9020 0.9020 0.9020 0.9010
1808.908371 0.9000 0.9000 0.8990 0.8990 0.8990
1813.436683 0.8990 0.9000 0.9000 0.9000 0.9010
1817.964996 0.9010 0.9010 0.9020 0.9020 0.9020
1822.493308 0.9030 0.9030 0.9040 0.9040 0.9030
1827.021620 0.9030 0.9030 0.9030 0.9020 0.9020
1831.549933 0.9010 0.9000 0.9000 0.8990 0.8990
1836.078245 0.8980 0.8980 0.8980 0.8980 0.8980
1840.606557 0.8990 0.8990 0.8990 0.8990 0.9000
1845.134869 0.9000 0.9000 0.9000 0.9010 0.9010
1849.663182 0.9010 0.9010 0.9020 0.9020 0.9020
1854.191494 0.9020 0.9030 0.9030 0.9030 0.9040
1858.719806 0.9040 0.9040 0.9060 0.9060 0.9060
1863.248119 0.9070 0.9070 0.9070 0.9070 0.9070
1867.776431 0.9070 0.9070 0.9070 0.9060 0.9060
1872.304743 0.9060 0.9040 0.9040 0.9030 0.9030
1876.833055 0.9030 0.9030 0.9030 0.9030 0.9030
1881.361368 0.9040 0.9040 0.9040 0.9040 0.9040
1885.889680 0.9040 0.9040 0.9040 0.9060 0.9060
1890.417992 0.9060 0.9060 0.9060 0.9060 0.9060
1894.946305 0.9060 0.9060 0.9060 0.9040 0.9040
1899.474617 0.9040 0.9040 0.9040 0.9030 0.9030
1904.002929 0.9020 0.9020 0.9010 0.9010 0.9000
1908.531241 0.9000 0.9000 0.9000 0.9010 0.9010
1913.059554 0.9020 0.9020 0.9030 0.9030 0.9040
1917.587866 0.9060 0.9060 0.9070 0.9080 0.9080
1922.116178 0.9090 0.9100 0.9100 0.9110 0.9110
1926.644490 0.9110 0.9110 0.9100 0.9100 0.9100
1931.172803 0.9090 0.9090 0.9080 0.9080 0.9060
1935.701115 0.9060 0.9040 0.9040 0.9040 0.9040
1940.229427 0.9030 0.9020 0.9010 0.9010 0.9010
1944.757740 0.9000 0.9000 0.9000 0.8990 0.8990
1949.286052 0.8990 0.8980 0.8980 0.8980 0.8960
1953.814364 0.8960 0.8950 0.8950 0.8940 0.8940
1958.342676 0.8940 0.8930 0.8930 0.8930 0.8930
1962.870989 0.8920 0.8920 0.8920 0.8920 0.8920
1967.399301 0.8920 0.8920 0.8920 0.8920 0.8920
1971.927613 0.8920 0.8920 0.8920 0.8920 0.8930
1976.455926 0.8930 0.8930 0.8930 0.8930 0.8930
1980.984238 0.8930 0.8930 0.8930 0.8930 0.8930
1985.512550 0.8930 0.8930 0.8930 0.8930 0.8930
1990.040862 0.8930 0.8930 0.8930 0.8930 0.8930
1994.569175 0.8930 0.8930 0.8930 0.8930 0.8930
1999.097487 0.8930 0.8930 0.8930 0.8930 0.8930
2003.625799 0.8930 0.8930 0.8930 0.8925 0.8920
2008.154111 0.8920 0.8920 0.8920 0.8920 0.8920
2012.682424 0.8920 0.8920 0.8920 0.8915 0.8910
2017.210736 0.8910 0.8910 0.8910 0.8910 0.8910
2021.739048 0.8910 0.8910 0.8910 0.8906 0.8901
2026.267361 0.8900 0.8900 0.8900 0.8900 0.8900
2030.795673 0.8900 0.8900 0.8900 0.8896 0.8891
2035.323985 0.8890 0.8890 0.8890 0.8890 0.8890
2039.852297 0.8890 0.8882 0.8872 0.8870 0.8870
2044.380610 0.8870 0.8870 0.8870 0.8870 0.8870
2048.908922 0.8870 0.8866 0.8861 0.8860 0.8860
2053.437234 0.8860 0.8860 0.8860 0.8860 0.8860
2057.965547 0.8860 0.8856 0.8851 0.8850 0.8850
2062.493859 0.8850 0.8850 0.8850 0.8850 0.8850
2067.022171 0.8850 0.8846 0.8841 0.8840 0.8840
2071.550483 0.8840 0.8840 0.8840 0.8840 0.8840
2076.078796 0.8840 0.8840 0.8840 0.8840 0.8840
2080.607108 0.8840 0.8840 0.8840 0.8840 0.8840
2085.135420 0.8840 0.8837 0.8832 0.8830 0.8830
2089.663732 0.8827 0.8822 0.8820 0.8820 0.8820
2094.192045 0.8820 0.8820 0.8820 0.8820 0.8820
2098.720357 0.8817 0.8812 0.8810 0.8810 0.8810
2103.248669 0.8810 0.8810 0.8810 0.8805 0.8795
2107.776982 0.8790 0.8790 0.8790 0.8790 0.8790
2112.305294 0.8790 0.8787 0.8782 0.8780 0.8780
2116.833606 0.8780 0.8780 0.8780 0.8780 0.8778
2121.361918 0.8773 0.8770 0.8770 0.8770 0.8770
2125.890231 0.8770 0.8770 0.8770 0.8770 0.8770
2130.418543 0.8770 0.8770 0.8770 0.8770 0.8770
2134.946855 0.8770 0.8770 0.8770 0.8770 0.8770
2139.475168 0.8770 0.8770 0.8770 0.8770 0.8770
2144.003480 0.8770 0.8770 0.8770 0.8770 0.8770
2148.531792 0.8770 0.8772 0.8777 0.8780 0.8780
2153.060104 0.8780 0.8780 0.8780 0.8780 0.8780
2157.588417 0.8780 0.8780 0.8780 0.8778 0.8773
2162.116729 0.8770 0.8770 0.8768 0.8763 0.8760
2166.645041 0.8760 0.8758 0.8754 0.8750 0.8750
2171.173353 0.8750 0.8750 0.8750 0.8750 0.8749
2175.701666 0.8744 0.8740 0.8740 0.8740 0.8740
2180.229978 0.8740 0.8740 0.8740 0.8740 0.8740
2184.758290 0.8740 0.8739 0.8734 0.8730 0.8730
2189.286603 0.8730 0.8730 0.8730 0.8730 0.8730
2193.814915 0.8730 0.8730 0.8730 0.8729 0.8724
2198.343227 0.8720 0.8720 0.8720 0.8720 0.8718
2202.871539 0.8708 0.8700 0.8700 0.8700 0.8700
2207.399852 0.8699 0.8694 0.8690 0.8690 0.8689
2211.928164 0.8684 0.8680 0.8680 0.8680 0.8680
2216.456476 0.8680 0.8680 0.8680 0.8680 0.8680
2220.984789 0.8675 0.8670 0.8670 0.8670 0.8670
2225.513101 0.8670 0.8665 0.8660 0.8660 0.8660
2230.041413 0.8660 0.8660 0.8660 0.8660 0.8660
2234.569725 0.8660 0.8660 0.8660 0.8665 0.8670
2239.098038 0.8670 0.8670 0.8670 0.8670 0.8675
2243.626350 0.8680 0.8685 0.8690 0.8690 0.8690
2248.154662 0.8695 0.8700 0.8700 0.8700 0.8709
2252.682974 0.8719 0.8720 0.8720 0.8725 0.8730
2257.211287 0.8730 0.8730 0.8735 0.8740 0.8740
2261.739599 0.8740 0.8740 0.8740 0.8744 0.8749
2266.267911 0.8750 0.8750 0.8750 0.8750 0.8754
2270.796224 0.8759 0.8760 0.8760 0.8760 0.8760
2275.324536 0.8760 0.8760 0.8760 0.8760 0.8760
2279.852848 0.8760 0.8760 0.8760 0.8760 0.8760
2284.381160 0.8760 0.8760 0.8764 0.8769 0.8770
2288.909473 0.8770 0.8774 0.8779 0.8780 0.8780
2293.437785 0.8780 0.8780 0.8784 0.8789 0.8790
