##TITLE=3-Hydroxypropionitrile
##JCAMP-DX=4.24
##DATA TYPE=INFRARED SPECTRUM
##ORIGIN=EPA-IR VAPOR PHASE LIBRARY
##OWNER=SRD/NIST
Collection (C) 2018 copyright by the U.S. Secretary of Commerce
on behalf of the United States of America. All rights reserved.
##CAS REGISTRY NO=109-78-4
##MOLFORM=C 3 H 5 N O
##$NIST SOURCE=MSDC-IR
##STATE=gas
##XUNITS=1/CM
##YUNITS=ABSORBANCE
##XFACTOR=1.
##YFACTOR=0.001
##DELTAX=1.92898
##FIRSTX=549.8
##LASTX=4000.7
##FIRSTY=1.09
##MAXX=4000.7
##MINX=549.759
##MAXY=0.03633
##MINY=0.0001403
##NPOINTS=1790
##XYDATA=(X++(Y..Y))
549.759 1.09 1.15 1.27 1.55 1.84 1.44 1.34 1.53 1.43 1.38
569.049 1.32 1.47 1.6 1.56 1.44 1.42 1.49 1.5 1.32 1.06
588.339 0.9095 0.8246 0.8411 0.713 0.7026 0.6828 0.5583 0.6343 0.6471 0.6527
607.628 0.68 0.5737 0.5044 0.581 0.5585 0.5385 0.5251 0.4788 0.5139 0.608
626.918 0.5759 0.4226 0.4278 0.5424 0.5418 0.4773 0.4423 0.4214 0.4303 0.4176
646.208 0.4755 0.4668 0.4027 0.5131 0.5018 0.4591 0.5079 0.6272 0.5603 0.5191
665.498 0.7024 0.6345 0.589 0.5768 0.5666 0.5883 0.5453 0.5478 0.5862 0.6327
684.787 0.7235 0.7315 0.7558 0.849 0.8635 0.9291 0.9769 1.02 1 0.916
704.077 0.8965 0.8426 0.8199 0.8281 0.811 0.8836 0.878 0.8737 0.9062 0.7775
723.367 0.7104 0.7114 0.7178 0.743 0.7059 0.6855 0.6761 0.6667 0.6455 0.6638
742.657 0.6792 0.6965 0.7712 0.7542 0.6648 0.6288 0.6113 0.5314 0.5629 0.6282
761.947 0.5704 0.55 0.6313 0.7358 0.7571 0.6902 0.7076 0.7937 0.836 0.7924
781.236 0.7252 0.7478 0.7614 0.7533 0.7942 0.8586 0.9108 0.9133 0.8791 0.8368
800.526 0.9418 1.04 0.9851 1.05 1.06 1 1.07 1.23 1.34 1.28
819.816 1.25 1.4 1.56 1.57 1.61 1.73 1.85 1.97 2.06 2.12
839.106 2.2 2.19 2.01 1.96 2 1.89 1.84 1.79 1.71 1.83
858.395 1.96 2.04 1.99 1.83 1.8 1.71 1.6 1.66 1.61 1.49
877.685 1.47 1.32 1.15 1.18 1.21 1.13 1.09 1.07 1.13 1.15
896.975 1 0.9789 0.9922 0.9821 1.03 1.11 1.21 1.29 1.27 1.26
916.265 1.34 1.41 1.53 1.68 1.88 2.09 2.29 2.52 2.66 2.71
935.555 2.73 2.85 2.88 2.89 3.03 3.12 3.19 3.3 3.43 3.43
954.844 3.24 3.01 2.86 2.72 2.65 2.72 2.7 2.73 2.85 2.92
974.134 2.88 2.9 3.07 3.18 3.3 3.42 3.56 3.81 4.01 4.27
993.424 4.59 4.78 5.11 5.53 5.83 6.16 6.58 7.04 7.53 8.08
1012.714 8.67 9.3 9.99 10.78 11.58 12.43 13.46 14.6 15.91 17.43
1032.003 19.12 20.8 22.65 24.57 26.58 28.61 30.49 32.17 33.48 34.44
1051.293 35.1 35.51 35.83 36.17 36.33 36.23 35.4 33.55 31.09 28.56
1070.583 26.4 24.63 23.12 21.79 20.71 19.42 17.62 15.85 14.27 12.82
1089.873 11.45 10.13 8.89 7.9 7.06 6.2 5.44 4.94 4.67 4.09
1109.163 3.59 3.27 2.99 2.85 2.66 2.55 2.65 2.62 2.48 2.35
1128.452 2.35 2.33 2.05 2.14 2.37 2.27 2.32 2.33 2.23 2.3
1147.742 2.42 2.53 2.64 2.53 2.59 2.71 2.73 2.82 2.87 2.98
1167.032 3.11 3.17 3.18 3.29 3.42 3.39 3.23 3.31 3.46 3.49
1186.322 3.51 3.51 3.54 3.52 3.61 3.6 3.49 3.74 4.13 4.16
1205.611 4.02 3.99 3.83 3.74 3.78 3.9 4 3.82 3.8 3.94
1224.901 3.99 4.05 4.05 4.02 3.91 3.82 3.78 3.63 3.61 3.79
1244.191 3.89 3.82 3.71 3.7 3.69 3.66 3.62 3.53 3.48 3.5
1263.481 3.42 3.34 3.44 3.48 3.47 3.63 3.68 3.61 3.6 3.64
1282.771 3.68 3.72 3.77 3.82 3.9 3.94 3.94 3.97 4 4.11
1302.060 4.2 4.26 4.33 4.39 4.44 4.45 4.41 4.42 4.43 4.42
1321.350 4.42 4.44 4.54 4.62 4.68 4.74 4.78 4.81 4.79 4.77
1340.640 4.76 4.69 4.66 4.69 4.72 4.79 4.87 4.96 5.07 5.18
1359.930 5.36 5.59 5.73 5.9 6.13 6.37 6.57 6.78 6.94 7.03
1379.219 7.09 7.14 7.16 7.21 7.27 7.22 7.16 7.21 7.27 7.24
1398.509 7.15 6.94 6.69 6.47 6.2 5.95 5.75 5.58 5.44 5.33
1417.799 5.26 5.17 5.01 4.87 4.74 4.64 4.51 4.38 4.25 4.12
1437.089 3.99 3.8 3.67 3.56 3.39 3.22 3.06 2.89 2.72 2.58
1456.378 2.49 2.32 2.17 2.08 2.04 1.98 1.88 1.83 1.83 1.78
1475.668 1.72 1.67 1.62 1.57 1.48 1.43 1.43 1.43 1.36 1.26
1494.958 1.21 1.19 1.12 1.07 1.02 0.9755 0.9562 0.9377 0.8758 0.7663
1514.248 0.6993 0.6896 0.6742 0.6759 0.6583 0.592 0.5449 0.5343 0.518 0.4941
1533.538 0.4932 0.4582 0.4601 0.5167 0.4804 0.4328 0.4539 0.4374 0.4417 0.4498
1552.827 0.4647 0.4696 0.4369 0.4147 0.3794 0.3557 0.3738 0.3887 0.3726 0.3783
1572.117 0.3714 0.3469 0.366 0.4238 0.4366 0.3666 0.2993 0.2929 0.3297 0.3202
1591.407 0.271 0.2737 0.2914 0.2952 0.2581 0.2226 0.2292 0.2385 0.2336 0.222
1610.697 0.207 0.1945 0.2297 0.2994 0.2767 0.205 0.2216 0.2174 0.1939 0.236
1629.986 0.2477 0.2299 0.2426 0.2499 0.2172 0.1961 0.2222 0.2741 0.3554 0.3471
1649.276 0.2517 0.2923 0.3987 0.3461 0.2677 0.2572 0.2358 0.224 0.2623 0.2967
1668.566 0.3314 0.3216 0.2669 0.2849 0.3404 0.3572 0.2928 0.2947 0.3694 0.3183
1687.856 0.2565 0.253 0.2395 0.2685 0.3262 0.292 0.2905 0.3075 0.2806 0.2903
1707.146 0.2302 0.2181 0.2972 0.3345 0.316 0.3057 0.2806 0.2713 0.2723 0.2504
1726.435 0.2132 0.22 0.2671 0.2852 0.3184 0.2841 0.2447 0.2251 0.1825 0.1625
1745.725 0.1554 0.1403 0.184 0.2312 0.1747 0.1685 0.1765 0.1543 0.1714 0.1701
1765.015 0.1628 0.2129 0.2211 0.2128 0.2163 0.1885 0.1743 0.1566 0.1762 0.2043
1784.305 0.2244 0.2107 0.169 0.1781 0.2004 0.194 0.2059 0.1875 0.2093 0.2375
1803.594 0.2092 0.2128 0.2084 0.2004 0.2096 0.2085 0.221 0.2625 0.2366 0.208
1822.884 0.2332 0.2306 0.2236 0.2203 0.2016 0.1915 0.1959 0.2035 0.208 0.1901
1842.174 0.226 0.2458 0.2007 0.2037 0.2043 0.1822 0.1908 0.2282 0.2542 0.2602
1861.464 0.2635 0.2743 0.2769 0.2981 0.3296 0.3415 0.3441 0.347 0.3421 0.3225
1880.754 0.3277 0.3392 0.3622 0.3626 0.3202 0.3192 0.3811 0.3993 0.389 0.399
1900.043 0.3622 0.3318 0.3559 0.3691 0.3601 0.3625 0.3576 0.3638 0.3725 0.3735
1919.333 0.3762 0.3666 0.312 0.3262 0.3337 0.3075 0.3431 0.3472 0.3446 0.3405
1938.623 0.3097 0.3161 0.3234 0.2889 0.2857 0.2883 0.2793 0.2779 0.2581 0.2155
1957.913 0.2151 0.2229 0.2297 0.2587 0.2795 0.2728 0.2297 0.2289 0.26 0.2539
1977.202 0.245 0.2587 0.2567 0.282 0.3025 0.2808 0.276 0.3099 0.3002 0.2578
1996.492 0.2527 0.261 0.2566 0.2403 0.251 0.2326 0.2214 0.2448 0.2527 0.2452
2015.782 0.242 0.247 0.2712 0.3009 0.2876 0.2655 0.2756 0.3174 0.3084 0.2607
2035.072 0.2725 0.2987 0.3133 0.3384 0.3528 0.3288 0.3237 0.3753 0.3792 0.3705
2054.362 0.4185 0.4299 0.4113 0.413 0.4199 0.457 0.4799 0.4813 0.5108 0.5163
2073.651 0.5079 0.5581 0.6221 0.6607 0.644 0.6224 0.6478 0.6305 0.6286 0.6483
2092.941 0.6743 0.7332 0.7329 0.7058 0.6812 0.6567 0.6571 0.677 0.6583 0.6355
2112.231 0.6495 0.6232 0.5786 0.5637 0.5558 0.5455 0.5415 0.5279 0.5174 0.5229
2131.521 0.5234 0.5135 0.4747 0.4667 0.4917 0.458 0.4524 0.4655 0.4621 0.4397
2150.810 0.4007 0.3969 0.3998 0.3781 0.3422 0.3331 0.3374 0.3135 0.3282 0.3813
2170.100 0.376 0.3335 0.3314 0.3411 0.3174 0.2927 0.3068 0.3276 0.3406 0.3805
2189.390 0.3597 0.3331 0.3425 0.3332 0.3272 0.3181 0.3471 0.3856 0.3737 0.382
2208.680 0.398 0.3698 0.347 0.3761 0.3984 0.4344 0.4835 0.4673 0.432 0.4807
2227.970 0.5671 0.5758 0.5822 0.6284 0.6951 0.748 0.7989 0.9024 0.9677 1.02
2247.259 1.05 1.06 1.11 1.11 1.06 1.03 1.02 1 1 0.9894
2266.549 0.9455 0.9516 0.9129 0.8184 0.7332 0.6959 0.6232 0.545 0.5242 0.5165
2285.839 0.4891 0.4523 0.4362 0.419 0.4026 0.4224 0.4422 0.4087 0.3937 0.4169
2305.129 0.4355 0.4353 0.4312 0.4163 0.4221 0.4424 0.4482 0.4397 0.4206 0.4223
2324.418 0.4523 0.4493 0.4007 0.4122 0.4275 0.3919 0.3649 0.3893 0.4279 0.4419
2343.708 0.4462 0.434 0.4358 0.4892 0.4987 0.4732 0.4647 0.4417 0.4587 0.4892
2362.998 0.4835 0.4839 0.5101 0.4814 0.4786 0.5515 0.5294 0.4829 0.4632 0.4166
2382.288 0.444 0.4822 0.4908 0.4877 0.5034 0.5278 0.5245 0.5469 0.5545 0.5435
2401.578 0.522 0.5236 0.5449 0.5327 0.5462 0.5514 0.51 0.4988 0.5579 0.5598
2420.867 0.533 0.5442 0.5145 0.5217 0.5586 0.5711 0.5776 0.5526 0.5852 0.6271
2440.157 0.6248 0.5808 0.5513 0.541 0.5129 0.5498 0.5728 0.5771 0.5644 0.5278
2459.447 0.4952 0.5189 0.5668 0.5567 0.5591 0.5492 0.5118 0.5106 0.4825 0.4624
2478.737 0.4459 0.4441 0.4284 0.4125 0.4498 0.4307 0.4646 0.4931 0.4632 0.496
2498.026 0.4932 0.5047 0.4843 0.4201 0.4383 0.4554 0.4219 0.4128 0.4427 0.458
2517.316 0.4392 0.4458 0.4898 0.4788 0.439 0.4387 0.466 0.4672 0.4556 0.4729
2536.606 0.4989 0.4922 0.4508 0.403 0.3862 0.3619 0.3891 0.4623 0.4707 0.4579
2555.896 0.4636 0.5038 0.5006 0.4253 0.3963 0.4249 0.4473 0.4301 0.42 0.4011
2575.186 0.3756 0.3782 0.4016 0.4613 0.4905 0.5052 0.5015 0.4654 0.4766 0.4561
2594.475 0.4407 0.4617 0.4298 0.4691 0.5303 0.5546 0.5168 0.4913 0.5102 0.5343
2613.765 0.5504 0.5456 0.5434 0.5433 0.5053 0.5022 0.5652 0.5748 0.5857 0.6022
2633.055 0.6256 0.6057 0.6126 0.626 0.5719 0.5828 0.5762 0.5566 0.5452 0.5369
2652.345 0.5409 0.5601 0.5716 0.5205 0.5059 0.4852 0.454 0.4575 0.5049 0.5131
2671.634 0.4938 0.5217 0.5167 0.4938 0.5497 0.5846 0.5602 0.5633 0.5421 0.5654
2690.924 0.6464 0.6536 0.6657 0.7068 0.7088 0.7038 0.7081 0.7084 0.7047 0.7569
2710.214 0.7788 0.7832 0.8182 0.8171 0.8175 0.8303 0.8211 0.8279 0.9188 0.8759
2729.504 0.8266 0.9248 0.9537 0.9344 0.9521 0.9388 0.9178 0.9663 0.9725 0.948
2748.794 0.9769 1.01 1.02 1.02 1.02 1.02 1.02 1.03 1.01 0.9899
2768.083 0.9797 1.02 1.08 1.04 1.07 1.12 1.1 1.08 1.05 1.06
2787.373 1.1 1.11 1.1 1.09 1.1 1.12 1.11 1.12 1.14 1.17
2806.663 1.22 1.22 1.25 1.28 1.26 1.33 1.35 1.37 1.42 1.45
2825.953 1.48 1.53 1.54 1.56 1.66 1.7 1.69 1.75 1.84 1.97
2845.242 2.08 2.17 2.26 2.36 2.42 2.43 2.5 2.68 2.87 3.03
2864.532 3.24 3.51 3.82 4.09 4.3 4.63 4.98 5.32 5.67 6.03
2883.822 6.41 6.82 7.25 7.55 7.88 8.22 8.49 8.81 9.28 9.48
2903.112 9.27 9.03 8.87 8.8 8.8 8.81 8.77 8.77 8.81 8.85
2922.401 8.82 8.84 8.93 9.01 9.15 9.32 9.46 9.62 9.71 9.79
2941.691 9.91 9.98 10.22 10.61 10.9 11.12 11.09 10.98 11.02 11.06
2960.981 11.05 11.04 11.02 10.94 10.81 10.71 10.62 10.47 10 9.23
2980.271 8.7 8.39 7.94 7.43 7.02 6.74 6.39 5.96 5.51 5.02
2999.561 4.62 4.18 3.7 3.36 2.98 2.63 2.4 2.15 1.95 1.82
3018.850 1.73 1.55 1.38 1.29 1.15 1.05 1.01 1.02 0.94 0.8598
3038.140 0.7353 0.6393 0.6872 0.7559 0.7285 0.6674 0.6262 0.5305 0.5945 0.668
3057.430 0.6735 0.7257 0.7119 0.6874 0.6933 0.6254 0.4941 0.4676 0.5863 0.6342
3076.720 0.6071 0.5982 0.672 0.67 0.6352 0.6906 0.6788 0.6286 0.5639 0.5952
3096.009 0.6018 0.5216 0.5161 0.5171 0.4698 0.452 0.5113 0.4765 0.377 0.5124
3115.299 0.4899 0.4225 0.4287 0.4231 0.4924 0.4864 0.4742 0.4109 0.4044 0.4543
3134.589 0.4485 0.4333 0.434 0.4117 0.4029 0.3844 0.4371 0.4649 0.4478 0.4179
3153.879 0.3799 0.4292 0.4551 0.4406 0.4612 0.4642 0.3808 0.3552 0.3443 0.3237
3173.169 0.3787 0.4464 0.4904 0.5278 0.5016 0.4433 0.4205 0.3783 0.415 0.4784
3192.458 0.5305 0.5249 0.4459 0.4691 0.4677 0.3825 0.3521 0.376 0.4574 0.4935
3211.748 0.4204 0.3597 0.4131 0.47 0.4213 0.3842 0.3966 0.4554 0.4329 0.34
3231.038 0.3521 0.4573 0.4438 0.4722 0.5137 0.4003 0.4234 0.5329 0.5036 0.564
3250.328 0.5842 0.5033 0.4674 0.4752 0.5043 0.4802 0.4981 0.5211 0.4622 0.4199
3269.617 0.438 0.419 0.4712 0.5056 0.4944 0.409 0.3672 0.3936 0.4019 0.3835
3288.907 0.3473 0.3037 0.3155 0.3991 0.4145 0.4244 0.4405 0.4924 0.4807 0.4269
3308.197 0.465 0.4651 0.4144 0.4019 0.4411 0.477 0.4783 0.5494 0.5765 0.4733
3327.487 0.4322 0.5302 0.5164 0.4874 0.4827 0.4106 0.4863 0.5137 0.3813 0.3911
3346.777 0.4734 0.5439 0.5989 0.5828 0.5337 0.4407 0.4703 0.4787 0.4728 0.5312
3366.066 0.5039 0.5146 0.5011 0.5223 0.5816 0.4371 0.368 0.4867 0.5375 0.4292
3385.356 0.5118 0.5992 0.4691 0.4207 0.3762 0.3805 0.4543 0.5773 0.6281 0.5496
3404.646 0.4689 0.4559 0.5134 0.4454 0.4657 0.5835 0.5671 0.5555 0.5355 0.5294
3423.936 0.5097 0.4159 0.4474 0.6022 0.5924 0.5535 0.621 0.6253 0.6468 0.6979
3443.225 0.692 0.6573 0.6357 0.7062 0.7021 0.6334 0.6014 0.5756 0.603 0.6644
3462.515 0.6785 0.5965 0.5425 0.5544 0.5756 0.5761 0.5691 0.6115 0.6668 0.6742
3481.805 0.6468 0.6029 0.5336 0.5686 0.5378 0.5874 0.6983 0.679 0.6294 0.5942
3501.095 0.6307 0.6959 0.7018 0.6235 0.6766 0.6831 0.6573 0.6605 0.5364 0.5535
3520.385 0.7371 0.783 0.7857 0.7641 0.7834 0.7926 0.7141 0.7656 0.8158 0.8387
3539.674 0.8353 0.7576 0.7334 0.8084 0.908 0.879 0.8722 0.8872 0.8508 0.8023
3558.964 0.8034 0.9134 0.9485 1 1.05 1.07 1.06 1 1.03 1.04
3578.254 1.02 0.9681 0.9207 0.9029 0.9691 1.15 1.11 1.02 1.01 1.1
3597.544 1.32 1.47 1.47 1.44 1.59 1.75 1.86 2.07 2.22 2.4
3616.833 2.65 2.99 3.33 3.65 3.99 4.24 4.47 4.63 4.74 4.83
3636.123 4.83 4.83 5.05 5.59 6.28 6.88 7.2 7.5 7.74 7.82
3655.413 8.01 8.29 8.43 8.46 8.44 8.51 8.71 8.74 8.53 8.16
3674.703 7.94 7.68 7.34 6.96 6.48 6.13 5.74 5.26 4.64 3.97
3693.993 3.47 3.02 2.51 2.12 1.95 1.84 1.68 1.49 1.42 1.29
3713.282 1.27 1.29 1.18 1.09 1.05 1.01 1.06 1.07 0.9849 0.959
3732.572 0.9918 1.04 1 0.8932 0.8754 0.9421 1.04 1.04 0.9417 0.9862
3751.862 0.9907 0.8325 0.7195 0.7941 0.8169 0.8102 0.8777 0.8289 0.8164 0.8312
3771.152 0.8131 0.8045 0.6767 0.5733 0.6317 0.6539 0.6483 0.6339 0.6216 0.6446
3790.441 0.6076 0.5555 0.5533 0.5523 0.6069 0.6597 0.678 0.6716 0.7046 0.6924
3809.731 0.6264 0.598 0.5702 0.5209 0.5299 0.5778 0.5794 0.5666 0.5166 0.5711
3829.021 0.6575 0.6632 0.6723 0.6404 0.6328 0.6631 0.5931 0.5014 0.4333 0.453
3848.311 0.61 0.6561 0.6549 0.7169 0.6173 0.5293 0.5327 0.5252 0.5961 0.7266
3867.601 0.72 0.6518 0.56 0.4058 0.3979 0.4405 0.4618 0.4549 0.4517 0.5695
3886.890 0.652 0.5826 0.4228 0.4137 0.4365 0.4654 0.5823 0.596 0.6294 0.6839
3906.180 0.5982 0.393 0.3292 0.4446 0.4896 0.4876 0.5018 0.5303 0.5897 0.6121
3925.470 0.552 0.4791 0.542 0.5346 0.4659 0.5627 0.5985 0.4842 0.499 0.555
3944.760 0.5697 0.5877 0.5255 0.553 0.7077 0.7349 0.5637 0.5508 0.6569 0.6517
3964.049 0.6504 0.5866 0.5762 0.5649 0.4376 0.4258 0.441 0.4615 0.4591 0.5415
3983.339 0.5532 0.4043 0.3975 0.4478 0.482 0.5185 0.5557 0.4725 0.4286 0.4992
##END=
