##TITLE=Ethyl formate
##JCAMP-DX=4.24
##DATA TYPE=INFRARED SPECTRUM
##ORIGIN=NIST Mass Spectrometry Data Center
##OWNER=NIST Standard Reference Data Program
Collection (C) 2018 copyright by the U.S. Secretary of Commerce
on behalf of the United States of America. All rights reserved.
##CAS REGISTRY NO=109-94-4
##MOLFORM=C 3 H 6 O 2
##$NIST SOURCE=MSDC-IR
##SPECTROMETER/DATA SYSTEM=HP-GC/MS/IRD
##STATE=gas
##XUNITS=1/CM
##YUNITS=ABSORBANCE
##XFACTOR=1.0
##YFACTOR=0.000019800
##DELTAX=4.0
##FIRSTX=550.0
##LASTX=3846.0
##FIRSTY=0.000554
##MAXX=3846
##MINX=550
##MAXY=0.198
##MINY=0
##NPOINTS=825
##XYDATA=(X++(Y..Y))
550.0 28 11 11 3 0 3 2 3 9 8
590.0 11 14 16 15 12 15 12 8 11 16
630.0 23 20 6 6 10 9 9 9 9 5
670.0 13 19 15 14 18 19 21 26 28 35
710.0 42 50 59 60 72 84 94 105 110 112
750.0 114 119 123 121 115 109 103 103 107 107
790.0 111 122 133 152 173 190 209 235 266 293
830.0 317 330 332 325 312 303 292 271 239 207
870.0 177 149 126 105 89 76 69 62 55 48
910.0 45 49 52 48 48 47 49 52 52 57
950.0 61 68 81 93 108 131 160 195 236 284
990.0 334 376 416 441 451 462 467 460 435 392
1030.0 342 300 271 255 239 228 233 244 259 279
1070.0 308 341 380 431 489 555 624 687 754 842
1110.0 955 1092 1269 1515 1850 2288 2833 3461 4148 4890
1150.0 5729 6702 7635 8449 9269 9855 10000 9814 9465 8992
1190.0 8193 7092 5886 4600 3382 2421 1737 1278 977 772
1230.0 626 520 444 388 344 315 296 285 280 280
1270.0 283 295 310 326 345 366 383 387 388 389
1310.0 367 340 320 293 260 225 197 180 174 174
1350.0 180 189 197 211 232 260 293 326 355 378
1390.0 391 389 388 391 373 335 296 266 254 252
1430.0 254 261 270 279 290 305 313 315 319 322
1470.0 327 319 297 278 262 245 227 204 178 153
1510.0 131 114 98 88 83 77 73 69 68 65
1550.0 63 62 61 63 64 64 66 66 65 65
1590.0 67 70 76 79 82 85 89 93 98 103
1630.0 107 111 114 118 119 122 127 133 142 156
1670.0 175 198 227 273 334 417 525 665 840 1063
1710.0 1359 1762 2354 3198 4354 5758 7128 7946 8095 8085
1750.0 7667 7795 8552 7928 6142 4340 3045 2244 1717 1342
1790.0 1076 903 749 546 364 250 192 158 134 115
1830.0 100 88 79 70 62 57 52 48 45 41
1870.0 39 38 39 38 36 37 37 40 41 42
1910.0 44 43 44 46 48 49 51 53 55 58
1950.0 62 66 71 78 86 92 98 105 111 116
1990.0 121 124 126 127 128 131 132 130 129 124
2030.0 115 107 98 88 75 60 49 43 36 30
2070.0 28 27 25 22 21 21 18 16 16 19
2110.0 19 18 17 17 18 19 21 23 24 23
2150.0 24 25 27 27 28 31 33 30 28 30
2190.0 31 30 30 29 28 27 25 21 19 17
2230.0 17 17 18 20 19 18 20 23 23 24
2270.0 26 28 29 35 39 40 42 45 49 52
2310.0 55 60 63 66 70 75 77 78 77 75
2350.0 77 74 66 60 55 50 48 44 39 35
2390.0 33 29 24 22 22 19 16 14 12 11
2430.0 13 10 7 7 12 12 10 11 13 13
2470.0 15 13 11 9 12 12 9 9 10 9
2510.0 9 11 10 9 10 10 12 9 7 6
2550.0 4 4 6 7 5 5 6 6 7 6
2590.0 5 4 5 5 3 1 0 1 1 4
2630.0 5 5 4 3 4 4 5 5 8 7
2670.0 5 7 11 14 16 19 21 25 32 37
2710.0 39 42 46 48 50 51 54 55 54 51
2750.0 46 43 42 44 43 43 39 37 39 38
2790.0 38 42 45 47 51 59 62 66 71 75
2830.0 85 92 101 113 125 139 158 181 213 258
2870.0 311 379 453 528 616 721 837 968 1114 1262
2910.0 1406 1526 1619 1708 1797 1827 1806 1774 1701 1584
2950.0 1440 1305 1222 1181 1160 1160 1176 1207 1241 1253
2990.0 1249 1298 1337 1233 1096 983 867 760 654 549
3030.0 449 363 292 232 191 157 129 110 93 84
3070.0 81 73 67 65 65 63 58 65 68 70
3110.0 76 76 74 71 69 69 65 53 46 46
3150.0 42 39 38 37 36 37 38 37 36 36
3190.0 32 31 34 34 34 31 26 23 22 20
3230.0 19 17 12 11 11 8 8 10 8 3
3270.0 5 8 11 9 6 6 6 5 5 6
3310.0 4 6 10 5 2 5 9 7 9 8
3350.0 7 8 7 8 10 6 4 4 6 11
3390.0 10 8 9 11 15 16 12 15 17 20
3430.0 21 27 32 34 44 54 68 78 84 95
3470.0 104 106 106 104 108 111 99 79 59 48
3510.0 44 42 37 28 27 26 22 22 20 17
3550.0 18 16 14 16 11 8 11 8 8 5
3590.0 5 10 8 5 4 4 6 7 5 3
3630.0 2 7 9 9 10 7 5 5 4 6
3670.0 4 3 1 2 5 1 2 9 8 5
3710.0 8 14 14 8 5 7 8 6 3 6
3750.0 8 4 5 5 6 7 5 4 9 14
3790.0 11 5 6 10 12 10 8 13 11 8
3830.0 8 6 5 4 6
##END=
