##TITLE=1-Chlorobutane
##JCAMP-DX=4.24
$$ By DXEDIT 1.05 (RS McDonald)
##DATA TYPE=INFRARED SPECTRUM
##CLASS=COBLENTZ III
##ORIGIN=DOW CHEMICAL COMPANY
##OWNER=COPYRIGHT (C) 1988 by COBLENTZ SOCIETY INC.
Collection (C) 2018 copyright by the U.S. Secretary of Commerce
on behalf of the United States of America. All rights reserved.
##DATE=1961/12/13
##CAS REGISTRY NO=109-69-3
##MOLFORM=C4 H9 Cl
##SOURCE REFERENCE=COBLENTZ NO. 5640
##$NIST SOURCE=COBLENTZ
##$NIST IMAGE=cob5640
##SPECTROMETER/DATA SYSTEM=DOW KBr FOREPRISM-GRATING
$$SPECTRAL CONTAMINATIONS DUE TO CS2 AROUND 850, AND CCl4 AROUND 1550 CM^-^1 HAVE BEEN SUBTRACTED
##INSTRUMENT PARAMETERS=BLAZED AT 3.5, 12.0, 20.0 AND CHANGED AT 5.0, 7.5, 14.9 MICRON
##STATE=SOLUTION (10% CCl4 FOR 3800-1330, 10% CS2 FOR 1330-450)
##PATH LENGTH=0.0110 CM, 0.0107 CM
##SAMPLING PROCEDURE=TRANSMISSION
##RESOLUTION=2
##DATA PROCESSING=DIGITIZED BY COBLENTZ SOCIETY (BATCH I) FROM HARD COPY
##XUNITS=1/CM
##YUNITS=TRANSMITTANCE
##XFACTOR=1
##YFACTOR=1
##DELTAX=1
##FIRSTX=450
##LASTX=3800
##FIRSTY=0.833
##MAXX=3800
##MINX=450
##MAXY=0.9627
##MINY=0.0165
##NPOINTS=3351
##XYDATA=(X++(Y..Y))
450.000000 0.8330 0.8347 0.8362 0.8380 0.8396
455.000000 0.8411 0.8426 0.8433 0.8442 0.8450
460.000000 0.8458 0.8455 0.8452 0.8449 0.8444
465.000000 0.8440 0.8437 0.8434 0.8431 0.8427
470.000000 0.8443 0.8461 0.8483 0.8504 0.8554
475.000000 0.8621 0.8691 0.8757 0.8822 0.8890
480.000000 0.8937 0.8960 0.8981 0.9002 0.9022
485.000000 0.9040 0.9058 0.9074 0.9087 0.9099
490.000000 0.9111 0.9123 0.9136 0.9150 0.9166
495.000000 0.9180 0.9196 0.9212 0.9222 0.9228
500.000000 0.9232 0.9238 0.9244 0.9249 0.9254
505.000000 0.9260 0.9262 0.9266 0.9268 0.9270
510.000000 0.9273 0.9275 0.9278 0.9279 0.9281
515.000000 0.9284 0.9287 0.9292 0.9296 0.9301
520.000000 0.9305 0.9310 0.9315 0.9321 0.9325
525.000000 0.9330 0.9332 0.9333 0.9342 0.9352
530.000000 0.9362 0.9371 0.9381 0.9390 0.9390
535.000000 0.9406 0.9419 0.9416 0.9423 0.9418
540.000000 0.9419 0.9422 0.9424 0.9428 0.9429
545.000000 0.9436 0.9448 0.9458 0.9468 0.9482
550.000000 0.9500 0.9513 0.9520 0.9539 0.9547
555.000000 0.9561 0.9577 0.9583 0.9588 0.9594
560.000000 0.9599 0.9605 0.9610 0.9610 0.9623
565.000000 0.9627 0.9615 0.9612 0.9625 0.9621
570.000000 0.9614 0.9607 0.9601 0.9594 0.9585
575.000000 0.9560 0.9547 0.9539 0.9539 0.9527
580.000000 0.9514 0.9502 0.9492 0.9479 0.9470
585.000000 0.9467 0.9452 0.9441 0.9435 0.9421
590.000000 0.9408 0.9394 0.9382 0.9367 0.9352
595.000000 0.9338 0.9323 0.9309 0.9293 0.9276
600.000000 0.9255 0.9235 0.9216 0.9196 0.9174
605.000000 0.9155 0.9135 0.9121 0.9113 0.9092
610.000000 0.9075 0.9057 0.9048 0.9049 0.9058
615.000000 0.9065 0.9065 0.9074 0.9077 0.9062
620.000000 0.9041 0.9024 0.9002 0.8972 0.8955
625.000000 0.8916 0.8879 0.8845 0.8799 0.8761
630.000000 0.8712 0.8665 0.8615 0.8563 0.8509
635.000000 0.8466 0.8387 0.8303 0.8254 0.8207
640.000000 0.8154 0.8093 0.7977 0.7825 0.7580
645.000000 0.7166 0.7023 0.6073 0.5338 0.4601
650.000000 0.3858 0.3118 0.2542 0.2429 0.2371
655.000000 0.2347 0.2381 0.2577 0.3223 0.3872
660.000000 0.4510 0.5145 0.5781 0.6417 0.7056
665.000000 0.7685 0.8008 0.8185 0.8368 0.8355
670.000000 0.8293 0.8302 0.8336 0.8380 0.8415
675.000000 0.8460 0.8485 0.8494 0.8514 0.8521
680.000000 0.8551 0.8563 0.8589 0.8612 0.8616
685.000000 0.8630 0.8642 0.8654 0.8657 0.8651
690.000000 0.8656 0.8641 0.8635 0.8629 0.8621
695.000000 0.8600 0.8572 0.8550 0.8529 0.8507
700.000000 0.8486 0.8443 0.8395 0.8351 0.8290
705.000000 0.8237 0.8185 0.8108 0.8022 0.7903
710.000000 0.7630 0.7358 0.7084 0.6811 0.6535
715.000000 0.6254 0.5959 0.5830 0.5788 0.5780
720.000000 0.5769 0.5749 0.5720 0.5663 0.5548
725.000000 0.5284 0.5013 0.4745 0.4481 0.4217
730.000000 0.3953 0.3846 0.3835 0.3992 0.4233
735.000000 0.4473 0.4715 0.4954 0.5194 0.5350
740.000000 0.5327 0.5039 0.4705 0.4371 0.4037
745.000000 0.3704 0.3420 0.3425 0.3428 0.3455
750.000000 0.3748 0.4040 0.4334 0.4627 0.4913
755.000000 0.5205 0.5497 0.5789 0.6082 0.6373
760.000000 0.6668 0.6960 0.7231 0.7416 0.7572
765.000000 0.7722 0.7867 0.7994 0.8114 0.8190
770.000000 0.8237 0.8242 0.8252 0.8243 0.8239
775.000000 0.8218 0.8158 0.8057 0.7965 0.7868
780.000000 0.7766 0.7674 0.7574 0.7560 0.7612
785.000000 0.7721 0.7828 0.7934 0.8043 0.8149
790.000000 0.8256 0.8375 0.8415 0.8450 0.8454
795.000000 0.8467 0.8455 0.8431 0.8407 0.8369
800.000000 0.8370 0.8371 0.8442 0.8510 0.8579
805.000000 0.8633 0.8670 0.8696 0.8722 0.8740
810.000000 0.8739 0.8741 0.8735 0.8731 0.8766
815.000000 0.8797 0.8825 0.8836 0.8852 0.8870
820.000000 0.8877 0.8880 0.8904 0.8889 0.8886
825.000000 0.8881 0.8880 0.8878 0.8877 0.8882
830.000000 0.8875 0.8861 0.8856 0.8848 0.8847
835.000000 0.8840 0.8840 0.8850 0.8850 0.8874
840.000000 0.8872 0.8882 0.8909 0.8889 0.8856
845.000000 0.8834 0.8799 0.8775 0.8743 0.8700
850.000000 0.8684 0.8649 0.8612 0.8577 0.8532
855.000000 0.8476 0.8391 0.8295 0.8198 0.8148
860.000000 0.8100 0.8045 0.7996 0.7952 0.7889
865.000000 0.7818 0.7756 0.7675 0.7561 0.7318
870.000000 0.6996 0.6676 0.6359 0.6234 0.6209
875.000000 0.6175 0.6357 0.6589 0.6823 0.7052
880.000000 0.7281 0.7502 0.7721 0.7945 0.8162
885.000000 0.8253 0.8316 0.8366 0.8435 0.8511
890.000000 0.8593 0.8649 0.8677 0.8706 0.8726
895.000000 0.8727 0.8743 0.8742 0.8743 0.8745
900.000000 0.8756 0.8764 0.8781 0.8790 0.8806
905.000000 0.8815 0.8818 0.8829 0.8847 0.8830
910.000000 0.8827 0.8818 0.8800 0.8785 0.8774
915.000000 0.8730 0.8684 0.8628 0.8563 0.8471
920.000000 0.8375 0.8303 0.8240 0.8177 0.8099
925.000000 0.8015 0.7894 0.7735 0.7573 0.7412
930.000000 0.7353 0.7342 0.7459 0.7584 0.7711
935.000000 0.7837 0.7964 0.8090 0.8217 0.8338
940.000000 0.8438 0.8511 0.8564 0.8568 0.8572
945.000000 0.8576 0.8579 0.8581 0.8584 0.8586
950.000000 0.8590 0.8597 0.8604 0.8613 0.8620
955.000000 0.8631 0.8646 0.8657 0.8656 0.8656
960.000000 0.8653 0.8638 0.8623 0.8602 0.8572
965.000000 0.8543 0.8503 0.8450 0.8382 0.8303
970.000000 0.8196 0.8133 0.8157 0.8239 0.8316
975.000000 0.8394 0.8463 0.8509 0.8556 0.8588
980.000000 0.8587 0.8588 0.8600 0.8539 0.8514
985.000000 0.8487 0.8454 0.8413 0.8365 0.8318
990.000000 0.8252 0.8187 0.8106 0.7952 0.7806
995.000000 0.7659 0.7513 0.7379 0.7390 0.7426
1000.000000 0.7388 0.7650 0.7763 0.7874 0.7987
1005.000000 0.8113 0.8225 0.8338 0.8352 0.8364
1010.000000 0.8311 0.8245 0.8181 0.8115 0.8049
1015.000000 0.8018 0.8112 0.8221 0.8329 0.8436
1020.000000 0.8511 0.8490 0.8482 0.8473 0.8455
1025.000000 0.8436 0.8425 0.8407 0.8418 0.8445
1030.000000 0.8466 0.8492 0.8484 0.8468 0.8451
1035.000000 0.8432 0.8414 0.8390 0.8352 0.8312
1040.000000 0.8264 0.8207 0.8153 0.8099 0.8045
1045.000000 0.7936 0.7817 0.7696 0.7578 0.7518
1050.000000 0.7462 0.7539 0.7575 0.7636 0.7699
1055.000000 0.7753 0.7780 0.7816 0.7842 0.7864
1060.000000 0.7916 0.7956 0.7988 0.8012 0.8047
1065.000000 0.8077 0.8106 0.8134 0.8162 0.8186
1070.000000 0.8205 0.8225 0.8240 0.8240 0.8242
1075.000000 0.8245 0.8249 0.8262 0.8274 0.8305
1080.000000 0.8330 0.8359 0.8405 0.8441 0.8476
1085.000000 0.8511 0.8550 0.8589 0.8628 0.8665
1090.000000 0.8705 0.8744 0.8766 0.8786 0.8784
1095.000000 0.8786 0.8772 0.8756 0.8707 0.8629
1100.000000 0.8551 0.8475 0.8403 0.8351 0.8322
1105.000000 0.8319 0.8334 0.8422 0.8497 0.8585
1110.000000 0.8670 0.8751 0.8831 0.8913 0.8993
1115.000000 0.9050 0.9090 0.9121 0.9153 0.9182
1120.000000 0.9209 0.9238 0.9255 0.9266 0.9285
1125.000000 0.9314 0.9298 0.9300 0.9297 0.9294
1130.000000 0.9285 0.9272 0.9258 0.9248 0.9248
1135.000000 0.9241 0.9222 0.9214 0.9196 0.9177
1140.000000 0.9157 0.9152 0.9152 0.9140 0.9159
1145.000000 0.9163 0.9165 0.9166 0.9170 0.9182
1150.000000 0.9175 0.9164 0.9164 0.9147 0.9132
1155.000000 0.9114 0.9098 0.9111 0.9126 0.9141
1160.000000 0.9154 0.9156 0.9159 0.9161 0.9165
1165.000000 0.9160 0.9146 0.9120 0.9077 0.9050
1170.000000 0.9024 0.8993 0.8961 0.8929 0.8897
1175.000000 0.8871 0.8844 0.8819 0.8798 0.8780
1180.000000 0.8767 0.8752 0.8756 0.8764 0.8765
1185.000000 0.8761 0.8756 0.8750 0.8741 0.8729
1190.000000 0.8717 0.8701 0.8682 0.8665 0.8631
1195.000000 0.8623 0.8616 0.8611 0.8625 0.8648
1200.000000 0.8662 0.8674 0.8699 0.8723 0.8745
1205.000000 0.8767 0.8791 0.8805 0.8817 0.8828
1210.000000 0.8835 0.8838 0.8833 0.8819 0.8808
1215.000000 0.8795 0.8782 0.8769 0.8756 0.8733
1220.000000 0.8709 0.8685 0.8650 0.8614 0.8576
1225.000000 0.8541 0.8497 0.8423 0.8348 0.8272
1230.000000 0.8185 0.8098 0.7991 0.7839 0.7710
1235.000000 0.7601 0.7500 0.7405 0.7235 0.6898
1240.000000 0.6561 0.6232 0.6160 0.6148 0.6476
1245.000000 0.6803 0.7122 0.7441 0.7759 0.8077
1250.000000 0.8176 0.8237 0.8264 0.8273 0.8309
1255.000000 0.8289 0.8284 0.8279 0.8273 0.8261
1260.000000 0.8247 0.8233 0.8214 0.8191 0.8161
1265.000000 0.8128 0.8088 0.8022 0.7956 0.7884
1270.000000 0.7810 0.7729 0.7652 0.7524 0.7180
1275.000000 0.6556 0.6198 0.5830 0.5472 0.5116
1280.000000 0.4758 0.4401 0.4043 0.3686 0.3472
1285.000000 0.3467 0.3466 0.3477 0.3800 0.4123
1290.000000 0.4418 0.4527 0.4602 0.4671 0.4741
1295.000000 0.4831 0.4947 0.5111 0.5293 0.5473
1300.000000 0.5654 0.5787 0.5833 0.5777 0.5646
1305.000000 0.5512 0.5370 0.5226 0.5083 0.4941
1310.000000 0.4798 0.4654 0.4632 0.4696 0.4828
1315.000000 0.4959 0.5091 0.5218 0.5345 0.5466
1320.000000 0.5555 0.5645 0.5853 0.6746 0.7156
1325.000000 0.7491 0.7591 0.7651 0.7772 0.7739
1330.000000 0.7762 0.7768 0.7749 0.7727 0.7703
1335.000000 0.7678 0.7641 0.7597 0.7552 0.7504
1340.000000 0.7464 0.7443 0.7444 0.7442 0.7403
1345.000000 0.7349 0.7354 0.7374 0.7466 0.7568
1350.000000 0.7669 0.7768 0.7774 0.7798 0.7736
1355.000000 0.7658 0.7606 0.7569 0.7584 0.7686
1360.000000 0.7578 0.8054 0.8123 0.8151 0.8144
1365.000000 0.8130 0.8141 0.8134 0.8111 0.8080
1370.000000 0.8022 0.7951 0.7876 0.7777 0.7664
1375.000000 0.7536 0.7301 0.6921 0.6538 0.6157
1380.000000 0.5781 0.5408 0.5327 0.5415 0.5862
1385.000000 0.6292 0.6700 0.7104 0.7459 0.7594
1390.000000 0.7683 0.7739 0.7805 0.7866 0.7921
1395.000000 0.7974 0.8024 0.8058 0.8086 0.8110
1400.000000 0.8123 0.8136 0.8137 0.8138 0.8152
1405.000000 0.8150 0.8146 0.8137 0.8125 0.8116
1410.000000 0.8103 0.8090 0.8077 0.8061 0.8045
1415.000000 0.8027 0.8010 0.7993 0.7962 0.7928
1420.000000 0.7894 0.7859 0.7808 0.7745 0.7688
1425.000000 0.7631 0.7566 0.7455 0.7321 0.7103
1430.000000 0.6749 0.6253 0.5753 0.5311 0.5302
1435.000000 0.5452 0.5737 0.6020 0.6078 0.6073
1440.000000 0.5576 0.5180 0.4776 0.4371 0.3966
1445.000000 0.3563 0.3426 0.3432 0.3741 0.4220
1450.000000 0.4452 0.4444 0.4399 0.4146 0.3894
1455.000000 0.3645 0.3394 0.3142 0.2889 0.2815
1460.000000 0.2826 0.2874 0.2919 0.2970 0.2979
1465.000000 0.2992 0.2665 0.2524 0.2521 0.2526
1470.000000 0.2537 0.3338 0.4012 0.4684 0.5358
1475.000000 0.5610 0.5811 0.6033 0.6198 0.6378
1480.000000 0.6736 0.7043 0.7143 0.7235 0.7312
1485.000000 0.7401 0.7473 0.7534 0.7601 0.7640
1490.000000 0.7671 0.7703 0.7734 0.7779 0.7774
1495.000000 0.7800 0.7815 0.7832 0.7847 0.7869
1500.000000 0.7877 0.7879 0.7879 0.7886 0.7890
1505.000000 0.7890 0.7897 0.7906 0.7913 0.7921
1510.000000 0.7922 0.7929 0.7945 0.7955 0.7969
1515.000000 0.7975 0.7980 0.7979 0.7975 0.7983
1520.000000 0.7972 0.7960 0.7962 0.7952 0.7952
1525.000000 0.7933 0.7923 0.7916 0.7921 0.7926
1530.000000 0.7938 0.7963 0.7998 0.7992 0.7969
1535.000000 0.7966 0.7936 0.7890 0.7873 0.7767
1540.000000 0.7654 0.7546 0.7509 0.7478 0.7432
1545.000000 0.7410 0.7400 0.7364 0.7399 0.7428
1550.000000 0.7391 0.7401 0.7356 0.7304 0.7266
1555.000000 0.7217 0.7184 0.7182 0.7166 0.7181
1560.000000 0.7233 0.7296 0.7405 0.7477 0.7550
1565.000000 0.7620 0.7637 0.7669 0.7695 0.7738
1570.000000 0.7775 0.7819 0.7828 0.7864 0.7874
1575.000000 0.7867 0.7874 0.7897 0.7906 0.7931
1580.000000 0.7937 0.7948 0.7949 0.7960 0.7933
1585.000000 0.7915 0.7903 0.7882 0.7864 0.7839
1590.000000 0.7800 0.7780 0.7749 0.7745 0.7801
1595.000000 0.7876 0.7990 0.8086 0.8166 0.8169
1600.000000 0.8181 0.8180 0.8228 0.8240 0.8270
1605.000000 0.8274 0.8320 0.8340 0.8385 0.8402
1610.000000 0.8407 0.8426 0.8428 0.8437 0.8506
1615.000000 0.8556 0.8554 0.8554 0.8566 0.8574
1620.000000 0.8582 0.8604 0.8617 0.8615 0.8625
1625.000000 0.8628 0.8656 0.8680 0.8690 0.8712
1630.000000 0.8721 0.8743 0.8764 0.8796 0.8821
1635.000000 0.8857 0.8889 0.8911 0.8940 0.8965
1640.000000 0.8999 0.9019 0.9025 0.9070 0.9035
1645.000000 0.9031 0.9020 0.9004 0.8991 0.8979
1650.000000 0.8966 0.8953 0.8931 0.8929 0.8919
1655.000000 0.8907 0.8895 0.8885 0.8861 0.8852
1660.000000 0.8852 0.8832 0.8824 0.8817 0.8809
1665.000000 0.8799 0.8796 0.8795 0.8793 0.8791
1670.000000 0.8789 0.8787 0.8785 0.8775 0.8767
1675.000000 0.8765 0.8762 0.8761 0.8758 0.8756
1680.000000 0.8755 0.8753 0.8753 0.8753 0.8753
1685.000000 0.8753 0.8752 0.8752 0.8753 0.8752
1690.000000 0.8753 0.8753 0.8752 0.8753 0.8753
1695.000000 0.8754 0.8754 0.8754 0.8754 0.8755
1700.000000 0.8756 0.8757 0.8758 0.8760 0.8761
1705.000000 0.8761 0.8763 0.8764 0.8765 0.8766
1710.000000 0.8767 0.8768 0.8770 0.8773 0.8775
1715.000000 0.8776 0.8780 0.8782 0.8784 0.8785
1720.000000 0.8788 0.8789 0.8787 0.8785 0.8786
1725.000000 0.8784 0.8784 0.8781 0.8775 0.8770
1730.000000 0.8764 0.8758 0.8752 0.8746 0.8740
1735.000000 0.8737 0.8733 0.8731 0.8728 0.8728
1740.000000 0.8729 0.8733 0.8738 0.8741 0.8747
1745.000000 0.8751 0.8755 0.8760 0.8764 0.8769
1750.000000 0.8775 0.8778 0.8781 0.8784 0.8787
1755.000000 0.8790 0.8793 0.8799 0.8802 0.8795
1760.000000 0.8796 0.8798 0.8801 0.8803 0.8804
1765.000000 0.8807 0.8810 0.8811 0.8814 0.8816
1770.000000 0.8817 0.8817 0.8816 0.8816 0.8815
1775.000000 0.8815 0.8819 0.8826 0.8826 0.8825
1780.000000 0.8824 0.8823 0.8821 0.8821 0.8820
1785.000000 0.8818 0.8817 0.8813 0.8813 0.8810
1790.000000 0.8807 0.8805 0.8803 0.8802 0.8799
1795.000000 0.8796 0.8794 0.8792 0.8790 0.8789
1800.000000 0.8787 0.8786 0.8784 0.8782 0.8787
1805.000000 0.8792 0.8791 0.8789 0.8786 0.8794
1810.000000 0.8796 0.8794 0.8793 0.8790 0.8790
1815.000000 0.8788 0.8787 0.8787 0.8787 0.8787
1820.000000 0.8773 0.8772 0.8773 0.8772 0.8772
1825.000000 0.8771 0.8771 0.8771 0.8770 0.8770
1830.000000 0.8770 0.8769 0.8769 0.8769 0.8768
1835.000000 0.8768 0.8776 0.8781 0.8781 0.8780
1840.000000 0.8779 0.8780 0.8779 0.8778 0.8778
1845.000000 0.8778 0.8777 0.8778 0.8777 0.8777
1850.000000 0.8777 0.8776 0.8776 0.8776 0.8775
1855.000000 0.8776 0.8780 0.8782 0.8775 0.8776
1860.000000 0.8777 0.8778 0.8779 0.8781 0.8781
1865.000000 0.8784 0.8786 0.8788 0.8790 0.8792
1870.000000 0.8793 0.8796 0.8797 0.8799 0.8801
1875.000000 0.8802 0.8792 0.8795 0.8797 0.8799
1880.000000 0.8801 0.8804 0.8805 0.8807 0.8805
1885.000000 0.8797 0.8801 0.8803 0.8804 0.8808
1890.000000 0.8810 0.8820 0.8827 0.8828 0.8830
1895.000000 0.8831 0.8833 0.8834 0.8835 0.8837
1900.000000 0.8839 0.8840 0.8842 0.8843 0.8846
1905.000000 0.8847 0.8848 0.8847 0.8838 0.8840
1910.000000 0.8841 0.8842 0.8844 0.8845 0.8847
1915.000000 0.8847 0.8848 0.8850 0.8851 0.8851
1920.000000 0.8853 0.8854 0.8855 0.8856 0.8857
1925.000000 0.8858 0.8858 0.8862 0.8863 0.8863
1930.000000 0.8864 0.8866 0.8866 0.8867 0.8865
1935.000000 0.8866 0.8866 0.8866 0.8866 0.8866
1940.000000 0.8867 0.8865 0.8865 0.8866 0.8866
1945.000000 0.8867 0.8867 0.8867 0.8867 0.8867
1950.000000 0.8877 0.8881 0.8881 0.8882 0.8882
1955.000000 0.8895 0.8896 0.8912 0.8928 0.8944
1960.000000 0.8967 0.9032 0.9092 0.9090 0.9082
1965.000000 0.9035 0.8987 0.8927 0.8879 0.8842
1970.000000 0.8834 0.8826 0.8817 0.8814 0.8813
1975.000000 0.8810 0.8809 0.8807 0.8805 0.8815
1980.000000 0.8815 0.8814 0.8813 0.8813 0.8811
1985.000000 0.8807 0.8806 0.8818 0.8818 0.8838
1990.000000 0.8854 0.8871 0.8890 0.8907 0.8926
1995.000000 0.8942 0.8954 0.8953 0.8958 0.8962
2000.000000 0.8961 0.8959 0.8958 0.8957 0.8957
2005.000000 0.8956 0.8957 0.8958 0.8959 0.8959
2010.000000 0.8960 0.8960 0.8961 0.8961 0.8961
2015.000000 0.8962 0.8962 0.8962 0.8963 0.8962
2020.000000 0.8963 0.8963 0.8963 0.8963 0.8963
2025.000000 0.8956 0.8951 0.8959 0.8956 0.8955
2030.000000 0.8960 0.8964 0.8968 0.8972 0.8977
2035.000000 0.8976 0.8977 0.8976 0.8977 0.8977
2040.000000 0.8977 0.8977 0.8977 0.8976 0.8973
2045.000000 0.8969 0.8966 0.8962 0.8957 0.8961
2050.000000 0.8964 0.8954 0.8953 0.8956 0.8955
2055.000000 0.8952 0.8951 0.8939 0.8934 0.8933
2060.000000 0.8930 0.8928 0.8928 0.8929 0.8935
2065.000000 0.8939 0.8943 0.8948 0.8952 0.8958
2070.000000 0.8962 0.8966 0.8971 0.8976 0.8983
2075.000000 0.8987 0.8992 0.8997 0.9002 0.9002
2080.000000 0.9000 0.8999 0.8999 0.8998 0.8998
2085.000000 0.8998 0.8997 0.8995 0.8993 0.8991
2090.000000 0.8990 0.8988 0.8987 0.8983 0.8970
2095.000000 0.8980 0.8976 0.8963 0.8965 0.8974
2100.000000 0.8975 0.8975 0.8977 0.8979 0.8979
2105.000000 0.8983 0.8984 0.8984 0.8986 0.8987
2110.000000 0.8989 0.8990 0.8991 0.8993 0.8994
2115.000000 0.8995 0.8997 0.8998 0.9001 0.9002
2120.000000 0.9003 0.9004 0.8996 0.9010 0.9011
2125.000000 0.9012 0.9014 0.9015 0.9018 0.9019
2130.000000 0.9020 0.9021 0.9022 0.9023 0.9025
2135.000000 0.9025 0.9027 0.9028 0.9029 0.9032
2140.000000 0.9033 0.9034 0.9035 0.9036 0.9037
2145.000000 0.9037 0.9037 0.9036 0.9035 0.9034
2150.000000 0.9033 0.9032 0.9031 0.9029 0.9029
2155.000000 0.9028 0.9027 0.9027 0.9026 0.9025
2160.000000 0.9024 0.9023 0.9023 0.9021 0.9020
2165.000000 0.9020 0.9019 0.9018 0.9017 0.9027
2170.000000 0.9029 0.9027 0.9027 0.9025 0.9024
2175.000000 0.9021 0.9021 0.9021 0.9017 0.9005
2180.000000 0.9005 0.9003 0.9002 0.9006 0.9007
2185.000000 0.8999 0.8998 0.8996 0.8996 0.8994
2190.000000 0.8994 0.8991 0.8990 0.8999 0.9001
2195.000000 0.8989 0.8998 0.8997 0.8997 0.8995
2200.000000 0.8994 0.8993 0.8992 0.8991 0.8989
2205.000000 0.8987 0.8987 0.8985 0.8985 0.8983
2210.000000 0.8981 0.8980 0.8980 0.8978 0.8977
2215.000000 0.8976 0.8975 0.8975 0.8974 0.8973
2220.000000 0.8972 0.8971 0.8981 0.8982 0.8982
2225.000000 0.8980 0.8980 0.8978 0.8977 0.8977
2230.000000 0.8976 0.8973 0.8973 0.8970 0.8969
2235.000000 0.8971 0.8978 0.8977 0.8975 0.8973
2240.000000 0.8971 0.8969 0.8966 0.8964 0.8963
2245.000000 0.8969 0.8972 0.8969 0.8965 0.8961
2250.000000 0.8958 0.8966 0.8965 0.8961 0.8958
2255.000000 0.8968 0.8964 0.8959 0.8959 0.8965
2260.000000 0.8964 0.8963 0.8971 0.8966 0.8963
2265.000000 0.8967 0.8971 0.8967 0.8965 0.8968
2270.000000 0.8971 0.8967 0.8973 0.8973 0.8967
2275.000000 0.8962 0.8968 0.8965 0.8960 0.8967
2280.000000 0.8963 0.8961 0.8957 0.8956 0.8966
2285.000000 0.8963 0.8961 0.8958 0.8959 0.8965
2290.000000 0.8963 0.8961 0.8958 0.8956 0.8954
2295.000000 0.8951 0.8951 0.8949 0.8947 0.8937
2300.000000 0.8932 0.8931 0.8930 0.8928 0.8926
2305.000000 0.8923 0.8924 0.8922 0.8920 0.8918
2310.000000 0.8918 0.8917 0.8915 0.8912 0.8912
2315.000000 0.8910 0.8909 0.8909 0.8908 0.8908
2320.000000 0.8907 0.8905 0.8905 0.8904 0.8904
2325.000000 0.8894 0.8889 0.8879 0.8874 0.8873
2330.000000 0.8873 0.8861 0.8859 0.8858 0.8857
2335.000000 0.8844 0.8844 0.8856 0.8855 0.8844
2340.000000 0.8856 0.8855 0.8855 0.8854 0.8858
2345.000000 0.8867 0.8867 0.8860 0.8846 0.8839
2350.000000 0.8842 0.8850 0.8855 0.8856 0.8857
2355.000000 0.8858 0.8849 0.8836 0.8834 0.8823
2360.000000 0.8824 0.8813 0.8815 0.8819 0.8822
2365.000000 0.8825 0.8830 0.8833 0.8837 0.8843
2370.000000 0.8856 0.8860 0.8865 0.8869 0.8870
2375.000000 0.8869 0.8877 0.8876 0.8878 0.8876
2380.000000 0.8879 0.8886 0.8883 0.8885 0.8892
2385.000000 0.8888 0.8893 0.8898 0.8904 0.8911
2390.000000 0.8903 0.8910 0.8917 0.8923 0.8930
2395.000000 0.8935 0.8939 0.8943 0.8947 0.8952
2400.000000 0.8957 0.8960 0.8965 0.8967 0.8971
2405.000000 0.8972 0.8974 0.8968 0.8974 0.8971
2410.000000 0.8970 0.8971 0.8974 0.8975 0.8977
2415.000000 0.8979 0.8980 0.8982 0.8983 0.8983
2420.000000 0.8984 0.8984 0.8986 0.8986 0.8986
2425.000000 0.8987 0.8988 0.8990 0.8990 0.8990
2430.000000 0.8992 0.8992 0.8992 0.8993 0.8994
2435.000000 0.8995 0.8995 0.8995 0.8997 0.8997
2440.000000 0.8998 0.8998 0.8998 0.8999 0.8999
2445.000000 0.8999 0.9000 0.9000 0.9001 0.8998
2450.000000 0.8992 0.9003 0.9003 0.9000 0.8991
2455.000000 0.8991 0.8998 0.8999 0.9000 0.9006
2460.000000 0.9006 0.9007 0.9008 0.9008 0.9009
