##TITLE=2-BUTYNE-1,4-DIOL
##JCAMP-DX=4.24
$$ By DXEDIT 1.05 (RS McDonald)
##DATA TYPE=INFRARED SPECTRUM
##CLASS=COBLENTZ III
##ORIGIN=DOW CHEMICAL COMPANY
##OWNER=COBLENTZ SOC.
Collection (C) 2018 copyright by the U.S. Secretary of Commerce
on behalf of the United States of America. All rights reserved.
##DATE=1960/04/25
##CAS REGISTRY NO=110-65-6
##MOLFORM=C4 H6 O2
##SOURCE REFERENCE=COBLENTZ NO. 05650
##$NIST SOURCE=COBLENTZ
##$NIST IMAGE=cob5650
##SPECTROMETER/DATA SYSTEM=DOW KBr FOREPRISM-GRATING
##INSTRUMENT PARAMETERS=BLAZED AT 3.5, 12.0, 20.0 AND CHANGED AT 5.0, 7.5, 14.9 MICRON
##STATE=SOLID (SPLIT MULL)
##SAMPLING PROCEDURE=TRANSMISSION
##RESOLUTION=2
##DATA PROCESSING=DIGITIZED BY COBLENTZ SOCIETY (BATCH I) FROM HARD COPY
##XUNITS=1/CM
##YUNITS=TRANSMITTANCE
##XLABEL=Wavenumbers (cm-1)
##YLABEL=% Transmission
##XFACTOR=1
##YFACTOR=1
##DELTAX=1
##FIRSTX=3814
##LASTX=421
##FIRSTY=0.7058
##MAXX=3814
##MINX=421
##MAXY=0.845
##MINY=0.03
##NPOINTS=3394
##XYDATA=(X++(Y..Y))
3814.000000 0.7058 0.7061 0.7064 0.7067 0.7071
3809.000000 0.7074 0.7076 0.7080 0.7084 0.7087
3804.000000 0.7091 0.7094 0.7098 0.7101 0.7104
3799.000000 0.7107 0.7111 0.7114 0.7118 0.7121
3794.000000 0.7125 0.7128 0.7131 0.7135 0.7139
3789.000000 0.7142 0.7146 0.7150 0.7154 0.7158
3784.000000 0.7161 0.7165 0.7169 0.7172 0.7176
3779.000000 0.7181 0.7185 0.7189 0.7193 0.7197
3774.000000 0.7201 0.7204 0.7208 0.7211 0.7215
3769.000000 0.7219 0.7224 0.7225 0.7228 0.7232
3764.000000 0.7235 0.7237 0.7240 0.7243 0.7246
3759.000000 0.7248 0.7251 0.7254 0.7257 0.7258
3754.000000 0.7261 0.7265 0.7268 0.7269 0.7272
3749.000000 0.7275 0.7278 0.7281 0.7284 0.7287
3744.000000 0.7290 0.7293 0.7296 0.7298 0.7301
3739.000000 0.7304 0.7307 0.7308 0.7311 0.7315
3734.000000 0.7318 0.7319 0.7322 0.7325 0.7328
3729.000000 0.7331 0.7334 0.7336 0.7339 0.7341
3724.000000 0.7344 0.7346 0.7349 0.7351 0.7355
3719.000000 0.7357 0.7360 0.7361 0.7365 0.7367
3714.000000 0.7369 0.7371 0.7375 0.7376 0.7380
3709.000000 0.7382 0.7385 0.7387 0.7390 0.7392
3704.000000 0.7395 0.7397 0.7400 0.7403 0.7406
3699.000000 0.7408 0.7411 0.7412 0.7415 0.7418
3694.000000 0.7421 0.7422 0.7425 0.7428 0.7432
3689.000000 0.7435 0.7438 0.7441 0.7444 0.7447
3684.000000 0.7450 0.7451 0.7455 0.7458 0.7461
3679.000000 0.7464 0.7467 0.7469 0.7472 0.7475
3674.000000 0.7478 0.7481 0.7484 0.7487 0.7490
3669.000000 0.7493 0.7496 0.7499 0.7501 0.7505
3664.000000 0.7508 0.7510 0.7512 0.7515 0.7518
3659.000000 0.7521 0.7525 0.7526 0.7530 0.7533
3654.000000 0.7536 0.7538 0.7541 0.7544 0.7547
3649.000000 0.7549 0.7551 0.7555 0.7558 0.7560
3644.000000 0.7562 0.7565 0.7568 0.7571 0.7574
3639.000000 0.7576 0.7580 0.7582 0.7585 0.7588
3634.000000 0.7591 0.7593 0.7596 0.7599 0.7601
3629.000000 0.7604 0.7607 0.7608 0.7611 0.7615
3624.000000 0.7618 0.7619 0.7622 0.7625 0.7628
3619.000000 0.7631 0.7634 0.7637 0.7640 0.7642
3614.000000 0.7645 0.7647 0.7650 0.7651 0.7654
3609.000000 0.7656 0.7658 0.7658 0.7661 0.7662
3604.000000 0.7665 0.7665 0.7668 0.7668 0.7671
3599.000000 0.7672 0.7675 0.7675 0.7678 0.7678
3594.000000 0.7681 0.7683 0.7685 0.7686 0.7688
3589.000000 0.7690 0.7692 0.7693 0.7694 0.7695
3584.000000 0.7696 0.7697 0.7698 0.7699 0.7700
3579.000000 0.7701 0.7701 0.7703 0.7705 0.7706
3574.000000 0.7707 0.7707 0.7708 0.7708 0.7708
3569.000000 0.7710 0.7711 0.7711 0.7711 0.7711
3564.000000 0.7711 0.7711 0.7711 0.7708 0.7707
3559.000000 0.7705 0.7703 0.7700 0.7698 0.7696
3554.000000 0.7694 0.7691 0.7689 0.7686 0.7684
3549.000000 0.7681 0.7678 0.7675 0.7674 0.7671
3544.000000 0.7668 0.7665 0.7664 0.7660 0.7657
3539.000000 0.7653 0.7650 0.7646 0.7658 0.7639
3534.000000 0.7636 0.7632 0.7628 0.7624 0.7618
3529.000000 0.7614 0.7608 0.7604 0.7600 0.7595
3524.000000 0.7590 0.7584 0.7578 0.7571 0.7564
3519.000000 0.7557 0.7550 0.7543 0.7536 0.7528
3514.000000 0.7521 0.7515 0.7508 0.7500 0.7493
3509.000000 0.7478 0.7462 0.7448 0.7434 0.7419
3504.000000 0.7406 0.7392 0.7378 0.7361 0.7347
3499.000000 0.7331 0.7315 0.7300 0.7285 0.7269
3494.000000 0.7255 0.7240 0.7225 0.7211 0.7196
3489.000000 0.7181 0.7167 0.7151 0.7137 0.7114
3484.000000 0.7092 0.7065 0.7041 0.7015 0.6990
3479.000000 0.6965 0.6942 0.6918 0.6897 0.6874
3474.000000 0.6851 0.6828 0.6807 0.6784 0.6761
3469.000000 0.6739 0.6715 0.6693 0.6671 0.6648
3464.000000 0.6625 0.6603 0.6580 0.6557 0.6535
3459.000000 0.6511 0.6489 0.6465 0.6443 0.6418
3454.000000 0.6396 0.6372 0.6349 0.6328 0.6308
3449.000000 0.6291 0.6274 0.6256 0.6239 0.6222
3444.000000 0.6205 0.6187 0.6170 0.6140 0.6110
3439.000000 0.6080 0.6050 0.6020 0.5990 0.5966
3434.000000 0.5942 0.5921 0.5900 0.5879 0.5859
3429.000000 0.5838 0.5818 0.5797 0.5777 0.5756
3424.000000 0.5736 0.5673 0.5610 0.5573 0.5536
3419.000000 0.5499 0.5462 0.5426 0.5389 0.5353
3414.000000 0.5317 0.5287 0.5258 0.5228 0.5199
3409.000000 0.5169 0.5140 0.5110 0.5081 0.5051
3404.000000 0.5022 0.4993 0.4964 0.4934 0.4904
3399.000000 0.4870 0.4837 0.4803 0.4770 0.4736
3394.000000 0.4703 0.4669 0.4636 0.4602 0.4569
3389.000000 0.4536 0.4503 0.4470 0.4437 0.4404
3384.000000 0.4372 0.4339 0.4306 0.4273 0.4241
3379.000000 0.4208 0.4175 0.4143 0.4110 0.4079
3374.000000 0.4048 0.4016 0.3984 0.3952 0.3920
3369.000000 0.3888 0.3857 0.3825 0.3793 0.3760
3364.000000 0.3730 0.3693 0.3657 0.3616 0.3575
3359.000000 0.3534 0.3493 0.3452 0.3410 0.3368
3354.000000 0.3328 0.3287 0.3246 0.3204 0.3163
3349.000000 0.3122 0.3081 0.3041 0.3001 0.2962
3344.000000 0.2923 0.2883 0.2844 0.2805 0.2766
3339.000000 0.2718 0.2670 0.2612 0.2555 0.2498
3334.000000 0.2441 0.2401 0.2361 0.2324 0.2287
3329.000000 0.2249 0.2212 0.2172 0.2132 0.2091
3324.000000 0.2050 0.2009 0.1968 0.1929 0.1892
3319.000000 0.1854 0.1817 0.1779 0.1743 0.1715
3314.000000 0.1687 0.1664 0.1640 0.1616 0.1592
3309.000000 0.1568 0.1545 0.1521 0.1496 0.1467
3304.000000 0.1438 0.1407 0.1376 0.1346 0.1319
3299.000000 0.1291 0.1264 0.1237 0.1210 0.1192
3294.000000 0.1175 0.1157 0.1139 0.1121 0.1104
3289.000000 0.1086 0.1068 0.1054 0.1041 0.1028
3284.000000 0.1016 0.1003 0.0991 0.0978 0.0966
3279.000000 0.0953 0.0939 0.0926 0.0915 0.0902
3274.000000 0.0889 0.0876 0.0865 0.0853 0.0841
3269.000000 0.0830 0.0820 0.0812 0.0804 0.0796
3264.000000 0.0788 0.0779 0.0771 0.0763 0.0755
3259.000000 0.0747 0.0739 0.0731 0.0723 0.0714
3254.000000 0.0706 0.0698 0.0690 0.0683 0.0676
3249.000000 0.0669 0.0662 0.0655 0.0649 0.0642
3244.000000 0.0635 0.0628 0.0621 0.0614 0.0607
3239.000000 0.0602 0.0598 0.0593 0.0589 0.0584
3234.000000 0.0580 0.0575 0.0571 0.0566 0.0562
3229.000000 0.0557 0.0553 0.0548 0.0544 0.0539
3224.000000 0.0535 0.0530 0.0526 0.0522 0.0518
3219.000000 0.0514 0.0510 0.0505 0.0501 0.0497
3214.000000 0.0493 0.0489 0.0485 0.0480 0.0475
3209.000000 0.0471 0.0467 0.0464 0.0460 0.0455
3204.000000 0.0451 0.0447 0.0443 0.0439 0.0435
3199.000000 0.0430 0.0425 0.0421 0.0417 0.0414
3194.000000 0.0410 0.0407 0.0404 0.0400 0.0397
3189.000000 0.0394 0.0391 0.0387 0.0384 0.0380
3184.000000 0.0377 0.0374 0.0371 0.0366 0.0364
3179.000000 0.0361 0.0358 0.0354 0.0351 0.0347
3174.000000 0.0344 0.0342 0.0341 0.0339 0.0338
3169.000000 0.0336 0.0335 0.0334 0.0333 0.0331
3164.000000 0.0330 0.0328 0.0327 0.0325 0.0324
3159.000000 0.0322 0.0344 0.0317 0.0316 0.0315
3154.000000 0.0313 0.0311 0.0310 0.0308 0.0307
3149.000000 0.0305 0.0303 0.0301 0.0300 0.0300
3144.000000 0.0301 0.0301 0.0301 0.0301 0.0302
3139.000000 0.0302 0.0303 0.0303 0.0303 0.0303
3134.000000 0.0304 0.0305 0.0306 0.0307 0.0308
3129.000000 0.0309 0.0310 0.0311 0.0312 0.0313
3124.000000 0.0314 0.0316 0.0317 0.0320 0.0322
3119.000000 0.0324 0.0327 0.0329 0.0331 0.0333
3114.000000 0.0335 0.0339 0.0344 0.0349 0.0354
3109.000000 0.0359 0.0364 0.0368 0.0374 0.0381
3104.000000 0.0388 0.0395 0.0402 0.0409 0.0416
3099.000000 0.0423 0.0430 0.0437 0.0444 0.0453
3094.000000 0.0462 0.0471 0.0482 0.0492 0.0502
3089.000000 0.0512 0.0523 0.0533 0.0543 0.0556
3084.000000 0.0569 0.0583 0.0598 0.0613 0.0628
3079.000000 0.0642 0.0657 0.0672 0.0687 0.0701
3074.000000 0.0716 0.0731 0.0746 0.0763 0.0780
3069.000000 0.0797 0.0814 0.0830 0.0846 0.0864
3064.000000 0.0881 0.0897 0.0915 0.0932 0.0949
3059.000000 0.0965 0.0982 0.0997 0.1015 0.1031
3054.000000 0.1048 0.1064 0.1081 0.1096 0.1114
3049.000000 0.1131 0.1148 0.1164 0.1181 0.1198
3044.000000 0.1215 0.1232 0.1249 0.1266 0.1283
3039.000000 0.1300 0.1318 0.1335 0.1352 0.1369
3034.000000 0.1387 0.1404 0.1421 0.1438 0.1456
3029.000000 0.1472 0.1488 0.1502 0.1517 0.1532
3024.000000 0.1546 0.1561 0.1576 0.1591 0.1606
3019.000000 0.1620 0.1634 0.1649 0.1664 0.1678
3014.000000 0.1692 0.1704 0.1719 0.1732 0.1745
3009.000000 0.1760 0.1774 0.1786 0.1801 0.1814
3004.000000 0.1828 0.1842 0.1856 0.1869 0.1883
2999.000000 0.1895 0.1910 0.1923 0.1935 0.1948
2994.000000 0.1960 0.1972 0.1984 0.1996 0.2010
2989.000000 0.2022 0.2034 0.2046 0.2059 0.2071
2984.000000 0.2084 0.2100 0.2117 0.2135 0.2155
2979.000000 0.2174 0.2193 0.2212 0.2231 0.2251
2974.000000 0.2271 0.2291 0.2312 0.2333 0.2354
2969.000000 0.2375 0.2396 0.2418 0.2440 0.2459
2964.000000 0.2479 0.2495 0.2511 0.2528 0.2563
2959.000000 0.2546 0.2548 0.2549 0.2551 0.2551
2954.000000 0.2551 0.2549 0.2547 0.2544 0.2542
2949.000000 0.2537 0.2532 0.2527 0.2522 0.2516
2944.000000 0.2510 0.2503 0.2496 0.2487 0.2478
2939.000000 0.2466 0.2455 0.2409 0.2364 0.2250
2934.000000 0.2137 0.2023 0.1590 0.1795 0.1683
2929.000000 0.1644 0.1606 0.1617 0.1628 0.1678
2924.000000 0.1728 0.1814 0.1901 0.1979 0.2058
2919.000000 0.2088 0.2119 0.2135 0.2154 0.2168
2914.000000 0.2183 0.2194 0.2205 0.2214 0.2224
2909.000000 0.2233 0.2243 0.2248 0.2254 0.2259
2904.000000 0.2265 0.2270 0.2275 0.2280 0.2285
2899.000000 0.2290 0.2295 0.2299 0.2303 0.2306
2894.000000 0.2310 0.2314 0.2318 0.2321 0.2325
2889.000000 0.2328 0.2332 0.2334 0.2338 0.2339
2884.000000 0.2341 0.2342 0.2343 0.2345 0.2345
2879.000000 0.2346 0.2381 0.2326 0.2308 0.2281
2874.000000 0.2254 0.2224 0.2195 0.2184 0.2173
2869.000000 0.2168 0.2164 0.2161 0.2158 0.2156
2864.000000 0.2155 0.2154 0.2153 0.2151 0.2150
2859.000000 0.2148 0.2147 0.2145 0.2145 0.2145
2854.000000 0.2147 0.2149 0.2152 0.2154 0.2156
2849.000000 0.2158 0.2160 0.2167 0.2174 0.2183
2844.000000 0.2192 0.2200 0.2209 0.2217 0.2226
2839.000000 0.2232 0.2239 0.2244 0.2250 0.2254
2834.000000 0.2242 0.2261 0.2264 0.2266 0.2269
2829.000000 0.2271 0.2274 0.2277 0.2280 0.2282
2824.000000 0.2284 0.2287 0.2290 0.2293 0.2297
2819.000000 0.2300 0.2304 0.2308 0.2312 0.2315
2814.000000 0.2319 0.2323 0.2327 0.2331 0.2334
2809.000000 0.2339 0.2344 0.2357 0.2371 0.2392
2804.000000 0.2413 0.2437 0.2461 0.2484 0.2508
2799.000000 0.2531 0.2554 0.2577 0.2600 0.2623
2794.000000 0.2646 0.2668 0.2690 0.2711 0.2732
2789.000000 0.2752 0.2773 0.2794 0.2815 0.2835
2784.000000 0.2858 0.2884 0.2913 0.2940 0.2967
2779.000000 0.2994 0.3022 0.3049 0.3077 0.3104
2774.000000 0.3131 0.3158 0.3185 0.3212 0.3240
2769.000000 0.3266 0.3295 0.3321 0.3347 0.3372
2764.000000 0.3398 0.3424 0.3450 0.3475 0.3500
2759.000000 0.3526 0.3552 0.3577 0.3603 0.3629
2754.000000 0.3655 0.3680 0.3707 0.3732 0.3759
2749.000000 0.3784 0.3810 0.3837 0.3862 0.3889
2744.000000 0.3914 0.3943 0.3971 0.4002 0.4034
2739.000000 0.4057 0.4080 0.4100 0.4121 0.4138
2734.000000 0.4155 0.4160 0.4168 0.4173 0.4179
2729.000000 0.4184 0.4221 0.4192 0.4195 0.4197
2724.000000 0.4199 0.4199 0.4199 0.4198 0.4195
2719.000000 0.4191 0.4188 0.4179 0.4170 0.4160
2714.000000 0.4153 0.4141 0.4129 0.4117 0.4105
2709.000000 0.4096 0.4093 0.4093 0.4093 0.4096
2704.000000 0.4099 0.4105 0.4112 0.4120 0.4128
2699.000000 0.4136 0.4145 0.4151 0.4157 0.4162
2694.000000 0.4168 0.4174 0.4180 0.4185 0.4190
2689.000000 0.4195 0.4201 0.4206 0.4212 0.4217
2684.000000 0.4222 0.4227 0.4233 0.4239 0.4245
2679.000000 0.4246 0.4248 0.4249 0.4249 0.4250
2674.000000 0.4250 0.4243 0.4237 0.4231 0.4225
2669.000000 0.4219 0.4214 0.4204 0.4195 0.4182
2664.000000 0.4170 0.4157 0.4144 0.4134 0.4124
2659.000000 0.4116 0.4109 0.4102 0.4096 0.4090
2654.000000 0.4084 0.4078 0.4073 0.4068 0.4064
2649.000000 0.4059 0.4055 0.4052 0.4049 0.4048
2644.000000 0.4047 0.4047 0.4047 0.4047 0.4049
2639.000000 0.4052 0.4056 0.4064 0.4072 0.4125
2634.000000 0.4179 0.4205 0.4231 0.4257 0.4284
2629.000000 0.4358 0.4432 0.4471 0.4510 0.4546
2624.000000 0.4581 0.4612 0.4644 0.4668 0.4692
2619.000000 0.4715 0.4739 0.4762 0.4786 0.4810
2614.000000 0.4834 0.4856 0.4878 0.4899 0.4921
2609.000000 0.4943 0.4965 0.4986 0.5008 0.5027
2604.000000 0.5047 0.5064 0.5082 0.5099 0.5117
2599.000000 0.5135 0.5153 0.5170 0.5188 0.5205
2594.000000 0.5223 0.5240 0.5257 0.5274 0.5291
2589.000000 0.5308 0.5326 0.5343 0.5360 0.5376
2584.000000 0.5393 0.5408 0.5423 0.5438 0.5453
2579.000000 0.5468 0.5484 0.5499 0.5514 0.5529
2574.000000 0.5544 0.5558 0.5572 0.5584 0.5596
2569.000000 0.5608 0.5621 0.5633 0.5646 0.5658
2564.000000 0.5671 0.5683 0.5696 0.5707 0.5719
2559.000000 0.5730 0.5742 0.5753 0.5764 0.5775
2554.000000 0.5787 0.5798 0.5809 0.5820 0.5831
2549.000000 0.5842 0.5853 0.5864 0.5875 0.5886
2544.000000 0.5897 0.5908 0.5919 0.5930 0.5941
2539.000000 0.5948 0.5956 0.5962 0.5971 0.5978
2534.000000 0.5986 0.5993 0.6001 0.6008 0.6016
2529.000000 0.6023 0.6031 0.6037 0.6044 0.6049
2524.000000 0.6054 0.6059 0.6064 0.6069 0.6074
2519.000000 0.6078 0.6082 0.6085 0.6088 0.6091
2514.000000 0.6094 0.6097 0.6100 0.6103 0.6106
2509.000000 0.6108 0.6110 0.6114 0.6117 0.6120
2504.000000 0.6123 0.6125 0.6128 0.6131 0.6134
2499.000000 0.6137 0.6140 0.6142 0.6145 0.6148
2494.000000 0.6185 0.6154 0.6157 0.6158 0.6160
2489.000000 0.6160 0.6160 0.6162 0.6162 0.6160
2484.000000 0.6158 0.6154 0.6150 0.6142 0.6134
2479.000000 0.6122 0.6110 0.6087 0.6065 0.6042
2474.000000 0.6019 0.6000 0.5981 0.5955 0.5929
2469.000000 0.5912 0.5896 0.5881 0.5820 0.5859
2464.000000 0.5852 0.5844 0.5836 0.5833 0.5830
2459.000000 0.5827 0.5825 0.5822 0.5822 0.5823
2454.000000 0.5826 0.5830 0.5835 0.5844 0.5853
2449.000000 0.5862 0.5874 0.5885 0.5896 0.5905
2444.000000 0.5915 0.5923 0.5931 0.5936 0.5942
2439.000000 0.5943 0.5945 0.5946 0.5955 0.5949
2434.000000 0.5950 0.5950 0.5951 0.5951 0.5951
2429.000000 0.5951 0.5951 0.5948 0.5946 0.5943
2424.000000 0.5940 0.5936 0.5933 0.5902 0.5871
2419.000000 0.5840 0.5810 0.5788 0.5767 0.5755
2414.000000 0.5743 0.5736 0.5714 0.5728 0.5726
2409.000000 0.5724 0.5722 0.5737 0.5753 0.5768
2404.000000 0.5784 0.5799 0.5815 0.5829 0.5843
2399.000000 0.5856 0.5870 0.5883 0.5897 0.5910
2394.000000 0.5924 0.5935 0.5947 0.5957 0.5968
2389.000000 0.5978 0.5988 0.5998 0.6009 0.6019
2384.000000 0.6029 0.6035 0.6042 0.6048 0.6055
2379.000000 0.6060 0.6068 0.6074 0.6081 0.6095
2374.000000 0.6110 0.6126 0.6143 0.6159 0.6175
2369.000000 0.6192 0.6209 0.6226 0.6243 0.6260
2364.000000 0.6277 0.6294 0.6310 0.6328 0.6345
2359.000000 0.6354 0.6364 0.6365 0.6366 0.6367
2354.000000 0.6368 0.6369 0.6370 0.6371 0.6373
2349.000000 0.6374 0.6375 0.6376 0.6378 0.6379
2344.000000 0.6380 0.6381 0.6382 0.6383 0.6385
2339.000000 0.6386 0.6387 0.6387 0.6388 0.6388
2334.000000 0.6388 0.6388 0.6388 0.6394 0.6401
2329.000000 0.6411 0.6421 0.6433 0.6444 0.6451
2324.000000 0.6461 0.6465 0.6471 0.6476 0.6482
2319.000000 0.6487 0.6492 0.6497 0.6501 0.6507
2314.000000 0.6511 0.6517 0.6521 0.6526 0.6532
2309.000000 0.6537 0.6542 0.6547 0.6551 0.6557
2304.000000 0.6561 0.6565 0.6569 0.6572 0.6576
2299.000000 0.6581 0.6585 0.6588 0.6592 0.6596
2294.000000 0.6600 0.6603 0.6607 0.6611 0.6615
2289.000000 0.6618 0.6621 0.6625 0.6628 0.6633
2284.000000 0.6637 0.6640 0.6644 0.6648 0.6651
2279.000000 0.6655 0.6658 0.6662 0.6667 0.6669
2274.000000 0.6674 0.6678 0.6682 0.6686 0.6690
2269.000000 0.6694 0.6698 0.6701 0.6706 0.6710
2264.000000 0.6714 0.6718 0.6721 0.6725 0.6730
2259.000000 0.6732 0.6735 0.6738 0.6741 0.6743
2254.000000 0.6746 0.6749 0.6751 0.6754 0.6757
2249.000000 0.6758 0.6761 0.6762 0.6764 0.6765
2244.000000 0.6765 0.6765 0.6767 0.6767 0.6768
2239.000000 0.6768 0.6768 0.6768 0.6768 0.6768
2234.000000 0.6767 0.6765 0.6762 0.6761 0.6758
2229.000000 0.6755 0.6751 0.6748 0.6745 0.6742
2224.000000 0.6739 0.6735 0.6732 0.6725 0.6721
2219.000000 0.6715 0.6708 0.6701 0.6696 0.6690
2214.000000 0.6685 0.6686 0.6688 0.6697 0.6707
2209.000000 0.6715 0.6725 0.6737 0.6749 0.6760
2204.000000 0.6771 0.6783 0.6795 0.6806 0.6818
2199.000000 0.6828 0.6841 0.6848 0.6856 0.6861
2194.000000 0.6868 0.6875 0.6883 0.6890 0.6897
2189.000000 0.6904 0.6911 0.6918 0.6925 0.6928
2184.000000 0.6934 0.6937 0.6941 0.6945 0.6949
2179.000000 0.6953 0.6957 0.6961 0.6965 0.6968
2174.000000 0.6972 0.6975 0.6980 0.6984 0.6988
2169.000000 0.6991 0.6995 0.6998 0.7001 0.7005
2164.000000 0.7008 0.7011 0.7014 0.7017 0.7021
2159.000000 0.7024 0.7026 0.7030 0.7033 0.7036
2154.000000 0.7039 0.7042 0.7046 0.7049 0.7051
2149.000000 0.7055 0.7058 0.7060 0.7062 0.7064
2144.000000 0.7065 0.7067 0.7068 0.7069 0.7071
2139.000000 0.7071 0.7074 0.7075 0.7076 0.7078
2134.000000 0.7080 0.7081 0.7082 0.7083 0.7085
2129.000000 0.7085 0.7086 0.7087 0.7088 0.7089
2124.000000 0.7090 0.7091 0.7092 0.7093 0.7094
2119.000000 0.7095 0.7097 0.7099 0.7101 0.7103
2114.000000 0.7106 0.7108 0.7110 0.7111 0.7115
2109.000000 0.7117 0.7118 0.7121 0.7124 0.7125
2104.000000 0.7128 0.7131 0.7134 0.7137 0.7141
2099.000000 0.7145 0.7149 0.7151 0.7156 0.7158
2094.000000 0.7162 0.7167 0.7171 0.7174 0.7178
2089.000000 0.7182 0.7186 0.7190 0.7194 0.7197
2084.000000 0.7201 0.7204 0.7208 0.7210 0.7212
2079.000000 0.7215 0.7217 0.7218 0.7221 0.7222
2074.000000 0.7225 0.7228 0.7230 0.7232 0.7235
2069.000000 0.7237 0.7239 0.7240 0.7242 0.7243
2064.000000 0.7245 0.7246 0.7248 0.7249 0.7251
2059.000000 0.7251 0.7253 0.7254 0.7256 0.7257
2054.000000 0.7258 0.7260 0.7261 0.7262 0.7265
2049.000000 0.7265 0.7265 0.7265 0.7265 0.7265
2044.000000 0.7265 0.7265 0.7265 0.7265 0.7265
2039.000000 0.7265 0.7265 0.7265 0.7265 0.7265
2034.000000 0.7265 0.7265 0.7265 0.7265 0.7264
2029.000000 0.7262 0.7261 0.7261 0.7260 0.7258
2024.000000 0.7258 0.7258 0.7258 0.7258 0.7258
2019.000000 0.7258 0.7258 0.7258 0.7258 0.7257
2014.000000 0.7256 0.7254 0.7253 0.7251 0.7249
2009.000000 0.7245 0.7241 0.7237 0.7233 0.7228
2004.000000 0.7225 0.7221 0.7218 0.7140 0.7061
1999.000000 0.6940 0.6801 0.6800 0.6822 0.6892
1994.000000 0.6961 0.7031 0.7098 0.7115 0.7133
1989.000000 0.7151 0.7168 0.7185 0.7199 0.7212
1984.000000 0.7226 0.7241 0.7255 0.7269 0.7285
1979.000000 0.7300 0.7315 0.7330 0.7345 0.7361
1974.000000 0.7375 0.7391 0.7407 0.7410 0.7418
1969.000000 0.7425 0.7434 0.7442 0.7450 0.7458
1964.000000 0.7468 0.7485 0.7503 0.7538 0.7581
1959.000000 0.7628 0.7676 0.7686 0.7660 0.7618
1954.000000 0.7590 0.7575 0.7560 0.7545 0.7531
1949.000000 0.7517 0.7505 0.7496 0.7486 0.7476
1944.000000 0.7471 0.7447 0.7468 0.7467 0.7465
1939.000000 0.7483 0.7501 0.7518 0.7531 0.7543
1934.000000 0.7556 0.7568 0.7576 0.7578 0.7587
1929.000000 0.7592 0.7597 0.7601 0.7604 0.7606
1924.000000 0.7607 0.7608 0.7608 0.7610 0.7610
1919.000000 0.7611 0.7611 0.7612 0.7614 0.7615
1914.000000 0.7618 0.7619 0.7621 0.7624 0.7625
1909.000000 0.7628 0.7630 0.7633 0.7635 0.7637
1904.000000 0.7639 0.7641 0.7643 0.7646 0.7648
1899.000000 0.7650 0.7651 0.7654 0.7656 0.7658
1894.000000 0.7661 0.7662 0.7665 0.7667 0.7668
1889.000000 0.7671 0.7674 0.7675 0.7678 0.7680
1884.000000 0.7681 0.7681 0.7682 0.7683 0.7683
1879.000000 0.7684 0.7685 0.7686 0.7686 0.7687
1874.000000 0.7688 0.7688 0.7689 0.7690 0.7690
1869.000000 0.7691 0.7691 0.7691 0.7691 0.7691
1864.000000 0.7691 0.7691 0.7691 0.7691 0.7691
1859.000000 0.7691 0.7691 0.7691 0.7691 0.7691
1854.000000 0.7691 0.7691 0.7691 0.7691 0.7691
1849.000000 0.7690 0.7689 0.7687 0.7686 0.7685
1844.000000 0.7684 0.7683 0.7681 0.7680 0.7678
1839.000000 0.7676 0.7675 0.7675 0.7672 0.7671
1834.000000 0.7671 0.7668 0.7668 0.7665 0.7664
1829.000000 0.7661 0.7660 0.7658 0.7656 0.7654
1824.000000 0.7651 0.7650 0.7648 0.7646 0.7644
1819.000000 0.7642 0.7640 0.7638 0.7636 0.7634
1814.000000 0.7633 0.7631 0.7628 0.7626 0.7625
1809.000000 0.7624 0.7621 0.7619 0.7618 0.7617
1804.000000 0.7615 0.7612 0.7611 0.7610 0.7608
1799.000000 0.7606 0.7605 0.7603 0.7601 0.7599
