##TITLE=Thiophene
##JCAMP-DX=4.24
##DATA TYPE=INFRARED SPECTRUM
##CLASS=COBLENTZ
##ORIGIN=DOW CHEMICAL COMPANY
##OWNER=Copyright (C) 1987 by the Coblentz Society
Collection (C) 2018 copyright by the U.S. Secretary of Commerce
on behalf of the United States of America. All rights reserved.
##DATE=1964
##CAS REGISTRY NO=110-02-1
##MOLFORM=C4 H4 S
##SOURCE REFERENCE=COBLENTZ NO. 8881
##$NIST SOURCE=COBLENTZ
##$NIST IMAGE=cob8881
##SPECTROMETER/DATA SYSTEM=DOW KBr FOREPRISM-GRATING
##INSTRUMENT PARAMETERS=GRATING CHANGED AT 5.0, 7.5, 15.0 MICRON
##STATE=GAS (50 mmHg, N2 ADDED, TOTAL PRESSURE 600 mmHg)
##PATH LENGTH=5 CM
$$SPECTRAL CONTAMINATION DUE TO CS2 AT 1543 CM^-^1
##SAMPLING PROCEDURE=TRANSMISSION
##RESOLUTION=2
##DATA PROCESSING=DIGITIZED BY COBLENTZ SOCIETY (BATCH II) FROM HARD COPY
##XUNITS=1/CM
##YUNITS=TRANSMITTANCE
##XFACTOR=1.0
##YFACTOR=1
##FIRSTX=385
##LASTX=3798
##FIRSTY=0.8166
##MAXX=3798
##MINX=385
##MAXY=0.875
##MINY=0.0097
##NPOINTS=3414
##XYDATA=(X++(Y..Y))
385.000000 0.8166 0.8164 0.8163 0.8162 0.8161
390.000000 0.8159 0.8156 0.8153 0.8151 0.8148
395.000000 0.8145 0.8142 0.8139 0.8136 0.8133
400.000000 0.8130 0.8127 0.8124 0.8121 0.8118
405.000000 0.8115 0.8111 0.8107 0.8103 0.8099
410.000000 0.8095 0.8091 0.8087 0.8083 0.8079
415.000000 0.8075 0.8071 0.8067 0.8064 0.8060
420.000000 0.8056 0.8053 0.8049 0.8045 0.8041
425.000000 0.8038 0.8030 0.8022 0.8015 0.8007
430.000000 0.7999 0.7992 0.7984 0.7976 0.7968
435.000000 0.7963 0.7958 0.7952 0.7947 0.7942
440.000000 0.7937 0.7931 0.7926 0.7921 0.7915
445.000000 0.7912 0.7910 0.7908 0.7905 0.7903
450.000000 0.7901 0.7898 0.7896 0.7898 0.7921
455.000000 0.7960 0.7993 0.8020 0.8026 0.8032
460.000000 0.8036 0.8039 0.8041 0.8044 0.8048
465.000000 0.8051 0.8054 0.8058 0.8063 0.8069
470.000000 0.8074 0.8079 0.8085 0.8094 0.8102
475.000000 0.8111 0.8120 0.8129 0.8136 0.8143
480.000000 0.8149 0.8156 0.8163 0.8170 0.8175
485.000000 0.8178 0.8181 0.8184 0.8187 0.8190
490.000000 0.8193 0.8196 0.8199 0.8200 0.8197
495.000000 0.8193 0.8189 0.8186 0.8182 0.8178
500.000000 0.8175 0.8168 0.8160 0.8152 0.8145
505.000000 0.8137 0.8130 0.8122 0.8115 0.8108
510.000000 0.8102 0.8095 0.8088 0.8082 0.8075
515.000000 0.8069 0.8062 0.8056 0.8049 0.8043
520.000000 0.8036 0.8031 0.8029 0.8027 0.8025
525.000000 0.8023 0.8021 0.8021 0.8023 0.8024
530.000000 0.8026 0.8028 0.8029 0.8031 0.8034
535.000000 0.8037 0.8040 0.8044 0.8047 0.8050
540.000000 0.8054 0.8057 0.8060 0.8064 0.8068
545.000000 0.8071 0.8075 0.8079 0.8113 0.8086
550.000000 0.8090 0.8093 0.8097 0.8101 0.8104
555.000000 0.8107 0.8108 0.8110 0.8112 0.8114
560.000000 0.8115 0.8117 0.8112 0.8107 0.8102
565.000000 0.8097 0.8092 0.8089 0.8088 0.8087
570.000000 0.8085 0.8084 0.8083 0.8082 0.8080
575.000000 0.8079 0.8079 0.8079 0.8079 0.8079
580.000000 0.8079 0.8079 0.8090 0.8100 0.8110
585.000000 0.8121 0.8131 0.8138 0.8145 0.8152
590.000000 0.8159 0.8166 0.8173 0.8180 0.8187
595.000000 0.8194 0.8201 0.8208 0.8213 0.8219
600.000000 0.8225 0.8230 0.8236 0.8241 0.8247
605.000000 0.8252 0.8258 0.8263 0.8269 0.8275
610.000000 0.8280 0.8286 0.8291 0.8297 0.8303
615.000000 0.8308 0.8314 0.8320 0.8325 0.8331
620.000000 0.8337 0.8342 0.8348 0.8355 0.8361
625.000000 0.8367 0.8373 0.8379 0.8385 0.8391
630.000000 0.8398 0.8404 0.8410 0.8416 0.8422
635.000000 0.8428 0.8434 0.8440 0.8446 0.8452
640.000000 0.8458 0.8464 0.8469 0.8474 0.8479
645.000000 0.8484 0.8489 0.8494 0.8499 0.8504
650.000000 0.8509 0.8510 0.8512 0.8513 0.8515
655.000000 0.8516 0.8518 0.8519 0.8518 0.8515
660.000000 0.8512 0.8508 0.8505 0.8501 0.8498
665.000000 0.8487 0.8473 0.8456 0.8424 0.8392
670.000000 0.8360 0.8327 0.8282 0.8218 0.8135
675.000000 0.8028 0.7857 0.7785 0.7552 0.7358
680.000000 0.7147 0.6825 0.6502 0.6179 0.5856
685.000000 0.5533 0.5210 0.4887 0.4565 0.4242
690.000000 0.3919 0.3596 0.3273 0.2950 0.2639
695.000000 0.1969 0.1717 0.1524 0.1422 0.1389
700.000000 0.1375 0.1412 0.1450 0.1493 0.1564
705.000000 0.1686 0.1808 0.1930 0.2052 0.2174
710.000000 0.2240 0.2238 0.2240 0.1497 0.0726
715.000000 0.0097 0.0884 0.1964 0.2967 0.2837
720.000000 0.2636 0.2435 0.2234 0.2033 0.1832
725.000000 0.1631 0.1235 0.1058 0.1008 0.1002
730.000000 0.1001 0.1081 0.1242 0.1326 0.1377
735.000000 0.1441 0.1529 0.1617 0.1729 0.1874
740.000000 0.2230 0.2602 0.3905 0.4898 0.5230
745.000000 0.5561 0.5892 0.6223 0.6555 0.6886
750.000000 0.7270 0.7409 0.7507 0.7620 0.7779
755.000000 0.8304 0.8504 0.8584 0.8620 0.8649
760.000000 0.8667 0.8685 0.8700 0.8714 0.8724
765.000000 0.8732 0.8739 0.8747 0.8750 0.8750
770.000000 0.8750 0.8748 0.8745 0.8743 0.8740
775.000000 0.8738 0.8736 0.8742 0.8733 0.8731
780.000000 0.8729 0.8728 0.8726 0.8725 0.8723
785.000000 0.8721 0.8720 0.8718 0.8717 0.8715
790.000000 0.8709 0.8702 0.8696 0.8689 0.8680
795.000000 0.8665 0.8649 0.8633 0.8623 0.8617
800.000000 0.8617 0.8620 0.8624 0.8637 0.8641
805.000000 0.8643 0.8644 0.8631 0.8616 0.8600
810.000000 0.8579 0.8549 0.8517 0.8484 0.8451
815.000000 0.8409 0.8352 0.8290 0.8225 0.8158
820.000000 0.8075 0.7992 0.7601 0.7230 0.6859
825.000000 0.6487 0.6116 0.5745 0.5374 0.4908
830.000000 0.4347 0.4172 0.4142 0.4139 0.4115
835.000000 0.4242 0.4469 0.4695 0.4922 0.5148
840.000000 0.5302 0.5325 0.3489 0.6895 0.1574
845.000000 0.6655 0.6897 0.5962 0.5616 0.5270
850.000000 0.4923 0.4577 0.4231 0.3915 0.3888
855.000000 0.4357 0.4879 0.5401 0.5923 0.6445
860.000000 0.6967 0.7488 0.7997 0.8067 0.8102
865.000000 0.8137 0.8172 0.8205 0.8236 0.8253
870.000000 0.8271 0.8293 0.8323 0.8376 0.8414
875.000000 0.8412 0.8408 0.8398 0.8378 0.8352
880.000000 0.8286 0.8261 0.8240 0.8224 0.8213
885.000000 0.8211 0.8213 0.8219 0.8227 0.8236
890.000000 0.8245 0.8255 0.8265 0.8276 0.8287
895.000000 0.8298 0.8313 0.8329 0.8343 0.8356
900.000000 0.8370 0.8384 0.8397 0.8404 0.8412
905.000000 0.8420 0.8427 0.8435 0.8442 0.8446
910.000000 0.8449 0.8452 0.8455 0.8458 0.8462
915.000000 0.8465 0.8467 0.8468 0.8469 0.8470
920.000000 0.8472 0.8473 0.8474 0.8476 0.8477
925.000000 0.8477 0.8476 0.8476 0.8475 0.8474
930.000000 0.8493 0.8472 0.8471 0.8470 0.8469
935.000000 0.8468 0.8467 0.8466 0.8467 0.8469
940.000000 0.8470 0.8471 0.8472 0.8473 0.8474
945.000000 0.8476 0.8477 0.8478 0.8478 0.8478
950.000000 0.8478 0.8478 0.8478 0.8478 0.8478
955.000000 0.8478 0.8478 0.8478 0.8478 0.8478
960.000000 0.8477 0.8476 0.8475 0.8474 0.8473
965.000000 0.8472 0.8471 0.8470 0.8469 0.8468
970.000000 0.8468 0.8466 0.8464 0.8461 0.8458
975.000000 0.8455 0.8452 0.8449 0.8446 0.8443
980.000000 0.8440 0.8433 0.8426 0.8418 0.8410
985.000000 0.8402 0.8394 0.8386 0.8378 0.8371
990.000000 0.8363 0.8355 0.8347 0.8339 0.8331
995.000000 0.8323 0.8316 0.8309 0.8302 0.8296
1000.000000 0.8289 0.8282 0.8275 0.8268 0.8261
1005.000000 0.8254 0.8248 0.8237 0.8227 0.8216
1010.000000 0.8205 0.8194 0.8184 0.8173 0.8162
1015.000000 0.8138 0.8115 0.8091 0.8060 0.8029
1020.000000 0.7997 0.7966 0.7935 0.7898 0.7846
1025.000000 0.7793 0.7715 0.7696 0.7707 0.7727
1030.000000 0.7768 0.7809 0.7849 0.7877 0.7904
1035.000000 0.7909 0.7908 0.7629 0.6610 0.6583
1040.000000 0.7517 0.7978 0.8106 0.8036 0.7919
1045.000000 0.7803 0.7800 0.7800 0.7805 0.7816
1050.000000 0.7844 0.7913 0.7996 0.8022 0.8047
1055.000000 0.8059 0.8064 0.8057 0.8049 0.8039
1060.000000 0.8015 0.7985 0.7944 0.7891 0.7824
1065.000000 0.7756 0.7662 0.7539 0.7415 0.7292
1070.000000 0.7169 0.7028 0.6892 0.6892 0.6896
1075.000000 0.6904 0.6926 0.6960 0.7005 0.7040
1080.000000 0.7053 0.7062 0.7060 0.7053 0.6041
1085.000000 0.5112 0.6219 0.7527 0.7817 0.7796
1090.000000 0.7504 0.7216 0.6928 0.6841 0.6769
1095.000000 0.6888 0.6918 0.6989 0.7076 0.7163
1100.000000 0.7250 0.7337 0.7425 0.7512 0.7649
1105.000000 0.7757 0.7931 0.7991 0.8032 0.8070
1110.000000 0.8106 0.8141 0.8171 0.8194 0.8217
1115.000000 0.8240 0.8249 0.8258 0.8267 0.8276
1120.000000 0.8284 0.8288 0.8292 0.8295 0.8298
1125.000000 0.8300 0.8303 0.8299 0.8308 0.8310
1130.000000 0.8309 0.8308 0.8306 0.8304 0.8303
1135.000000 0.8301 0.8299 0.8299 0.8298 0.8298
1140.000000 0.8297 0.8296 0.8296 0.8295 0.8293
1145.000000 0.8292 0.8290 0.8289 0.8287 0.8286
1150.000000 0.8284 0.8283 0.8281 0.8279 0.8276
1155.000000 0.8272 0.8269 0.8265 0.8262 0.8258
1160.000000 0.8255 0.8251 0.8247 0.8244 0.8240
1165.000000 0.8237 0.8233 0.8230 0.8226 0.8224
1170.000000 0.8222 0.8219 0.8217 0.8215 0.8213
1175.000000 0.8210 0.8208 0.8202 0.8192 0.8183
1180.000000 0.8174 0.8164 0.8155 0.8146 0.8136
1185.000000 0.8125 0.8114 0.8103 0.8092 0.8081
1190.000000 0.8068 0.8055 0.8043 0.8030 0.8017
1195.000000 0.8004 0.7991 0.7978 0.7965 0.7952
1200.000000 0.7938 0.7925 0.7911 0.7897 0.7884
1205.000000 0.7871 0.7861 0.7850 0.7839 0.7829
1210.000000 0.7820 0.7814 0.7809 0.7803 0.7796
1215.000000 0.7771 0.7757 0.7761 0.7779 0.7814
1220.000000 0.7839 0.7848 0.7845 0.7836 0.7828
1225.000000 0.7810 0.7787 0.7759 0.7722 0.7678
1230.000000 0.7631 0.7578 0.7525 0.7478 0.7431
1235.000000 0.7373 0.7305 0.7228 0.7149 0.7077
1240.000000 0.7020 0.6962 0.6905 0.6829 0.6749
1245.000000 0.6670 0.6568 0.6460 0.6359 0.6266
1250.000000 0.6180 0.6166 0.6162 0.6157 0.6174
1255.000000 0.6244 0.6661 0.7077 0.7432 0.7451
1260.000000 0.7250 0.6866 0.6482 0.6098 0.5937
1265.000000 0.5983 0.6043 0.6110 0.6189 0.6276
1270.000000 0.6385 0.6443 0.6495 0.6565 0.6766
1275.000000 0.6967 0.7169 0.7370 0.7460 0.7487
1280.000000 0.7493 0.7485 0.7472 0.7466 0.7486
1285.000000 0.7508 0.7533 0.7558 0.7579 0.7612
1290.000000 0.7658 0.7695 0.7730 0.7768 0.7805
1295.000000 0.7843 0.7873 0.7904 0.7932 0.7957
1300.000000 0.7982 0.8003 0.8018 0.8033 0.8046
1305.000000 0.8055 0.8064 0.8066 0.8066 0.8065
1310.000000 0.8070 0.8061 0.8059 0.8057 0.8055
1315.000000 0.8052 0.8048 0.8044 0.8040 0.8037
1320.000000 0.8033 0.8029 0.8025 0.8021 0.8017
1325.000000 0.8013 0.8006 0.7999 0.7992 0.7986
1330.000000 0.7979 0.7967 0.7955 0.7942 0.7924
1335.000000 0.7904 0.7884 0.7864 0.7839 0.7814
1340.000000 0.7789 0.7754 0.7719 0.7684 0.7649
1345.000000 0.7614 0.7570 0.7520 0.7470 0.7421
1350.000000 0.7373 0.7325 0.7277 0.7217 0.7148
1355.000000 0.7082 0.7027 0.6971 0.6916 0.6852
1360.000000 0.6770 0.6685 0.6569 0.6459 0.6359
1365.000000 0.6272 0.6191 0.6111 0.6056 0.6011
1370.000000 0.5970 0.5929 0.5906 0.5885 0.5865
1375.000000 0.5845 0.5826 0.5806 0.5787 0.5768
1380.000000 0.5750 0.5732 0.5720 0.5713 0.5708
1385.000000 0.5709 0.5712 0.5716 0.5723 0.5743
1390.000000 0.5780 0.5840 0.5883 0.5911 0.5908
1395.000000 0.5901 0.5837 0.5502 0.5167 0.5026
1400.000000 0.5035 0.5040 0.5093 0.5196 0.5310
1405.000000 0.5425 0.5539 0.5654 0.5768 0.5882
1410.000000 0.5970 0.4279 0.3602 0.6691 0.6720
1415.000000 0.6601 0.6441 0.6281 0.6121 0.5961
1420.000000 0.5801 0.5781 0.5933 0.6083 0.6208
1425.000000 0.6331 0.6420 0.6495 0.6616 0.6761
1430.000000 0.7340 0.7605 0.7645 0.7683 0.7709
1435.000000 0.7731 0.7747 0.7759 0.7771 0.7811
1440.000000 0.7865 0.7895 0.7913 0.7923 0.7932
1445.000000 0.7936 0.7935 0.7935 0.7934 0.7932
1450.000000 0.7927 0.7923 0.7919 0.7915 0.7908
1455.000000 0.7901 0.7895 0.7888 0.7879 0.7896
1460.000000 0.7913 0.7936 0.7966 0.7994 0.8009
1465.000000 0.8024 0.8039 0.8050 0.8059 0.8069
1470.000000 0.8073 0.8077 0.8080 0.8084 0.8085
1475.000000 0.8087 0.8088 0.8089 0.8091 0.8092
1480.000000 0.8090 0.8089 0.8088 0.8092 0.8086
1485.000000 0.8085 0.8083 0.8082 0.8080 0.8078
1490.000000 0.8076 0.8074 0.8072 0.8069 0.8066
1495.000000 0.8063 0.8060 0.8056 0.8053 0.8048
1500.000000 0.8043 0.8038 0.8026 0.8014 0.8001
1505.000000 0.7979 0.7950 0.7911 0.7845 0.7822
1510.000000 0.7817 0.7811 0.7796 0.7779 0.7700
1515.000000 0.7611 0.7528 0.7442 0.7333 0.7209
1520.000000 0.7065 0.6852 0.6655 0.6477 0.6351
1525.000000 0.6249 0.6172 0.6145 0.6122 0.6103
1530.000000 0.6096 0.6097 0.6104 0.6115 0.6137
1535.000000 0.6177 0.6261 0.6345 0.6359 0.6269
1540.000000 0.6038 0.5716 0.5383 0.5354 0.5367
1545.000000 0.5456 0.5818 0.6333 0.6915 0.7040
1550.000000 0.7129 0.7219 0.7308 0.7344 0.7344
1555.000000 0.7332 0.7324 0.7295 0.7260 0.7222
1560.000000 0.7064 0.7021 0.7020 0.7024 0.7030
1565.000000 0.7036 0.7044 0.7053 0.7062 0.7071
1570.000000 0.7080 0.7088 0.7099 0.7113 0.7134
1575.000000 0.6759 0.6360 0.5892 0.5861 0.7541
1580.000000 0.7541 0.7392 0.7109 0.6825 0.6641
1585.000000 0.6791 0.7098 0.7233 0.7244 0.7261
1590.000000 0.7309 0.7365 0.7421 0.7477 0.7595
1595.000000 0.7655 0.7699 0.7743 0.7795 0.7851
1600.000000 0.7918 0.7981 0.8036 0.8076 0.8106
1605.000000 0.8125 0.8127 0.8126 0.8125 0.8123
1610.000000 0.8121 0.8120 0.8119 0.8117 0.8108
1615.000000 0.8095 0.8081 0.8047 0.8051 0.8077
1620.000000 0.8090 0.8098 0.8106 0.8108 0.8106
1625.000000 0.8103 0.8102 0.8105 0.8106 0.8111
1630.000000 0.8115 0.8116 0.8112 0.8107 0.8091
1635.000000 0.8067 0.8055 0.8084 0.8109 0.8126
1640.000000 0.8134 0.8142 0.8129 0.8134 0.8136
1645.000000 0.8138 0.8140 0.8142 0.8144 0.8137
1650.000000 0.8127 0.8102 0.8054 0.7994 0.7975
1655.000000 0.7985 0.7999 0.8047 0.8077 0.8104
1660.000000 0.8123 0.8134 0.8140 0.8137 0.8134
1665.000000 0.8131 0.8126 0.8121 0.8115 0.8110
1670.000000 0.8104 0.8098 0.8094 0.8091 0.8089
1675.000000 0.8087 0.8087 0.8087 0.8087 0.8079
1680.000000 0.8069 0.8059 0.8042 0.8024 0.8006
1685.000000 0.7993 0.8016 0.8036 0.8053 0.8067
1690.000000 0.8062 0.8051 0.8040 0.8025 0.8010
1695.000000 0.7995 0.7981 0.7968 0.7954 0.7954
1700.000000 0.7957 0.7963 0.7969 0.7961 0.7946
1705.000000 0.7931 0.7918 0.7902 0.7885 0.7867
1710.000000 0.7846 0.7822 0.7798 0.7766 0.7727
1715.000000 0.7692 0.7650 0.7614 0.7594 0.7574
1720.000000 0.7566 0.7559 0.7552 0.7546 0.7542
1725.000000 0.7539 0.7535 0.7527 0.7518 0.7509
1730.000000 0.7492 0.7467 0.7410 0.7359 0.7315
1735.000000 0.7285 0.7272 0.7265 0.7261 0.7259
1740.000000 0.7258 0.7256 0.7250 0.7254 0.7256
1745.000000 0.7257 0.7258 0.7259 0.7261 0.7263
1750.000000 0.7267 0.7275 0.7287 0.7299 0.7330
1755.000000 0.7364 0.7410 0.7449 0.7482 0.7515
1760.000000 0.7546 0.7575 0.7589 0.7584 0.7563
1765.000000 0.7522 0.7470 0.7474 0.7482 0.7491
1770.000000 0.7499 0.7512 0.7534 0.7570 0.7602
1775.000000 0.7633 0.7670 0.7709 0.7732 0.7742
1780.000000 0.7743 0.7734 0.7726 0.7715 0.7705
1785.000000 0.7696 0.7687 0.7687 0.7687 0.7692
1790.000000 0.7703 0.7724 0.7761 0.7791 0.7786
1795.000000 0.7778 0.7698 0.7523 0.7348 0.7223
1800.000000 0.7227 0.7872 0.7855 0.7834 0.7814
1805.000000 0.7787 0.7774 0.7768 0.7771 0.7779
1810.000000 0.7797 0.7844 0.7901 0.7956 0.7998
1815.000000 0.8040 0.8072 0.8099 0.8113 0.8122
1820.000000 0.8124 0.8124 0.8124 0.8124 0.8124
1825.000000 0.8124 0.8124 0.8124 0.8124 0.8124
1830.000000 0.8124 0.8124 0.8124 0.8124 0.8124
1835.000000 0.8124 0.8124 0.8124 0.8124 0.8124
1840.000000 0.8124 0.8124 0.8124 0.8124 0.8124
1845.000000 0.8124 0.8124 0.8124 0.8124 0.8124
1850.000000 0.8124 0.8124 0.8123 0.8122 0.8121
1855.000000 0.8120 0.8119 0.8118 0.8118 0.8117
1860.000000 0.8116 0.8115 0.8114 0.8113 0.8112
1865.000000 0.8111 0.8110 0.8109 0.8108 0.8107
1870.000000 0.8107 0.8106 0.8105 0.8104 0.8103
1875.000000 0.8102 0.8101 0.8100 0.8098 0.8097
1880.000000 0.8096 0.8095 0.8093 0.8092 0.8091
1885.000000 0.8090 0.8089 0.8087 0.8086 0.8085
1890.000000 0.8084 0.8082 0.8082 0.8081 0.8081
1895.000000 0.8080 0.8080 0.8079 0.8079 0.8078
1900.000000 0.8078 0.8078 0.8077 0.8077 0.8076
1905.000000 0.8076 0.8075 0.8076 0.8077 0.8079
1910.000000 0.8081 0.8082 0.8084 0.8086 0.8087
1915.000000 0.8089 0.8091 0.8092 0.8094 0.8095
1920.000000 0.8097 0.8099 0.8100 0.8102 0.8104
1925.000000 0.8106 0.8108 0.8109 0.8111 0.8113
1930.000000 0.8115 0.8117 0.8119 0.8120 0.8122
1935.000000 0.8124 0.8126 0.8127 0.8128 0.8129
1940.000000 0.8129 0.8130 0.8130 0.8129 0.8129
1945.000000 0.8129 0.8128 0.8128 0.8127 0.8127
1950.000000 0.8126 0.8126 0.8124 0.8123 0.8121
1955.000000 0.8119 0.8117 0.8115 0.8113 0.8112
1960.000000 0.8110 0.8109 0.8109 0.8108 0.8107
1965.000000 0.8106 0.8106 0.8105 0.8104 0.8103
1970.000000 0.8103 0.8105 0.8107 0.8108 0.8110
1975.000000 0.8112 0.8113 0.8115 0.8117 0.8118
1980.000000 0.8119 0.8120 0.8121 0.8122 0.8123
1985.000000 0.8124 0.8125 0.8126 0.8127 0.8127
1990.000000 0.8128 0.8128 0.8129 0.8129 0.8130
1995.000000 0.8130 0.8131 0.8132 0.8132 0.8133
2000.000000 0.8134 0.8135 0.8136 0.8136 0.8137
2005.000000 0.8137 0.8138 0.8139 0.8141 0.8142
2010.000000 0.8143 0.8144 0.8145 0.8146 0.8147
2015.000000 0.8148 0.8150 0.8151 0.8152 0.8153
2020.000000 0.8154 0.8155 0.8156 0.8157 0.8159
2025.000000 0.8160 0.8161 0.8162 0.8164 0.8165
2030.000000 0.8167 0.8168 0.8170 0.8171 0.8173
2035.000000 0.8174 0.8175 0.8175 0.8176 0.8174
2040.000000 0.8173 0.8171 0.8170 0.8168 0.8167
2045.000000 0.8165 0.8163 0.8161 0.8160 0.8158
2050.000000 0.8157 0.8155 0.8153 0.8151 0.8150
2055.000000 0.8148 0.8146 0.8145 0.8144 0.8142
2060.000000 0.8141 0.8140 0.8139 0.8138 0.8137
2065.000000 0.8136 0.8135 0.8133 0.8132 0.8131
2070.000000 0.8130 0.8129 0.8128 0.8127 0.8126
2075.000000 0.8126 0.8126 0.8125 0.8125 0.8124
2080.000000 0.8124 0.8123 0.8123 0.8122 0.8122
2085.000000 0.8121 0.8121 0.8120 0.8120 0.8119
2090.000000 0.8119 0.8119 0.8119 0.8118 0.8118
2095.000000 0.8117 0.8117 0.8116 0.8116 0.8115
2100.000000 0.8115 0.8114 0.8114 0.8113 0.8113
2105.000000 0.8113 0.8113 0.8112 0.8112 0.8112
2110.000000 0.8112 0.8112 0.8112 0.8112 0.8113
2115.000000 0.8113 0.8113 0.8113 0.8113 0.8113
2120.000000 0.8114 0.8114 0.8114 0.8114 0.8114
2125.000000 0.8114 0.8114 0.8114 0.8115 0.8115
2130.000000 0.8115 0.8115 0.8115 0.8115 0.8116
2135.000000 0.8116 0.8116 0.8115 0.8114 0.8113
2140.000000 0.8113 0.8112 0.8111 0.8110 0.8109
2145.000000 0.8108 0.8107 0.8106 0.8105 0.8104
2150.000000 0.8104 0.8103 0.8102 0.8101 0.8100
2155.000000 0.8099 0.8099 0.8098 0.8098 0.8097
2160.000000 0.8097 0.8096 0.8096 0.8095 0.8095
2165.000000 0.8094 0.8094 0.8093 0.8093 0.8093
2170.000000 0.8094 0.8095 0.8097 0.8098 0.8099
2175.000000 0.8100 0.8102 0.8103 0.8104 0.8105
2180.000000 0.8107 0.8109 0.8111 0.8115 0.8120
2185.000000 0.8124 0.8129 0.8133 0.8138 0.8142
2190.000000 0.8147 0.8151 0.8156 0.8161 0.8166
2195.000000 0.8171 0.8176 0.8181 0.8186 0.8191
2200.000000 0.8196 0.8200 0.8205 0.8209 0.8214
2205.000000 0.8217 0.8221 0.8223 0.8225 0.8227
2210.000000 0.8229 0.8231 0.8233 0.8234 0.8236
2215.000000 0.8238 0.8240 0.8242 0.8244 0.8245
2220.000000 0.8246 0.8247 0.8248 0.8249 0.8251
2225.000000 0.8252 0.8253 0.8254 0.8255 0.8255
2230.000000 0.8256 0.8256 0.8256 0.8256 0.8257
2235.000000 0.8257 0.8257 0.8257 0.8258 0.8258
2240.000000 0.8258 0.8258 0.8259 0.8259 0.8259
2245.000000 0.8259 0.8260 0.8260 0.8260 0.8260
2250.000000 0.8260 0.8260 0.8260 0.8260 0.8260
2255.000000 0.8260 0.8260 0.8260 0.8260 0.8260
2260.000000 0.8260 0.8260 0.8261 0.8261 0.8261
2265.000000 0.8261 0.8262 0.8262 0.8262 0.8262
2270.000000 0.8263 0.8263 0.8263 0.8263 0.8264
2275.000000 0.8265 0.8266 0.8267 0.8269 0.8270
2280.000000 0.8271 0.8272 0.8274 0.8275 0.8276
2285.000000 0.8277 0.8278 0.8279 0.8280 0.8280
2290.000000 0.8281 0.8281 0.8282 0.8282 0.8283
2295.000000 0.8283 0.8284 0.8284 0.8285 0.8285
2300.000000 0.8286 0.8286 0.8287 0.8287 0.8288
2305.000000 0.8288 0.8289 0.8289 0.8290 0.8290
2310.000000 0.8291 0.8291 0.8292 0.8292 0.8293
2315.000000 0.8293 0.8294 0.8294 0.8294 0.8294
2320.000000 0.8295 0.8295 0.8296 0.8296 0.8297
2325.000000 0.8297 0.8298 0.8298 0.8298 0.8298
2330.000000 0.8299 0.8299 0.8300 0.8300 0.8301
2335.000000 0.8301 0.8302 0.8302 0.8303 0.8303
2340.000000 0.8303 0.8303 0.8303 0.8303 0.8304
2345.000000 0.8304 0.8304 0.8304 0.8304 0.8304
2350.000000 0.8305 0.8305 0.8305 0.8305 0.8305
2355.000000 0.8305 0.8306 0.8306 0.8306 0.8306
2360.000000 0.8306 0.8306 0.8307 0.8307 0.8307
2365.000000 0.8307 0.8308 0.8308 0.8309 0.8309
2370.000000 0.8309 0.8309 0.8310 0.8310 0.8310
2375.000000 0.8310 0.8311 0.8311 0.8312 0.8312
2380.000000 0.8312 0.8312 0.8313 0.8313 0.8314
2385.000000 0.8314 0.8314 0.8314 0.8315 0.8315
2390.000000 0.8315 0.8315 0.8316 0.8316 0.8317
2395.000000 0.8317 0.8317 0.8317 0.8318 0.8318
2400.000000 0.8319 0.8319 0.8320 0.8320 0.8321
2405.000000 0.8321 0.8322 0.8322 0.8323 0.8323
2410.000000 0.8324 0.8324 0.8325 0.8326 0.8327
2415.000000 0.8327 0.8328 0.8328 0.8329 0.8329
