##TITLE=N-VALERONITRILE
$$ E.K. (W.L.)
##JCAMP-DX=4.24
##DATA TYPE=INFRARED SPECTRUM
##CLASS=COBLENTZ
##ORIGIN=WYANDOTTE CHEMICALS CORP., WYANDOTTE, MICHIGAN, USA
##OWNER=COBLENTZ SOCIETY
Collection (C) 2018 copyright by the U.S. Secretary of Commerce
on behalf of the United States of America. All rights reserved.
##DATE=Not specified, most likely prior to 1970
##NAMES=pentanenitrile
##CAS REGISTRY NO=110-59-8
##MOLFORM=C5 H9 N
##BP=139-141 C
##SOURCE REFERENCE=COBLENTZ NO. 1379
##$NIST SOURCE=COBLENTZ
##$NIST IMAGE=cob1379
##SPECTROMETER/DATA SYSTEM=Not specified, most likely a prism, grating, or hybrid spectrometer.
##STATE=LIQUID
##PATH LENGTH=0.005 CM
##SAMPLING PROCEDURE=TRANSMISSION
##RESOLUTION=4
##DATA PROCESSING=DIGITIZED BY NIST FROM HARD COPY
##XUNITS=MICROMETERS
##YUNITS=TRANSMITTANCE
##XFACTOR=1.000000
##YFACTOR=1
##DELTAX=000.006809
##FIRSTX=2.061
##LASTX=15.9997
##FIRSTY=0.977
##MAXX=15.9997
##MINX=2.061
##MAXY=0.967
##MINY=0.023
##NPOINTS=2048
##XYDATA=(X++(Y..Y))
2.061000 0.9770 0.9760 0.9720 0.9690 0.9670
2.095063 0.9670 0.9670 0.9670 0.9670 0.9670
2.129000 0.9670 0.9670 0.9650 0.9640 0.9600
2.163063 0.9540 0.9470 0.9280 0.9110 0.8630
2.197000 0.8260 0.7850 0.7840 0.7840 0.7870
2.231063 0.7900 0.7920 0.7940 0.7950 0.7970
2.266000 0.7990 0.8020 0.8070 0.8140 0.8210
2.300063 0.8260 0.8280 0.8290 0.8310 0.8350
2.334000 0.8400 0.8460 0.8520 0.8550 0.8600
2.368063 0.8570 0.8520 0.8460 0.8380 0.8330
2.402000 0.8310 0.8310 0.8360 0.8450 0.8520
2.436063 0.8570 0.8630 0.8700 0.8720 0.8740
2.470000 0.8770 0.8820 0.8890 0.8920 0.8970
2.504063 0.9010 0.9060 0.9110 0.9110 0.9140
2.538000 0.9140 0.9200 0.9210 0.9210 0.9210
2.572063 0.9210 0.9200 0.9200 0.9180 0.9180
2.606000 0.9160 0.9160 0.9160 0.9160 0.9160
2.640063 0.9160 0.9160 0.9140 0.9130 0.9110
2.674000 0.9060 0.9010 0.8890 0.8790 0.8690
2.708063 0.8630 0.8570 0.8530 0.8500 0.8500
2.742000 0.8500 0.8500 0.8480 0.8480 0.8480
2.776063 0.8460 0.8450 0.8410 0.8350 0.8260
2.810000 0.8210 0.8140 0.8090 0.8120 0.8160
2.844063 0.8190 0.8210 0.8230 0.8290 0.8290
2.878000 0.8350 0.8360 0.8360 0.8380 0.8380
2.912063 0.8400 0.8450 0.8530 0.8570 0.8600
2.946000 0.8600 0.8600 0.8600 0.8600 0.8550
2.980063 0.8520 0.8520 0.8480 0.8430 0.8360
3.015000 0.8310 0.8290 0.8280 0.8310 0.8350
3.049063 0.8360 0.8360 0.8350 0.8330 0.8260
3.083000 0.8140 0.8040 0.7970 0.7920 0.7820
3.117063 0.7730 0.7630 0.7560 0.7510 0.7460
3.151000 0.7390 0.7270 0.7150 0.7020 0.6980
3.185063 0.6980 0.7000 0.7210 0.7310 0.7310
3.219000 0.7290 0.7220 0.7090 0.6930 0.6660
3.253063 0.6420 0.6220 0.6050 0.5860 0.5660
3.287000 0.5400 0.5080 0.4670 0.4210 0.2630
3.321063 0.1950 0.1220 0.0510 0.0470 0.0320
3.355000 0.0300 0.0300 0.0300 0.0300 0.0300
3.389063 0.0320 0.0320 0.0340 0.0340 0.0350
3.423000 0.0370 0.0400 0.0420 0.0420 0.0390
3.457063 0.0390 0.0390 0.0390 0.0420 0.0470
3.491000 0.0590 0.0780 0.1030 0.1470 0.1970
3.525063 0.2440 0.2890 0.3330 0.3750 0.4180
3.559000 0.4620 0.5060 0.5510 0.5860 0.6020
3.593063 0.6200 0.6360 0.6510 0.6640 0.6750
3.627000 0.6850 0.6870 0.6870 0.6800 0.6630
3.661063 0.6610 0.6630 0.6760 0.6970 0.7170
3.696000 0.7510 0.7600 0.7600 0.7600 0.7550
3.730063 0.7480 0.7380 0.7310 0.7290 0.7310
3.764000 0.7320 0.7340 0.7380 0.7430 0.7530
3.798063 0.7630 0.7650 0.7680 0.7700 0.7700
3.832000 0.7730 0.7800 0.7850 0.7920 0.8010
3.866063 0.8040 0.8090 0.8110 0.8110 0.8120
3.900000 0.8120 0.8120 0.8120 0.8120 0.8140
3.934063 0.8160 0.8180 0.8210 0.8230 0.8230
3.968000 0.8230 0.8230 0.8240 0.8240 0.8280
4.002063 0.8280 0.8290 0.8290 0.8290 0.8330
4.036000 0.8350 0.8400 0.8430 0.8450 0.8450
4.070063 0.8430 0.8450 0.8450 0.8500 0.8520
4.104000 0.8530 0.8530 0.8500 0.8410 0.8360
4.138063 0.8330 0.8210 0.8190 0.8180 0.8160
4.172000 0.8160 0.8160 0.8160 0.8160 0.8160
4.206063 0.8160 0.8160 0.8160 0.8160 0.8160
4.240000 0.8160 0.8160 0.8160 0.8160 0.8160
4.274063 0.8160 0.8160 0.8160 0.8160 0.8160
4.308000 0.8160 0.8160 0.8160 0.8160 0.8160
4.342063 0.8160 0.8160 0.8160 0.8160 0.8160
4.376000 0.8160 0.8160 0.8160 0.8140 0.8120
4.410063 0.8090 0.8020 0.7950 0.7780 0.7670
4.445000 0.7600 0.7440 0.7210 0.6870 0.6360
4.479063 0.5680 0.4790 0.3670 0.2260 0.1420
4.513000 0.0710 0.0640 0.0730 0.1000 0.1580
4.547063 0.2600 0.3480 0.4420 0.5150 0.5910
4.581000 0.6630 0.7090 0.7390 0.7630 0.7770
4.615063 0.7890 0.7970 0.7990 0.8010 0.8010
4.649000 0.8020 0.8060 0.8140 0.8230 0.8290
4.683063 0.8290 0.8290 0.8290 0.8290 0.8260
4.717000 0.8190 0.8120 0.8160 0.8240 0.8330
4.751063 0.8400 0.8460 0.8500 0.8530 0.8530
4.785000 0.8600 0.8620 0.8670 0.8700 0.8720
4.819063 0.8750 0.8770 0.8790 0.8800 0.8790
4.853000 0.8790 0.8790 0.8740 0.8720 0.8700
4.887063 0.8670 0.8670 0.8650 0.8650 0.8650
4.921000 0.8670 0.8650 0.8650 0.8650 0.8630
4.955063 0.8570 0.8500 0.8460 0.8460 0.8500
4.989000 0.8530 0.8530 0.8570 0.8570 0.8620
5.023063 0.8670 0.8690 0.8690 0.8650 0.8630
5.057000 0.8620 0.8630 0.8650 0.8690 0.8700
5.091063 0.8740 0.8750 0.8750 0.8720 0.8690
5.125000 0.8670 0.8670 0.8690 0.8690 0.8700
5.159063 0.8700 0.8720 0.8720 0.8740 0.8740
5.194000 0.8740 0.8740 0.8720 0.8700 0.8700
5.228063 0.8700 0.8690 0.8690 0.8670 0.8630
5.262000 0.8620 0.8670 0.8690 0.8700 0.8700
5.296063 0.8720 0.8720 0.8720 0.8740 0.8720
5.330000 0.8690 0.8620 0.8620 0.8620 0.8620
5.364063 0.8620 0.8620 0.8620 0.8690 0.8690
5.398000 0.8650 0.8620 0.8570 0.8550 0.8520
5.432063 0.8520 0.8500 0.8500 0.8500 0.8460
5.466000 0.8460 0.8430 0.8430 0.8410 0.8410
5.500063 0.8460 0.8480 0.8520 0.8500 0.8460
5.534000 0.8410 0.8410 0.8410 0.8430 0.8430
5.568063 0.8450 0.8450 0.8430 0.8430 0.8430
5.602000 0.8410 0.8410 0.8430 0.8480 0.8520
5.636063 0.8530 0.8520 0.8500 0.8500 0.8480
5.670000 0.8480 0.8450 0.8410 0.8380 0.8360
5.704063 0.8290 0.8230 0.8160 0.8060 0.7950
5.738000 0.7820 0.7650 0.7610 0.7550 0.7510
5.772063 0.7550 0.7600 0.7600 0.7600 0.7550
5.806000 0.7460 0.7260 0.6950 0.6610 0.6220
5.840063 0.6190 0.6220 0.6460 0.6660 0.6830
5.875000 0.7040 0.7240 0.7410 0.7580 0.7720
5.909063 0.7780 0.7800 0.7840 0.7850 0.7870
5.943000 0.7870 0.7870 0.7870 0.7870 0.7870
5.977063 0.7870 0.7870 0.7850 0.7840 0.7820
6.011000 0.7820 0.7800 0.7800 0.7780 0.7770
6.045063 0.7750 0.7720 0.7700 0.7650 0.7580
6.079000 0.7560 0.7530 0.7510 0.7500 0.7460
6.113063 0.7460 0.7440 0.7430 0.7410 0.7390
6.147000 0.7360 0.7360 0.7410 0.7460 0.7480
6.181063 0.7500 0.7500 0.7500 0.7510 0.7500
6.215000 0.7480 0.7430 0.7380 0.7380 0.7390
6.249063 0.7390 0.7390 0.7410 0.7430 0.7460
6.283000 0.7500 0.7530 0.7550 0.7560 0.7560
6.317063 0.7560 0.7580 0.7580 0.7580 0.7580
6.351000 0.7580 0.7580 0.7600 0.7580 0.7560
6.385063 0.7550 0.7530 0.7500 0.7500 0.7480
6.419000 0.7410 0.7390 0.7390 0.7390 0.7430
6.453063 0.7430 0.7390 0.7380 0.7320 0.7240
6.487000 0.7190 0.7190 0.7140 0.7120 0.7100
6.521063 0.7050 0.7000 0.6980 0.6930 0.6880
6.555000 0.6830 0.6760 0.6660 0.6560 0.6440
6.589063 0.6410 0.6300 0.6220 0.6100 0.5980
6.624000 0.5830 0.5710 0.5610 0.5560 0.5400
6.658063 0.5200 0.5060 0.4980 0.4820 0.4550
6.692000 0.4310 0.3940 0.3670 0.3400 0.3120
6.726063 0.2850 0.2560 0.2220 0.1870 0.1460
6.760000 0.0980 0.0520 0.0250 0.0230 0.0250
6.794063 0.0340 0.0370 0.0390 0.0400 0.0400
6.828000 0.0420 0.0440 0.0450 0.0470 0.0520
6.862063 0.0590 0.0690 0.0790 0.0930 0.1050
6.896000 0.1150 0.1220 0.1270 0.1320 0.1320
6.930063 0.1320 0.1150 0.0900 0.0690 0.0590
6.964000 0.0490 0.0420 0.0390 0.0370 0.0340
6.998063 0.0370 0.0860 0.1030 0.1220 0.1580
7.032000 0.2040 0.2510 0.2920 0.3120 0.3380
7.066063 0.3580 0.3770 0.3940 0.4060 0.4180
7.100000 0.4230 0.4250 0.4280 0.4310 0.4350
7.134063 0.4350 0.4310 0.4160 0.4030 0.3890
7.168000 0.3720 0.3480 0.3180 0.2870 0.2500
7.202063 0.2040 0.1630 0.1250 0.1240 0.1290
7.236000 0.1760 0.2170 0.2600 0.3070 0.3450
7.270063 0.3740 0.3970 0.4080 0.4130 0.4130
7.304000 0.4160 0.4280 0.4470 0.4650 0.4760
7.338063 0.4760 0.4720 0.4570 0.4500 0.4450
7.373000 0.4430 0.4430 0.4430 0.4430 0.4130
7.407063 0.3790 0.3520 0.3500 0.3620 0.3990
7.441000 0.4380 0.4650 0.4910 0.5010 0.5010
7.475063 0.4930 0.4720 0.4550 0.4310 0.3970
7.509000 0.3720 0.3520 0.3480 0.3530 0.3820
7.543063 0.4110 0.4330 0.4520 0.4640 0.4770
7.577000 0.4960 0.5030 0.5100 0.5170 0.5230
7.611063 0.5270 0.5300 0.5250 0.5060 0.4860
7.645000 0.4670 0.4520 0.4470 0.4370 0.4370
7.679063 0.4600 0.4770 0.4880 0.5030 0.5180
7.713000 0.5370 0.5470 0.5570 0.5680 0.5730
7.747063 0.5740 0.5810 0.5850 0.5930 0.5980
7.781000 0.6020 0.6070 0.6170 0.6370 0.6470
7.815063 0.6560 0.6610 0.6640 0.6710 0.6730
7.849000 0.6750 0.6800 0.6810 0.6850 0.6870
7.883063 0.6850 0.6830 0.6810 0.6800 0.6750
7.917000 0.6680 0.6610 0.6510 0.6420 0.6270
7.951063 0.6170 0.5910 0.5830 0.5830 0.5910
7.985000 0.5980 0.6100 0.6130 0.6170 0.6200
8.019063 0.6200 0.6020 0.5760 0.5620 0.5490
8.054000 0.5420 0.5420 0.5440 0.5680 0.5910
8.088063 0.6070 0.6130 0.6200 0.6240 0.6340
8.122000 0.6470 0.6560 0.6640 0.6710 0.6710
8.156063 0.6750 0.6800 0.6810 0.6810 0.6800
8.190000 0.6760 0.6680 0.6610 0.6540 0.6510
8.224063 0.6510 0.6510 0.6490 0.6490 0.6410
8.258000 0.6300 0.6250 0.6240 0.6150 0.6120
8.292063 0.6100 0.6120 0.6130 0.6200 0.6290
8.326000 0.6410 0.6560 0.6700 0.6760 0.6870
8.360063 0.6970 0.7020 0.7050 0.7140 0.7140
8.394000 0.7190 0.7260 0.7320 0.7340 0.7380
8.428063 0.7390 0.7390 0.7410 0.7460 0.7510
8.462000 0.7560 0.7580 0.7580 0.7580 0.7600
8.496063 0.7600 0.7610 0.7630 0.7650 0.7650
8.530000 0.7670 0.7650 0.7650 0.7650 0.7650
8.564063 0.7670 0.7650 0.7630 0.7630 0.7630
8.598000 0.7630 0.7630 0.7680 0.7680 0.7680
8.632063 0.7680 0.7680 0.7680 0.7680 0.7680
8.666000 0.7670 0.7650 0.7650 0.7650 0.7650
8.700063 0.7650 0.7630 0.7610 0.7600 0.7600
8.734000 0.7600 0.7600 0.7580 0.7580 0.7510
8.768063 0.7480 0.7410 0.7360 0.7360 0.7320
8.803000 0.7310 0.7290 0.7270 0.7260 0.7240
8.837063 0.7220 0.7190 0.7190 0.7100 0.7020
8.871000 0.6970 0.6900 0.6800 0.6730 0.6580
8.905063 0.6410 0.6240 0.6000 0.5710 0.5320
8.939000 0.4860 0.4280 0.3740 0.3330 0.3060
8.973063 0.2870 0.2780 0.2770 0.2800 0.3280
9.007000 0.3580 0.3740 0.3970 0.4260 0.4600
9.041063 0.4940 0.5280 0.5570 0.5810 0.5950
9.075000 0.6070 0.6240 0.6360 0.6460 0.6510
9.109063 0.6610 0.6660 0.6710 0.6760 0.6800
9.143000 0.6800 0.6830 0.6850 0.6880 0.6870
9.177063 0.6880 0.6880 0.6880 0.6900 0.6920
9.211000 0.6930 0.6930 0.6930 0.6930 0.6930
9.245063 0.6930 0.6920 0.6920 0.6880 0.6870
9.279000 0.6830 0.6810 0.6800 0.6800 0.6800
9.313063 0.6830 0.6810 0.6760 0.6730 0.6730
9.347000 0.6730 0.6730 0.6730 0.6780 0.6800
9.381063 0.6830 0.6870 0.6920 0.6980 0.7040
9.415000 0.7050 0.7050 0.7040 0.7020 0.6980
9.449063 0.6920 0.6870 0.6810 0.6810 0.6810
9.483000 0.6870 0.6920 0.7000 0.7050 0.7150
9.517063 0.7220 0.7290 0.7320 0.7380 0.7390
9.552000 0.7390 0.7410 0.7430 0.7460 0.7480
9.586063 0.7500 0.7500 0.7510 0.7530 0.7560
9.620000 0.7580 0.7560 0.7580 0.7580 0.7600
9.654063 0.7600 0.7600 0.7610 0.7610 0.7610
9.688000 0.7600 0.7610 0.7610 0.7610 0.7610
9.722063 0.7610 0.7630 0.7630 0.7630 0.7630
9.756000 0.7630 0.7630 0.7630 0.7630 0.7630
9.790063 0.7630 0.7610 0.7600 0.7580 0.7580
9.824000 0.7580 0.7580 0.7580 0.7560 0.7530
9.858063 0.7500 0.7440 0.7360 0.7310 0.7290
9.892000 0.7240 0.7210 0.7140 0.7070 0.6970
9.926063 0.6880 0.6810 0.6780 0.6730 0.6710
9.960000 0.6680 0.6680 0.6710 0.6760 0.6880
9.994063 0.6950 0.7070 0.7220 0.7270 0.7340
10.028000 0.7380 0.7390 0.7390 0.7410 0.7480
10.062063 0.7500 0.7510 0.7510 0.7530 0.7530
10.096000 0.7550 0.7550 0.7560 0.7580 0.7580
10.130063 0.7560 0.7560 0.7550 0.7510 0.7500
10.164000 0.7440 0.7340 0.7270 0.7270 0.7220
10.198063 0.7190 0.7120 0.7050 0.6970 0.6950
10.232000 0.6900 0.6880 0.6870 0.6830 0.6800
10.266063 0.6780 0.6760 0.6760 0.6780 0.6800
10.301000 0.6800 0.6810 0.6830 0.6830 0.6880
10.335063 0.6950 0.7020 0.7050 0.7090 0.7090
10.369000 0.7100 0.7170 0.7220 0.7260 0.7270
10.403063 0.7310 0.7320 0.7360 0.7380 0.7380
10.437000 0.7380 0.7380 0.7390 0.7390 0.7380
10.471063 0.7360 0.7360 0.7290 0.7290 0.7290
10.505000 0.7310 0.7340 0.7310 0.7290 0.7270
10.539063 0.7270 0.7220 0.7170 0.7150 0.7120
10.573000 0.7100 0.7090 0.7050 0.7040 0.6950
10.607063 0.6870 0.6780 0.6680 0.6590 0.6490
10.641000 0.6390 0.6250 0.6120 0.5950 0.5760
10.675063 0.5540 0.5280 0.5060 0.4880 0.4670
10.709000 0.4480 0.4260 0.4060 0.3860 0.3620
10.743063 0.3360 0.3260 0.3230 0.3120 0.3120
10.777000 0.3210 0.3330 0.3530 0.3750 0.3970
10.811063 0.4140 0.4310 0.4430 0.4550 0.4650
10.845000 0.4740 0.4790 0.4880 0.4910 0.4980
10.879063 0.4980 0.4980 0.4890 0.4790 0.4710
10.913000 0.4600 0.4450 0.4310 0.4210 0.4130
10.947063 0.4130 0.4160 0.4200 0.4330 0.4520
10.982000 0.4720 0.4940 0.5150 0.5370 0.5570
11.016063 0.5740 0.5910 0.6030 0.6150 0.6270
11.050000 0.6440 0.6540 0.6590 0.6680 0.6710
11.084063 0.6730 0.6750 0.6780 0.6760 0.6730
11.118000 0.6700 0.6700 0.6640 0.6540 0.6440
11.152063 0.6320 0.6190 0.6030 0.5900 0.5790
11.186000 0.5690 0.5610 0.5640 0.5790 0.5850
11.220063 0.5950 0.6050 0.6200 0.6370 0.6460
11.254000 0.6630 0.6750 0.6830 0.6950 0.7000
11.288063 0.7090 0.7120 0.7170 0.7170 0.7210
11.322000 0.7220 0.7260 0.7270 0.7270 0.7270
11.356063 0.7270 0.7260 0.7240 0.7240 0.7240
11.390000 0.7220 0.7190 0.7140 0.7070 0.7000
11.424063 0.6980 0.6980 0.7000 0.7070 0.7140
11.458000 0.7190 0.7220 0.7260 0.7290 0.7310
11.492063 0.7340 0.7360 0.7380 0.7390 0.7410
11.526000 0.7410 0.7410 0.7480 0.7500 0.7500
11.560063 0.7510 0.7510 0.7500 0.7460 0.7440
11.594000 0.7410 0.7460 0.7480 0.7500 0.7500
11.628063 0.7500 0.7500 0.7500 0.7510 0.7530
11.662000 0.7530 0.7510 0.7510 0.7500 0.7500
11.696063 0.7500 0.7500 0.7480 0.7480 0.7480
11.731000 0.7500 0.7500 0.7500 0.7500 0.7500
11.765063 0.7500 0.7440 0.7430 0.7380 0.7380
11.799000 0.7340 0.7340 0.7340 0.7340 0.7340
11.833063 0.7340 0.7320 0.7320 0.7320 0.7310
11.867000 0.7310 0.7290 0.7290 0.7270 0.7270
11.901063 0.7260 0.7210 0.7210 0.7190 0.7190
11.935000 0.7120 0.7090 0.7040 0.7000 0.6980
11.969063 0.6970 0.6930 0.6900 0.6880 0.6830
12.003000 0.6780 0.6700 0.6630 0.6560 0.6460
12.037063 0.6420 0.6360 0.6250 0.6150 0.6050
12.071000 0.5960 0.5780 0.5660 0.5520 0.5440
12.105063 0.5270 0.5150 0.5010 0.4960 0.4890
12.139000 0.4820 0.4820 0.4810 0.4820 0.4840
12.173063 0.4880 0.4910 0.4980 0.5100 0.5250
12.207000 0.5390 0.5510 0.5560 0.5680 0.5790
12.241063 0.5900 0.6000 0.6050 0.6100 0.6130
12.275000 0.6190 0.6190 0.6190 0.6190 0.6190
12.309063 0.6190 0.6190 0.6190 0.6200 0.6190
12.343000 0.6190 0.6190 0.6200 0.6220 0.6220
12.377063 0.6240 0.6290 0.6290 0.6300 0.6320
12.411000 0.6300 0.6290 0.6220 0.6200 0.6150
12.445063 0.6120 0.6080 0.6020 0.5980 0.5910
12.480000 0.5880 0.5810 0.5790 0.5790 0.5790
12.514063 0.5790 0.5790 0.5790 0.5790 0.5790
12.548000 0.5790 0.5790 0.5810 0.5790 0.5790
12.582063 0.5790 0.5790 0.5790 0.5790 0.5790
12.616000 0.5780 0.5760 0.5730 0.5710 0.5660
12.650063 0.5610 0.5590 0.5570 0.5520 0.5510
12.684000 0.5470 0.5440 0.5420 0.5400 0.5400
12.718063 0.5400 0.5400 0.5370 0.5340 0.5320
12.752000 0.5300 0.5270 0.5250 0.5250 0.5250
12.786063 0.5250 0.5250 0.5250 0.5270 0.5280
12.820000 0.5280 0.5300 0.5300 0.5320 0.5340
12.854063 0.5370 0.5400 0.5450 0.5510 0.5520
12.888000 0.5590 0.5620 0.5680 0.5690 0.5710
12.922063 0.5730 0.5760 0.5780 0.5790 0.5810
12.956000 0.5810 0.5810 0.5790 0.5790 0.5790
12.990063 0.5790 0.5790 0.5790 0.5790 0.5780
13.024000 0.5780 0.5760 0.5760 0.5740 0.5710
13.058063 0.5690 0.5690 0.5680 0.5680 0.5680
13.092000 0.5640 0.5620 0.5590 0.5520 0.5510
13.126063 0.5470 0.5440 0.5420 0.5390 0.5340
13.161000 0.5300 0.5280 0.5220 0.5180 0.5180
13.195063 0.5130 0.5060 0.4980 0.4930 0.4890
13.229000 0.4810 0.4740 0.4690 0.4620 0.4550
13.263063 0.4520 0.4450 0.4420 0.4370 0.4310
13.297000 0.4250 0.4140 0.4040 0.4010 0.3970
13.331063 0.3910 0.3870 0.3800 0.3790 0.3720
13.365000 0.3690 0.3630 0.3580 0.3550 0.3520
13.399063 0.3480 0.3410 0.3350 0.3330 0.3290
13.433000 0.3230 0.3180 0.3140 0.3110 0.3040
13.467063 0.2990 0.2950 0.2890 0.2820 0.2750
13.501000 0.2720 0.2700 0.2680 0.2630 0.2610
13.535063 0.2600 0.2580 0.2560 0.2580 0.2600
13.569000 0.2610 0.2650 0.2680 0.2750 0.2820
13.603063 0.2890 0.2920 0.2950 0.2990 0.3020
13.637000 0.3090 0.3120 0.3140 0.3110 0.3090
13.671063 0.3020 0.3010 0.2970 0.2950 0.2920
13.705000 0.2920 0.2920 0.2970 0.3010 0.3060
13.739063 0.3160 0.3260 0.3350 0.3460 0.3580
13.773000 0.3720 0.3890 0.4090 0.4310 0.4520
13.807063 0.4690 0.4820 0.5000 0.5100 0.5230
13.841000 0.5390 0.5510 0.5620 0.5710 0.5790
13.875063 0.5880 0.5950 0.6000 0.6080 0.6150
13.910000 0.6240 0.6300 0.6370 0.6410 0.6440
13.944063 0.6490 0.6560 0.6640 0.6680 0.6700
13.978000 0.6700 0.6710 0.6710 0.6780 0.6800
14.012063 0.6830 0.6870 0.6900 0.6920 0.6920
14.046000 0.6930 0.6970 0.6970 0.6980 0.6980
14.080063 0.6980 0.7000 0.7040 0.7090 0.7120
14.114000 0.7120 0.7140 0.7150 0.7150 0.7170
14.148063 0.7190 0.7210 0.7210 0.7220 0.7220
14.182000 0.7240 0.7260 0.7270 0.7270 0.7290
14.216063 0.7290 0.7290 0.7310 0.7310 0.7320
14.250000 0.7310 0.7320 0.7320 0.7340 0.7360
14.284063 0.7360 0.7380 0.7380 0.7390 0.7380
14.318000 0.7380 0.7380 0.7390 0.7410 0.7430
14.352063 0.7430 0.7440 0.7460 0.7480 0.7480
14.386000 0.7480 0.7480 0.7480 0.7480 0.7480
14.420063 0.7480 0.7480 0.7480 0.7480 0.7480
14.454000 0.7480 0.7480 0.7480 0.7480 0.7480
14.488063 0.7480 0.7480 0.7480 0.7480 0.7480
14.522000 0.7480 0.7480 0.7440 0.7440 0.7440
14.556063 0.7480 0.7480 0.7480 0.7480 0.7480
14.590000 0.7480 0.7480 0.7480 0.7480 0.7480
14.624063 0.7480 0.7460 0.7430 0.7430 0.7480
14.659000 0.7480 0.7480 0.7390 0.7390 0.7390
14.693063 0.7390 0.7440 0.7500 0.7500 0.7480
14.727000 0.7480 0.7440 0.7430 0.7430 0.7430
14.761063 0.7480 0.7480 0.7460 0.7460 0.7480
14.795000 0.7480 0.7480 0.7480 0.7410 0.7430
14.829063 0.7440 0.7440 0.7480 0.7480 0.7430
14.863000 0.7410 0.7390 0.7390 0.7390 0.7390
14.897063 0.7390 0.7390 0.7410 0.7410 0.7410
14.931000 0.7390 0.7390 0.7390 0.7390 0.7390
14.965063 0.7390 0.7390 0.7380 0.7360 0.7340
14.999000 0.7310 0.7290 0.7260 0.7220 0.7190
15.033063 0.7150 0.7100 0.7090 0.7090 0.7090
15.067000 0.7090 0.7090 0.7100 0.7140 0.7170
15.101063 0.7190 0.7210 0.7220 0.7260 0.7270
15.135000 0.7290 0.7290 0.7310 0.7320 0.7360
15.169063 0.7380 0.7380 0.7360 0.7340 0.7320
15.203000 0.7320 0.7310 0.7290 0.7310 0.7290
15.237063 0.7290 0.7290 0.7270 0.7260 0.7270
15.271000 0.7270 0.7270 0.7260 0.7240 0.7190
15.305063 0.7150 0.7150 0.7190 0.7210 0.7210
15.339000 0.7190 0.7170 0.7170 0.7170 0.7170
15.373063 0.7150 0.7170 0.7150 0.7140 0.7140
15.408000 0.7120 0.7140 0.7150 0.7150 0.7150
15.442063 0.7120 0.7120 0.7120 0.7100 0.7100
15.476000 0.7070 0.7070 0.7050 0.7040 0.7040
15.510063 0.7020 0.7020 0.7000 0.6980 0.6970
15.544000 0.6970 0.6970 0.6970 0.6970 0.6970
15.578063 0.6980 0.6980 0.6980 0.6980 0.6980
15.612000 0.6970 0.6970 0.6970 0.6950 0.6930
15.646063 0.6920 0.6900 0.6880 0.6900 0.6920
15.680000 0.6930 0.6920 0.6900 0.6880 0.6880
15.714063 0.6870 0.6870 0.6850 0.6830 0.6800
15.748000 0.6800 0.6800 0.6800 0.6800 0.6810
15.782063 0.6830 0.6870 0.6850 0.6830 0.6810
15.816000 0.6800 0.6780 0.6760 0.6760 0.6750
15.850063 0.6750 0.6750 0.6750 0.6750 0.6760
15.884000 0.6760 0.6760 0.6760 0.6730 0.6710
15.918063 0.6710 0.6730 0.6710 0.6700 0.6680
15.952000 0.6660 0.6640 0.6610 0.6590 0.6590
15.986063 0.6590 0.6590 0.6590
##END=
