##TITLE=1,4-BUTANEDINITRILE
##JCAMP-DX=4.24
##DATA TYPE=INFRARED SPECTRUM
##CLASS=COBLENTZ III
##ORIGIN=DOW CHEMICAL COMPANY
##OWNER=COBLENTZ SOCIETY
Collection (C) 2018 copyright by the U.S. Secretary of Commerce
on behalf of the United States of America. All rights reserved.
##DATE=1964/11/02
##NAMES=succinonitrile
SUCCINONITRILE
##CAS REGISTRY NO=110-61-2
##MOLFORM=C4 H4 N2
##SOURCE REFERENCE=COBLENTZ NO. 10256
##$NIST SOURCE=COBLENTZ
##$NIST IMAGE=cob10256
##SPECTROMETER/DATA SYSTEM=DOW KBr FOREPRISM-GRATING
##INSTRUMENT PARAMETERS=BLAZED AT 3.5, 12.0, 20.0 MICRON, CHANGED AT 5.0, 7.5, 14.9 MICRON
##STATE=LIQUID (NEAT)
##PATH LENGTH=SMEAR, KBr CRYSTALS
##SAMPLING PROCEDURE=TRANSMISSION
##RESOLUTION=4
##DATA PROCESSING=DIGITIZED BY NIST FROM HARD COPY (FROM TWO SEGMENTS)
##XUNITS=1/CM
##YUNITS=TRANSMITTANCE
##XFACTOR=1.000000
##YFACTOR=1
##DELTAX=0.851790
##FIRSTX=455.707
##LASTX=3794.72
##FIRSTY=0.901
##MAXX=3794.72
##MINX=455.707
##MAXY=0.994
##MINY=0.109
##NPOINTS=3921
##XYDATA=(X++(Y..Y))
455.707000 0.9010 0.9000 0.8980 0.8960 0.8920
459.965949 0.8880 0.8840 0.8800 0.8760 0.8720
464.224897 0.8700 0.8620 0.8570 0.8520 0.8450
468.483846 0.8370 0.8290 0.8200 0.8120 0.8011
472.742795 0.7900 0.7770 0.7640 0.7490 0.7330
477.001743 0.7151 0.6961 0.6880 0.6601 0.6391
481.260692 0.6250 0.6160 0.6150 0.6150 0.6170
485.519640 0.6270 0.6370 0.6599 0.6769 0.7068
489.778589 0.7430 0.8009 0.8399 0.8610 0.8780
494.037538 0.8939 0.9040 0.9130 0.9170 0.9220
498.296486 0.9250 0.9280 0.9290 0.9300 0.9320
502.555435 0.9320 0.9320 0.9330 0.9330 0.9340
506.814384 0.9340 0.9340 0.9340 0.9340 0.9340
511.073332 0.9330 0.9320 0.9320 0.9320 0.9300
515.332281 0.9290 0.9290 0.9290 0.9290 0.9290
519.591230 0.9300 0.9320 0.9320 0.9330 0.9330
523.850178 0.9320 0.9280 0.9250 0.9220 0.9170
528.109127 0.9130 0.9120 0.9090 0.9090 0.9130
532.368076 0.9180 0.9210 0.9260 0.9320 0.9340
536.627024 0.9380 0.9410 0.9420 0.9440 0.9440
540.885973 0.9460 0.9480 0.9480 0.9490 0.9490
545.144921 0.9490 0.9490 0.9490 0.9490 0.9490
549.403870 0.9490 0.9500 0.9500 0.9520 0.9520
553.662819 0.9520 0.9530 0.9530 0.9530 0.9530
557.921767 0.9520 0.9520 0.9530 0.9530 0.9520
562.180716 0.9520 0.9520 0.9520 0.9500 0.9500
566.439665 0.9500 0.9490 0.9480 0.9480 0.9450
570.698613 0.9440 0.9420 0.9410 0.9400 0.9400
574.957562 0.9400 0.9400 0.9400 0.9400 0.9400
579.216511 0.9400 0.9370 0.9370 0.9340 0.9340
583.475459 0.9340 0.9330 0.9330 0.9320 0.9280
587.734408 0.9250 0.9240 0.9180 0.9130 0.9090
591.993356 0.9010 0.8940 0.8900 0.8760 0.8580
596.252305 0.8400 0.8250 0.8041 0.7821 0.7243
600.511254 0.6730 0.6320 0.6080 0.5750 0.5161
604.770202 0.4901 0.4800 0.4800 0.4989 0.5119
609.029151 0.5290 0.6070 0.6749 0.6920 0.7199
613.288100 0.7798 0.8159 0.8409 0.8559 0.8699
617.547048 0.8780 0.8850 0.8900 0.8930 0.9000
621.805997 0.9050 0.9060 0.9100 0.9120 0.9130
626.064946 0.9160 0.9170 0.9200 0.9220 0.9250
630.323894 0.9320 0.9340 0.9360 0.9370 0.9410
634.582843 0.9440 0.9460 0.9490 0.9520 0.9540
638.841791 0.9560 0.9570 0.9600 0.9620 0.9640
643.100740 0.9660 0.9680 0.9690 0.9700 0.9720
647.359689 0.9740 0.9760 0.9770 0.9800 0.9800
651.618637 0.9800 0.9810 0.9810 0.9820 0.9820
655.877586 0.9840 0.9840 0.9850 0.9850 0.9860
660.136535 0.9860 0.9880 0.9880 0.9880 0.9890
664.395483 0.9890 0.9890 0.9890 0.9900 0.9900
668.654432 0.9900 0.9900 0.9920 0.9920 0.9920
672.913381 0.9920 0.9920 0.9930 0.9930 0.9930
677.172329 0.9930 0.9930 0.9930 0.9930 0.9930
681.431278 0.9930 0.9930 0.9930 0.9930 0.9930
685.690227 0.9930 0.9930 0.9930 0.9920 0.9920
689.949175 0.9920 0.9920 0.9920 0.9900 0.9880
694.208124 0.9880 0.9860 0.9860 0.9860 0.9840
698.467072 0.9840 0.9810 0.9800 0.9770 0.9730
702.726021 0.9690 0.9640 0.9610 0.9580 0.9570
706.984970 0.9540 0.9440 0.9400 0.9300 0.9200
711.243918 0.9100 0.8960 0.8920 0.8820 0.8780
715.502867 0.8760 0.8730 0.8760 0.8770 0.8780
719.761816 0.8810 0.8890 0.8920 0.8940 0.9000
724.020764 0.9050 0.9120 0.9140 0.9160 0.9170
728.279713 0.9180 0.9200 0.9200 0.9200 0.9180
732.538662 0.9160 0.9130 0.9120 0.9060 0.9010
736.797610 0.8940 0.8920 0.8880 0.8800 0.8700
741.056559 0.8610 0.8540 0.8480 0.8410 0.8330
745.315507 0.8250 0.8220 0.8220 0.8220 0.8220
749.574456 0.8240 0.8240 0.8240 0.8240 0.8210
753.833405 0.8160 0.8120 0.8020 0.7960 0.7820
758.092353 0.7740 0.7650 0.7321 0.7081 0.6722
762.351302 0.6450 0.6360 0.6360 0.6410 0.6470
766.610251 0.6610 0.6789 0.6999 0.7289 0.7599
770.869199 0.7800 0.7980 0.8120 0.8160 0.8220
775.128148 0.8330 0.8370 0.8420 0.8500 0.8530
779.387097 0.8580 0.8620 0.8690 0.8730 0.8780
783.646045 0.8840 0.8920 0.8940 0.8980 0.9040
787.904994 0.9120 0.9130 0.9160 0.9170 0.9180
792.163942 0.9180 0.9200 0.9200 0.9180 0.9180
796.422891 0.9170 0.9160 0.9140 0.9100 0.9060
800.681840 0.9020 0.8980 0.8930 0.8900 0.8761
804.940788 0.8690 0.8530 0.8340 0.8240 0.8090
809.199737 0.7890 0.7661 0.7251 0.7001 0.6920
813.458686 0.6810 0.6750 0.6670 0.6610 0.6550
817.717634 0.6470 0.6370 0.6230 0.6170 0.6210
821.976583 0.6250 0.6320 0.6450 0.6610 0.6920
826.235532 0.7249 0.7469 0.7899 0.8020 0.8418
830.494480 0.8700 0.8920 0.8960 0.9040 0.9120
834.753429 0.9160 0.9220 0.9260 0.9330 0.9340
839.012378 0.9370 0.9400 0.9440 0.9480 0.9530
843.271326 0.9560 0.9580 0.9620 0.9650 0.9660
847.530275 0.9700 0.9730 0.9770 0.9780 0.9810
851.789223 0.9820 0.9840 0.9850 0.9850 0.9860
856.048172 0.9860 0.9860 0.9880 0.9880 0.9880
860.307121 0.9890 0.9900 0.9900 0.9900 0.9900
864.566069 0.9900 0.9900 0.9900 0.9900 0.9900
868.825018 0.9900 0.9890 0.9890 0.9890 0.9900
873.083967 0.9900 0.9900 0.9900 0.9900 0.9900
877.342915 0.9900 0.9900 0.9890 0.9890 0.9890
881.601864 0.9890 0.9890 0.9890 0.9890 0.9890
885.860813 0.9890 0.9890 0.9880 0.9880 0.9880
890.119761 0.9880 0.9860 0.9860 0.9850 0.9840
894.378710 0.9820 0.9820 0.9810 0.9800 0.9810
898.637658 0.9810 0.9800 0.9770 0.9740 0.9700
902.896607 0.9680 0.9650 0.9600 0.9560 0.9480
907.155556 0.9410 0.9340 0.9320 0.9260 0.9120
911.414504 0.8851 0.8730 0.8561 0.8201 0.7852
915.673453 0.7620 0.6800 0.6450 0.6320 0.6470
919.932402 0.6630 0.7268 0.7838 0.8119 0.8608
924.191350 0.8780 0.8940 0.9130 0.9240 0.9340
928.450299 0.9410 0.9460 0.9500 0.9560 0.9560
932.709248 0.9570 0.9570 0.9570 0.9570 0.9560
936.968196 0.9540 0.9540 0.9540 0.9500 0.9450
941.227145 0.9420 0.9370 0.9340 0.9330 0.9250
945.486093 0.9200 0.9140 0.9120 0.9050 0.9000
949.745042 0.8920 0.8760 0.8540 0.8340 0.8170
954.003991 0.7980 0.7850 0.7720 0.7271 0.6652
958.262939 0.6109 0.5530 0.4960 0.4390 0.3821
962.521888 0.3231 0.3230 0.3709 0.3989 0.4199
966.780837 0.4901 0.6160 0.6430 0.7160 0.7809
971.039785 0.8159 0.8479 0.8520 0.8610 0.8730
975.298734 0.8820 0.8920 0.8960 0.9010 0.9050
979.557683 0.9090 0.9120 0.9130 0.9130 0.9130
983.816631 0.9120 0.9120 0.9060 0.9020 0.8980
988.075580 0.8960 0.8930 0.8850 0.8740 0.8680
992.334529 0.8500 0.8360 0.8130 0.7960 0.7581
996.593477 0.7311 0.6761 0.6242 0.5732 0.5232
1000.852426 0.4680 0.3990 0.3630 0.3630 0.3880
1005.111374 0.4159 0.4589 0.5238 0.6206 0.6429
1009.370323 0.6690 0.7880 0.8400 0.8520 0.8610
1013.629272 0.8720 0.8800 0.8920 0.8970 0.9050
1017.888220 0.9090 0.9120 0.9120 0.9120 0.9100
1022.147169 0.9100 0.9100 0.9080 0.9080 0.9060
1026.406118 0.9050 0.9050 0.9060 0.9080 0.9130
1030.665066 0.9170 0.9250 0.9280 0.9320 0.9340
1034.924015 0.9370 0.9400 0.9420 0.9450 0.9460
1039.182964 0.9490 0.9500 0.9540 0.9560 0.9560
1043.441912 0.9560 0.9570 0.9580 0.9610 0.9620
1047.700861 0.9640 0.9650 0.9650 0.9660 0.9680
1051.959809 0.9690 0.9700 0.9720 0.9730 0.9730
1056.218758 0.9730 0.9730 0.9730 0.9730 0.9730
1060.477707 0.9740 0.9740 0.9740 0.9740 0.9740
1064.736655 0.9740 0.9740 0.9740 0.9740 0.9730
1068.995604 0.9730 0.9730 0.9730 0.9720 0.9720
1073.254553 0.9720 0.9700 0.9700 0.9720 0.9720
1077.513501 0.9720 0.9720 0.9720 0.9720 0.9730
1081.772450 0.9740 0.9760 0.9760 0.9770 0.9770
1086.031399 0.9770 0.9780 0.9780 0.9780 0.9800
1090.290347 0.9800 0.9810 0.9820 0.9840 0.9850
1094.549296 0.9850 0.9850 0.9850 0.9860 0.9860
1098.808245 0.9860 0.9880 0.9880 0.9880 0.9880
1103.067193 0.9880 0.9880 0.9880 0.9880 0.9880
1107.326142 0.9880 0.9880 0.9860 0.9860 0.9860
1111.585090 0.9860 0.9860 0.9860 0.9860 0.9860
1115.844039 0.9860 0.9860 0.9860 0.9850 0.9850
1120.102988 0.9850 0.9850 0.9850 0.9860 0.9860
1124.361936 0.9860 0.9860 0.9860 0.9860 0.9880
1128.620885 0.9880 0.9880 0.9860 0.9850 0.9850
1132.879834 0.9850 0.9850 0.9850 0.9840 0.9810
1137.138782 0.9810 0.9800 0.9800 0.9780 0.9770
1141.397731 0.9770 0.9760 0.9770 0.9770 0.9780
1145.656680 0.9780 0.9780 0.9780 0.9780 0.9770
1149.915628 0.9770 0.9780 0.9770 0.9770 0.9770
1154.174577 0.9770 0.9760 0.9740 0.9740 0.9740
1158.433525 0.9730 0.9730 0.9700 0.9690 0.9690
1162.692474 0.9690 0.9680 0.9680 0.9660 0.9650
1166.951423 0.9640 0.9620 0.9600 0.9580 0.9560
1171.210371 0.9560 0.9560 0.9540 0.9500 0.9460
1175.469320 0.9440 0.9410 0.9400 0.9360 0.9340
1179.728269 0.9300 0.9280 0.9280 0.9280 0.9260
1183.987217 0.9260 0.9240 0.9200 0.9160 0.9130
1188.246166 0.9060 0.9040 0.8940 0.8850 0.8720
1192.505115 0.8570 0.8520 0.8340 0.8171 0.7861
1196.764063 0.7660 0.7600 0.7580 0.7600 0.7650
1201.023012 0.7850 0.7890 0.8000 0.8160 0.8299
1205.281960 0.8440 0.8530 0.8600 0.8650 0.8720
1209.540909 0.8740 0.8770 0.8800 0.8810 0.8810
1213.799858 0.8800 0.8780 0.8760 0.8740 0.8740
1218.058806 0.8730 0.8720 0.8640 0.8560 0.8480
1222.317755 0.8360 0.8290 0.8130 0.8010 0.7890
1226.576704 0.7760 0.7580 0.7331 0.7171 0.6802
1230.835652 0.6710 0.6610 0.6600 0.6630 0.6730
1235.094601 0.6880 0.6970 0.7159 0.7329 0.7489
1239.353550 0.7680 0.8220 0.8380 0.8560 0.8620
1243.612498 0.8700 0.8760 0.8820 0.8860 0.8920
1247.871447 0.8920 0.8940 0.8960 0.8970 0.8980
1252.130396 0.8980 0.9000 0.9000 0.9010 0.9000
1256.389344 0.8980 0.8970 0.8960 0.8940 0.8930
1260.648293 0.8920 0.8920 0.8860 0.8840 0.8770
1264.907241 0.8720 0.8640 0.8570 0.8520 0.8400
1269.166190 0.8330 0.8160 0.8100 0.7960 0.7940
1273.425139 0.7960 0.8100 0.8160 0.8320 0.8480
1277.684087 0.8540 0.8680 0.8690 0.8800 0.8820
1281.943036 0.8900 0.8920 0.8920 0.8930 0.8930
1286.201985 0.8940 0.8960 0.8960 0.8970 0.8970
1290.460933 0.8970 0.8960 0.8960 0.8960 0.8960
1294.719882 0.8960 0.8960 0.8940 0.8940 0.8930
1298.978831 0.8920 0.8920 0.8890 0.8890 0.8880
1303.237779 0.8860 0.8850 0.8840 0.8810 0.8800
1307.496728 0.8770 0.8740 0.8730 0.8660 0.8620
1311.755676 0.8560 0.8540 0.8490 0.8410 0.8330
1316.014625 0.8210 0.8050 0.7940 0.7850 0.7730
1320.273574 0.7690 0.7690 0.7700 0.7700 0.7690
1324.532522 0.7660 0.7610 0.7580 0.7450 0.7320
1328.791471 0.7200 0.6960 0.6720 0.6680 0.6610
1333.050420 0.6350 0.6170 0.5950 0.5570 0.5270
1337.309368 0.5110 0.5030 0.5000 0.4990 0.5000
1341.568317 0.5390 0.5670 0.5890 0.6290 0.6530
1345.827266 0.7109 0.7330 0.7609 0.7899 0.7980
1350.086214 0.8080 0.8140 0.8200 0.8210 0.8220
1354.345163 0.8250 0.8260 0.8280 0.8290 0.8290
1358.604111 0.8320 0.8320 0.8330 0.8340 0.8360
1362.863060 0.8370 0.8380 0.8380 0.8380 0.8380
1367.122009 0.8370 0.8360 0.8340 0.8340 0.8330
1371.380957 0.8320 0.8300 0.8300 0.8240 0.8200
1375.639906 0.8170 0.8130 0.8060 0.8010 0.7980
1379.898855 0.7960 0.7800 0.7690 0.7600 0.7500
1384.157803 0.7430 0.7360 0.7320 0.7280 0.7250
1388.416752 0.7200 0.7200 0.7110 0.7040 0.6960
1392.675701 0.6920 0.6870 0.6800 0.6760 0.6710
1396.934649 0.6670 0.6630 0.6610 0.6530 0.6450
1401.193598 0.6320 0.6210 0.6160 0.6040 0.5910
1405.452547 0.5760 0.5630 0.5441 0.5291 0.5200
1409.711495 0.4829 0.4520 0.4220 0.3790 0.3630
1413.970444 0.3240 0.2911 0.2581 0.2391 0.2250
1418.229392 0.2110 0.2020 0.1900 0.1650 0.1550
1422.488341 0.1450 0.1310 0.1270 0.1260 0.1270
1426.747290 0.1310 0.1370 0.1390 0.1460 0.1580
1431.006238 0.1670 0.1670 0.1730 0.1750 0.1770
1435.265187 0.1810 0.1850 0.1990 0.2050 0.2130
1439.524136 0.2420 0.2680 0.3059 0.3190 0.3429
1443.783084 0.3630 0.3900 0.4200 0.4520 0.4790
1448.042033 0.5050 0.5240 0.5689 0.6039 0.6249
1452.300982 0.6450 0.6610 0.6850 0.7030 0.7170
1456.559930 0.7320 0.7450 0.7540 0.7640 0.7740
1460.818879 0.7820 0.7890 0.7960 0.7980 0.8020
1465.077827 0.8060 0.8130 0.8160 0.8200 0.8240
1469.336776 0.8280 0.8320 0.8330 0.8410 0.8420
1473.595725 0.8460 0.8500 0.8530 0.8560 0.8580
1477.854673 0.8610 0.8640 0.8700 0.8720 0.8770
1482.113622 0.8810 0.8820 0.8850 0.8920 0.8920
1486.372571 0.8930 0.8940 0.8980 0.9000 0.9010
1490.631519 0.9040 0.9050 0.9050 0.9060 0.9080
1494.890468 0.9080 0.9090 0.9090 0.9120 0.9120
1499.149417 0.9120 0.9130 0.9140 0.9140 0.9140
1503.408365 0.9140 0.9140 0.9160 0.9180 0.9200
1507.667314 0.9210 0.9240 0.9250 0.9280 0.9330
1511.926262 0.9340 0.9340 0.9360 0.9360 0.9380
1516.185211 0.9410 0.9410 0.9420 0.9440 0.9440
1520.444160 0.9450 0.9460 0.9480 0.9480 0.9490
1524.703108 0.9500 0.9520 0.9520 0.9530 0.9530
1528.962057 0.9530 0.9560 0.9560 0.9570 0.9570
1533.221006 0.9570 0.9570 0.9580 0.9580 0.9580
1537.479954 0.9580 0.9580 0.9580 0.9600 0.9600
1541.738903 0.9600 0.9580 0.9580 0.9580 0.9580
1545.997852 0.9580 0.9580 0.9570 0.9570 0.9560
1550.256800 0.9540 0.9460 0.9420 0.9380 0.9370
1554.515749 0.9340 0.9330 0.9320 0.9300 0.9300
1558.774698 0.9300 0.9300 0.9320 0.9330 0.9360
1563.033646 0.9370 0.9410 0.9420 0.9460 0.9490
1567.292595 0.9520 0.9560 0.9570 0.9580 0.9580
1571.551543 0.9580 0.9600 0.9600 0.9610 0.9610
1575.810492 0.9620 0.9620 0.9610 0.9610 0.9600
1580.069441 0.9600 0.9580 0.9570 0.9570 0.9560
1584.328389 0.9560 0.9560 0.9540 0.9530 0.9530
1588.587338 0.9520 0.9520 0.9520 0.9530 0.9540
1592.846287 0.9560 0.9560 0.9570 0.9580 0.9580
1597.105235 0.9600 0.9610 0.9610 0.9620 0.9640
1601.364184 0.9640 0.9650 0.9650 0.9650 0.9660
1605.623133 0.9660 0.9680 0.9680 0.9680 0.9680
1609.882081 0.9680 0.9680 0.9680 0.9680 0.9680
1614.141030 0.9680 0.9680 0.9680 0.9660 0.9660
1618.399978 0.9660 0.9660 0.9660 0.9660 0.9660
1622.658927 0.9660 0.9660 0.9680 0.9680 0.9700
1626.917876 0.9700 0.9720 0.9720 0.9720 0.9730
1631.176824 0.9740 0.9760 0.9770 0.9770 0.9780
1635.435773 0.9810 0.9820 0.9840 0.9850 0.9850
1639.694722 0.9860 0.9860 0.9880 0.9890 0.9890
1643.953670 0.9890 0.9890 0.9890 0.9890 0.9880
1648.212619 0.9880 0.9860 0.9850 0.9850 0.9850
1652.471568 0.9840 0.9840 0.9820 0.9810 0.9800
1656.730516 0.9800 0.9800 0.9800 0.9780 0.9780
1660.989465 0.9780 0.9780 0.9770 0.9770 0.9770
1665.248414 0.9770 0.9780 0.9780 0.9780 0.9780
1669.507362 0.9780 0.9800 0.9800 0.9810 0.9820
1673.766311 0.9840 0.9840 0.9850 0.9850 0.9850
1678.025259 0.9840 0.9820 0.9840 0.9850 0.9850
1682.284208 0.9860 0.9860 0.9860 0.9860 0.9850
1686.543157 0.9850 0.9860 0.9880 0.9880 0.9880
1690.802105 0.9860 0.9860 0.9860 0.9880 0.9880
1695.061054 0.9880 0.9880 0.9880 0.9880 0.9880
1699.320003 0.9880 0.9880 0.9860 0.9860 0.9860
1703.578951 0.9850 0.9850 0.9850 0.9850 0.9850
1707.837900 0.9840 0.9840 0.9820 0.9810 0.9810
1712.096849 0.9810 0.9810 0.9800 0.9800 0.9800
1716.355797 0.9800 0.9800 0.9810 0.9810 0.9820
1720.614746 0.9820 0.9840 0.9850 0.9860 0.9880
1724.873694 0.9880 0.9890 0.9890 0.9900 0.9900
1729.132643 0.9900 0.9900 0.9900 0.9900 0.9900
1733.391592 0.9900 0.9900 0.9900 0.9900 0.9900
1737.650540 0.9920 0.9920 0.9920 0.9920 0.9900
1741.909489 0.9900 0.9900 0.9900 0.9900 0.9900
1746.168438 0.9900 0.9900 0.9900 0.9900 0.9900
1750.427386 0.9900 0.9900 0.9900 0.9900 0.9900
1754.686335 0.9890 0.9890 0.9880 0.9880 0.9880
1758.945284 0.9880 0.9880 0.9880 0.9860 0.9860
1763.204232 0.9850 0.9850 0.9850 0.9850 0.9840
1767.463181 0.9820 0.9820 0.9810 0.9800 0.9780
1771.722129 0.9780 0.9770 0.9760 0.9760 0.9740
1775.981078 0.9740 0.9740 0.9740 0.9730 0.9720
1780.240027 0.9720 0.9720 0.9720 0.9730 0.9720
1784.498975 0.9720 0.9720 0.9720 0.9720 0.9700
1788.757924 0.9700 0.9700 0.9720 0.9720 0.9720
1793.016873 0.9720 0.9720 0.9720 0.9730 0.9730
1797.275821 0.9740 0.9740 0.9740 0.9760 0.9760
1801.534770 0.9760 0.9740 0.9730 0.9720 0.9700
1805.793719 0.9700 0.9690 0.9690 0.9680 0.9680
1810.052667 0.9660 0.9660 0.9650 0.9640 0.9640
1814.311616 0.9620 0.9620 0.9610 0.9610 0.9610
1818.570565 0.9600 0.9600 0.9610 0.9610 0.9620
1822.829513 0.9640 0.9660 0.9680 0.9690 0.9700
1827.088462 0.9720 0.9730 0.9730 0.9730 0.9740
1831.347410 0.9760 0.9770 0.9770 0.9770 0.9780
1835.606359 0.9780 0.9780 0.9780 0.9780 0.9780
1839.865308 0.9780 0.9800 0.9820 0.9840 0.9850
1844.124256 0.9850 0.9850 0.9850 0.9850 0.9860
1848.383205 0.9860 0.9860 0.9860 0.9850 0.9840
1852.642154 0.9840 0.9820 0.9820 0.9810 0.9800
1856.901102 0.9800 0.9800 0.9800 0.9800 0.9810
1861.160051 0.9810 0.9820 0.9840 0.9850 0.9860
1865.419000 0.9860 0.9860 0.9860 0.9860 0.9880
1869.677948 0.9880 0.9890 0.9890 0.9900 0.9900
1873.936897 0.9900 0.9900 0.9900 0.9900 0.9900
1878.195845 0.9900 0.9900 0.9900 0.9900 0.9900
1882.454794 0.9900 0.9900 0.9900 0.9900 0.9900
1886.713743 0.9900 0.9900 0.9890 0.9890 0.9890
1890.972691 0.9880 0.9860 0.9860 0.9860 0.9860
1895.231640 0.9850 0.9850 0.9860 0.9860 0.9850
1899.490589 0.9850 0.9850 0.9850 0.9850 0.9840
1903.749537 0.9840 0.9840 0.9840 0.9840 0.9840
1908.008486 0.9820 0.9810 0.9810 0.9810 0.9800
1912.267435 0.9800 0.9800 0.9780 0.9780 0.9740
1916.526383 0.9720 0.9690 0.9680 0.9680 0.9660
1920.785332 0.9650 0.9660 0.9660 0.9690 0.9700
1925.044280 0.9720 0.9730 0.9740 0.9770 0.9770
1929.303229 0.9770 0.9780 0.9800 0.9800 0.9810
1933.562178 0.9810 0.9810 0.9840 0.9840 0.9840
1937.821126 0.9850 0.9850 0.9850 0.9850 0.9840
1942.080075 0.9840 0.9840 0.9820 0.9820 0.9840
1946.339024 0.9840 0.9850 0.9850 0.9850 0.9850
1950.597972 0.9860 0.9860 0.9850 0.9850 0.9820
1954.856921 0.9800 0.9770 0.9770 0.9780 0.9800
1959.115870 0.9810 0.9840 0.9850 0.9860 0.9860
1963.374818 0.9850 0.9860 0.9860 0.9880 0.9880
1967.633767 0.9880 0.9880 0.9880 0.9880 0.9880
1971.892716 0.9880 0.9880 0.9880 0.9860 0.9860
1976.151664 0.9850 0.9850 0.9850 0.9850 0.9840
1980.410613 0.9820 0.9810 0.9810 0.9810 0.9810
1984.669561 0.9810 0.9800 0.9800 0.9800 0.9800
1988.928510 0.9800 0.9800 0.9810 0.9810 0.9810
1993.187459 0.9820 0.9820 0.9820 0.9820 0.9820
1997.446407 0.9820 0.9820 0.9820 0.9810 0.9810
2001.705356 0.9810 0.9795 0.9780 0.9780 0.9780
2005.964305 0.9780 0.9780 0.9775 0.9770 0.9770
2010.223253 0.9770 0.9770 0.9770 0.9755 0.9740
2014.482202 0.9735 0.9730 0.9730 0.9730 0.9730
2018.741151 0.9730 0.9730 0.9730 0.9730 0.9730
2023.000099 0.9730 0.9730 0.9730 0.9730 0.9730
2027.259048 0.9730 0.9730 0.9730 0.9730 0.9730
2031.517996 0.9730 0.9730 0.9725 0.9720 0.9710
2035.776945 0.9700 0.9690 0.9680 0.9665 0.9650
2040.035894 0.9631 0.9611 0.9605 0.9600 0.9590
2044.294842 0.9580 0.9580 0.9580 0.9580 0.9580
2048.553791 0.9580 0.9580 0.9590 0.9600 0.9619
2052.812740 0.9639 0.9650 0.9660 0.9660 0.9660
2057.071688 0.9674 0.9689 0.9695 0.9700 0.9710
2061.330637 0.9720 0.9725 0.9730 0.9735 0.9740
2065.589586 0.9749 0.9759 0.9765 0.9770 0.9775
2069.848534 0.9780 0.9790 0.9800 0.9800 0.9800
2074.107483 0.9800 0.9800 0.9800 0.9800 0.9800
2078.366431 0.9800 0.9805 0.9810 0.9815 0.9820
2082.625380 0.9829 0.9839 0.9845 0.9850 0.9850
2086.884329 0.9850 0.9850 0.9850 0.9850 0.9850
2091.143277 0.9855 0.9860 0.9860 0.9860 0.9860
2095.402226 0.9860 0.9860 0.9860 0.9860 0.9860
2099.661175 0.9860 0.9860 0.9860 0.9860 0.9860
2103.920123 0.9860 0.9860 0.9860 0.9860 0.9860
2108.179072 0.9860 0.9860 0.9855 0.9850 0.9845
2112.438021 0.9840 0.9831 0.9821 0.9815 0.9810
2116.696969 0.9810 0.9810 0.9805 0.9800 0.9800
2120.955918 0.9800 0.9786 0.9771 0.9770 0.9770
2125.214867 0.9770 0.9770 0.9770 0.9770 0.9765
2129.473815 0.9760 0.9751 0.9741 0.9731 0.9721
2133.732764 0.9711 0.9701 0.9700 0.9700 0.9695
2137.991712 0.9690 0.9685 0.9680 0.9666 0.9651
2142.250661 0.9646 0.9641 0.9631 0.9621 0.9616
2146.509610 0.9611 0.9610 0.9610 0.9606 0.9601
2150.768558 0.9591 0.9581 0.9580 0.9580 0.9576
2155.027507 0.9571 0.9570 0.9570 0.9574 0.9579
2159.286456 0.9580 0.9580 0.9589 0.9599 0.9604
2163.545404 0.9609 0.9610 0.9610 0.9610 0.9610
2167.804353 0.9610 0.9610 0.9610 0.9610 0.9606
2172.063302 0.9601 0.9587 0.9572 0.9566 0.9561
2176.322250 0.9547 0.9532 0.9508 0.9483 0.9471
2180.581199 0.9461 0.9460 0.9460 0.9456 0.9451
