##TITLE=Furan
##JCAMP-DX=4.24
##DATA TYPE=INFRARED SPECTRUM
##CLASS=COBLENTZ
##ORIGIN=DOW CHEMICAL COMPANY
##OWNER=Copyright (C) 1987 by the Coblentz Society
Collection (C) 2018 copyright by the U.S. Secretary of Commerce
on behalf of the United States of America. All rights reserved.
##DATE=1964
##CAS REGISTRY NO=110-00-9
##MOLFORM=C4 H4 O
##SOURCE REFERENCE=COBLENTZ NO. 8800
##$NIST SOURCE=COBLENTZ
##$NIST IMAGE=cob8800
##SPECTROMETER/DATA SYSTEM=DOW KBr FOREPRISM-GRATING
##INSTRUMENT PARAMETERS=GRATING CHANGED AT 5.0, 7.5, 15.0 MICRON
##STATE=GAS (100 mmHg, N2 ADDED, TOTAL PRESSURE 600 mmHg)
##PATH LENGTH=5 CM
##SAMPLING PROCEDURE=TRANSMISSION
##RESOLUTION=2
##DATA PROCESSING=DIGITIZED BY COBLENTZ SOCIETY (BATCH II) FROM HARD COPY
##XUNITS=1/CM
##YUNITS=TRANSMITTANCE
##XFACTOR=1.0
##YFACTOR=1
##FIRSTX=460
##LASTX=3798
##FIRSTY=0.8613
##MAXX=3798
##MINX=460
##MAXY=0.8894
##MINY=0.0078
##NPOINTS=3339
##XYDATA=(X++(Y..Y))
460.000000 0.8613 0.8614 0.8615 0.8616 0.8617
465.000000 0.8619 0.8618 0.8617 0.8615 0.8613
470.000000 0.8612 0.8610 0.8608 0.8606 0.8605
475.000000 0.8603 0.8601 0.8600 0.8596 0.8591
480.000000 0.8587 0.8582 0.8578 0.8573 0.8569
485.000000 0.8564 0.8560 0.8555 0.8550 0.8543
490.000000 0.8536 0.8530 0.8523 0.8516 0.8509
495.000000 0.8502 0.8496 0.8489 0.8482 0.8475
500.000000 0.8468 0.8460 0.8451 0.8441 0.8432
505.000000 0.8422 0.8413 0.8404 0.8423 0.8385
510.000000 0.8376 0.8366 0.8357 0.8348 0.8339
515.000000 0.8330 0.8321 0.8311 0.8302 0.8295
520.000000 0.8296 0.8297 0.8298 0.8299 0.8301
525.000000 0.8300 0.8297 0.8294 0.8282 0.8270
530.000000 0.8252 0.8246 0.8251 0.8271 0.8292
535.000000 0.8314 0.8327 0.8332 0.8333 0.8335
540.000000 0.8333 0.8329 0.8324 0.8320 0.8316
545.000000 0.8316 0.8316 0.8316 0.8317 0.8320
550.000000 0.8324 0.8327 0.8330 0.8334 0.8345
555.000000 0.8348 0.8344 0.8327 0.8288 0.8249
560.000000 0.8210 0.8170 0.8126 0.8081 0.8036
565.000000 0.7992 0.7888 0.7730 0.7571 0.7413
570.000000 0.7254 0.7095 0.6937 0.6778 0.6620
575.000000 0.6461 0.6303 0.6144 0.5985 0.5827
580.000000 0.5668 0.5510 0.5373 0.5247 0.5100
585.000000 0.4940 0.4786 0.4689 0.4660 0.4655
590.000000 0.4663 0.4680 0.4703 0.4761 0.4854
595.000000 0.5008 0.5305 0.5625 0.5816 0.6007
600.000000 0.6198 0.6367 0.3678 0.0429 0.0433
605.000000 0.1794 0.3133 0.4472 0.5811 0.7149
610.000000 0.7403 0.7410 0.6801 0.6371 0.5942
615.000000 0.5513 0.5083 0.4654 0.4225 0.3772
620.000000 0.3611 0.3543 0.3524 0.3534 0.3520
625.000000 0.3619 0.3802 0.3907 0.4035 0.4216
630.000000 0.4528 0.4791 0.5054 0.5316 0.5579
635.000000 0.5823 0.6070 0.6869 0.7183 0.7405
640.000000 0.7559 0.7677 0.7795 0.7929 0.8084
645.000000 0.8249 0.8336 0.8391 0.8446 0.8488
650.000000 0.8518 0.8549 0.8572 0.8583 0.8594
655.000000 0.8605 0.8617 0.8622 0.8623 0.8624
660.000000 0.8620 0.8615 0.8601 0.8583 0.8540
665.000000 0.8500 0.8503 0.8533 0.8598 0.8648
670.000000 0.8670 0.8682 0.8689 0.8693 0.8697
675.000000 0.8699 0.8701 0.8703 0.8677 0.8704
680.000000 0.8704 0.8704 0.8702 0.8697 0.8692
685.000000 0.8687 0.8676 0.8666 0.8656 0.8639
690.000000 0.8620 0.8601 0.8582 0.8548 0.8512
695.000000 0.8476 0.8428 0.8370 0.8285 0.8181
700.000000 0.8080 0.7981 0.7881 0.7510 0.7342
705.000000 0.7173 0.6952 0.6653 0.6373 0.6184
710.000000 0.5988 0.5631 0.5097 0.4563 0.4029
715.000000 0.3495 0.2950 0.2405 0.1998 0.1484
720.000000 0.1296 0.1115 0.0964 0.0827 0.0722
725.000000 0.0660 0.0616 0.0595 0.0581 0.0580
730.000000 0.0586 0.0623 0.0682 0.0763 0.0846
735.000000 0.0950 0.1133 0.1282 0.1610 0.2222
740.000000 0.2833 0.3445 0.3577 0.3178 0.2249
745.000000 0.1319 0.0390 0.0078 0.1189 0.3148
750.000000 0.4524 0.4532 0.3771 0.3128 0.2485
755.000000 0.1843 0.1200 0.0809 0.0636 0.0489
760.000000 0.0389 0.0363 0.0347 0.0345 0.0349
765.000000 0.0371 0.0374 0.0398 0.0447 0.0494
770.000000 0.0560 0.0667 0.0813 0.0992 0.1266
775.000000 0.1541 0.1815 0.2090 0.2364 0.2639
780.000000 0.2914 0.3188 0.3944 0.4495 0.5047
785.000000 0.5598 0.6149 0.6701 0.7138 0.7346
790.000000 0.7512 0.7678 0.7837 0.7996 0.8111
795.000000 0.8227 0.8309 0.8381 0.8424 0.8467
800.000000 0.8504 0.8531 0.8558 0.8579 0.8594
805.000000 0.8608 0.8623 0.8628 0.8630 0.8632
810.000000 0.8634 0.8637 0.8639 0.8641 0.8642
815.000000 0.8643 0.8675 0.8644 0.8642 0.8640
820.000000 0.8638 0.8635 0.8630 0.8625 0.8620
825.000000 0.8615 0.8610 0.8599 0.8587 0.8575
830.000000 0.8562 0.8543 0.8518 0.8494 0.8466
835.000000 0.8428 0.8390 0.8351 0.8313 0.8273
840.000000 0.8226 0.8180 0.8134 0.8088 0.8025
845.000000 0.7949 0.7813 0.7592 0.7386 0.7185
850.000000 0.7018 0.6822 0.6471 0.6121 0.5770
855.000000 0.5420 0.5069 0.4719 0.4368 0.4018
860.000000 0.3710 0.3612 0.3521 0.3455 0.3451
865.000000 0.3465 0.3468 0.3436 0.3395 0.3358
870.000000 0.3179 0.2590 0.2380 0.2404 0.3059
875.000000 0.3601 0.3748 0.3757 0.3406 0.3224
880.000000 0.3043 0.2862 0.2680 0.2674 0.2678
885.000000 0.3176 0.3601 0.4025 0.4450 0.4874
890.000000 0.5299 0.5657 0.5857 0.5992 0.6128
895.000000 0.6266 0.6404 0.6584 0.6762 0.6872
900.000000 0.6982 0.7092 0.7208 0.7325 0.7544
905.000000 0.8007 0.8114 0.8184 0.8254 0.8313
910.000000 0.8368 0.8423 0.8458 0.8481 0.8504
915.000000 0.8527 0.8551 0.8567 0.8581 0.8596
920.000000 0.8610 0.8624 0.8635 0.8646 0.8656
925.000000 0.8667 0.8678 0.8686 0.8690 0.8695
930.000000 0.8700 0.8705 0.8710 0.8715 0.8718
935.000000 0.8719 0.8720 0.8721 0.8722 0.8723
940.000000 0.8724 0.8736 0.8721 0.8720 0.8718
945.000000 0.8716 0.8711 0.8706 0.8701 0.8683
950.000000 0.8665 0.8646 0.8627 0.8595 0.8562
955.000000 0.8518 0.8462 0.8404 0.8347 0.8290
960.000000 0.8214 0.8134 0.8055 0.7949 0.7837
965.000000 0.7569 0.6906 0.6711 0.6550 0.6130
970.000000 0.5562 0.4993 0.4425 0.3856 0.3287
975.000000 0.2431 0.2227 0.1972 0.1326 0.1024
980.000000 0.0867 0.0796 0.0782 0.0773 0.0798
985.000000 0.0844 0.0951 0.1018 0.1070 0.1098
990.000000 0.1119 0.1143 0.1123 0.1118 0.1025
995.000000 0.0877 0.0907 0.1242 0.1251 0.1243
1000.000000 0.1117 0.1033 0.0949 0.0864 0.0754
1005.000000 0.0703 0.0691 0.0694 0.0724 0.0729
1010.000000 0.0806 0.1066 0.1341 0.1616 0.1891
1015.000000 0.2166 0.2908 0.3372 0.3837 0.4302
1020.000000 0.4766 0.5231 0.5695 0.6160 0.6811
1025.000000 0.7641 0.7770 0.7875 0.7961 0.8030
1030.000000 0.8083 0.8119 0.8124 0.8126 0.8123
1035.000000 0.8112 0.8091 0.8041 0.7963 0.7896
1040.000000 0.7833 0.7721 0.7447 0.7231 0.6768
1045.000000 0.6640 0.6496 0.6267 0.6017 0.5766
1050.000000 0.5515 0.5265 0.5014 0.4585 0.4426
1055.000000 0.4397 0.4394 0.4421 0.4410 0.4434
1060.000000 0.4464 0.4542 0.4613 0.4661 0.4679
1065.000000 0.4658 0.4332 0.3831 0.3824 0.3828
1070.000000 0.5140 0.5177 0.4984 0.4843 0.4703
1075.000000 0.4562 0.4422 0.4281 0.4195 0.4166
1080.000000 0.4173 0.4210 0.4352 0.4492 0.4632
1085.000000 0.4772 0.4911 0.5210 0.5532 0.5726
1090.000000 0.5933 0.6652 0.7665 0.7835 0.7982
1095.000000 0.8088 0.8195 0.8298 0.8395 0.8489
1100.000000 0.8538 0.8588 0.8634 0.8668 0.8701
1105.000000 0.8732 0.8743 0.8755 0.8766 0.8777
1110.000000 0.8788 0.8798 0.8805 0.8811 0.8818
1115.000000 0.8822 0.8825 0.8827 0.8830 0.8833
1120.000000 0.8835 0.8835 0.8827 0.8835 0.8835
1125.000000 0.8833 0.8827 0.8822 0.8816 0.8809
1130.000000 0.8787 0.8765 0.8735 0.8698 0.8657
1135.000000 0.8616 0.8575 0.8533 0.8482 0.8428
1140.000000 0.8374 0.8314 0.8226 0.8139 0.8053
1145.000000 0.7975 0.7896 0.7817 0.7739 0.7629
1150.000000 0.7433 0.7237 0.7073 0.6911 0.5905
1155.000000 0.5592 0.5279 0.4966 0.4653 0.4340
1160.000000 0.4027 0.3714 0.3401 0.3088 0.2616
1165.000000 0.2508 0.2401 0.2294 0.2255 0.2252
1170.000000 0.2259 0.2276 0.2312 0.2355 0.2380
1175.000000 0.2391 0.2375 0.2305 0.2284 0.2271
1180.000000 0.2654 0.3054 0.3059 0.2624 0.2309
1185.000000 0.2284 0.2263 0.2171 0.2120 0.2070
1190.000000 0.1991 0.1961 0.1975 0.1968 0.1973
1195.000000 0.1998 0.2096 0.2946 0.3251 0.3557
1200.000000 0.3862 0.4167 0.4473 0.4778 0.5083
1205.000000 0.5389 0.5694 0.5999 0.6304 0.6610
1210.000000 0.6915 0.7011 0.7082 0.7126 0.7152
1215.000000 0.7172 0.7182 0.7191 0.7207 0.7230
1220.000000 0.7304 0.7900 0.7904 0.7900 0.7896
1225.000000 0.7892 0.7890 0.7889 0.7890 0.7896
1230.000000 0.7913 0.7948 0.7982 0.8021 0.8076
1235.000000 0.8132 0.8221 0.8304 0.8359 0.8414
1240.000000 0.8468 0.8497 0.8516 0.8534 0.8540
1245.000000 0.8547 0.8544 0.8539 0.8535 0.8531
1250.000000 0.8530 0.8528 0.8523 0.8517 0.8512
1255.000000 0.8507 0.8504 0.8504 0.8504 0.8504
1260.000000 0.8504 0.8504 0.8503 0.8502 0.8502
1265.000000 0.8501 0.8500 0.8500 0.8501 0.8502
1270.000000 0.8503 0.8504 0.8504 0.8505 0.8506
1275.000000 0.8508 0.8510 0.8513 0.8515 0.8518
1280.000000 0.8520 0.8523 0.8525 0.8528 0.8533
1285.000000 0.8541 0.8550 0.8558 0.8567 0.8575
1290.000000 0.8587 0.8598 0.8609 0.8637 0.8632
1295.000000 0.8643 0.8652 0.8649 0.8645 0.8641
1300.000000 0.8637 0.8634 0.8630 0.8626 0.8620
1305.000000 0.8613 0.8606 0.8599 0.8592 0.8586
1310.000000 0.8579 0.8572 0.8565 0.8558 0.8551
1315.000000 0.8544 0.8537 0.8529 0.8521 0.8514
1320.000000 0.8506 0.8499 0.8491 0.8483 0.8476
1325.000000 0.8468 0.8460 0.8453 0.8444 0.8433
1330.000000 0.8423 0.8413 0.8402 0.8392 0.8381
1335.000000 0.8359 0.8333 0.8307 0.8281 0.8255
1340.000000 0.8229 0.8199 0.8162 0.8125 0.8088
1345.000000 0.8051 0.8013 0.7970 0.7921 0.7872
1350.000000 0.7823 0.7774 0.7725 0.7654 0.7583
1355.000000 0.7511 0.7440 0.7355 0.7261 0.7167
1360.000000 0.6980 0.6768 0.6295 0.6090 0.5915
1365.000000 0.5766 0.5638 0.5541 0.5444 0.5350
1370.000000 0.5274 0.5198 0.5158 0.5147 0.5132
1375.000000 0.5152 0.5169 0.5199 0.5232 0.5266
1380.000000 0.5304 0.5352 0.5400 0.5449 0.5499
1385.000000 0.5548 0.5595 0.5699 0.5941 0.6042
1390.000000 0.6125 0.6152 0.6179 0.6201 0.6220
1395.000000 0.6239 0.6261 0.6286 0.6313 0.6357
1400.000000 0.6400 0.6485 0.6582 0.6722 0.6912
1405.000000 0.7184 0.7374 0.7508 0.7641 0.7731
1410.000000 0.7819 0.7905 0.7957 0.8007 0.8031
1415.000000 0.8040 0.8049 0.8079 0.8049 0.8047
1420.000000 0.8045 0.8043 0.8036 0.8029 0.8021
1425.000000 0.8011 0.8001 0.7991 0.7978 0.7961
1430.000000 0.7945 0.7928 0.7905 0.7876 0.7847
1435.000000 0.7818 0.7766 0.7712 0.7628 0.7521
1440.000000 0.7455 0.7388 0.7320 0.7210 0.7101
1445.000000 0.6991 0.6882 0.6773 0.6663 0.6554
1450.000000 0.6445 0.6335 0.6226 0.6076 0.5944
1455.000000 0.5780 0.5690 0.5614 0.5533 0.5409
1460.000000 0.5285 0.5205 0.5145 0.5086 0.5023
1465.000000 0.4955 0.4887 0.4812 0.4724 0.4500
1470.000000 0.3511 0.3316 0.3197 0.3090 0.2993
1475.000000 0.2887 0.2689 0.2552 0.2483 0.2465
1480.000000 0.2483 0.2486 0.2519 0.2615 0.2740
1485.000000 0.2858 0.2947 0.2973 0.2965 0.2842
1490.000000 0.2720 0.2597 0.2522 0.3487 0.3498
1495.000000 0.3489 0.3451 0.3410 0.3354 0.3294
1500.000000 0.3228 0.3149 0.3129 0.3134 0.3140
1505.000000 0.3179 0.3247 0.3479 0.3842 0.4232
1510.000000 0.4621 0.5011 0.5400 0.5800 0.5966
1515.000000 0.6358 0.6549 0.7475 0.7643 0.7774
1520.000000 0.7878 0.7982 0.8065 0.8125 0.8154
1525.000000 0.8167 0.8178 0.8199 0.8181 0.8177
1530.000000 0.8170 0.8157 0.8135 0.8107 0.8065
1535.000000 0.7994 0.7917 0.7827 0.7724 0.7620
1540.000000 0.7516 0.7412 0.7308 0.7204 0.7100
1545.000000 0.6997 0.6893 0.6789 0.6685 0.6581
1550.000000 0.6477 0.6374 0.6270 0.6123 0.6058
1555.000000 0.6032 0.6004 0.5953 0.5792 0.5623
1560.000000 0.5460 0.5297 0.5134 0.4971 0.4808
1565.000000 0.4645 0.4482 0.4284 0.4169 0.4076
1570.000000 0.3990 0.3917 0.3853 0.3818 0.3786
1575.000000 0.3787 0.3791 0.3797 0.3808 0.3758
1580.000000 0.3682 0.3625 0.3914 0.4469 0.4495
1585.000000 0.4509 0.4504 0.4476 0.4417 0.4360
1590.000000 0.4353 0.4358 0.4369 0.4401 0.4469
1595.000000 0.4524 0.4588 0.4704 0.4890 0.5100
1600.000000 0.5310 0.5520 0.5730 0.5940 0.6150
1605.000000 0.6359 0.6569 0.6779 0.6986 0.7137
1610.000000 0.7259 0.7382 0.7608 0.7814 0.7915
1615.000000 0.8016 0.8111 0.8206 0.8295 0.8379
1620.000000 0.8431 0.8465 0.8490 0.8506 0.8522
1625.000000 0.8535 0.8543 0.8551 0.8559 0.8564
1630.000000 0.8570 0.8576 0.8581 0.8585 0.8586
1635.000000 0.8586 0.8587 0.8587 0.8588 0.8588
1640.000000 0.8588 0.8587 0.8585 0.8584 0.8582
1645.000000 0.8623 0.8579 0.8578 0.8576 0.8573
1650.000000 0.8570 0.8567 0.8564 0.8560 0.8557
1655.000000 0.8551 0.8543 0.8536 0.8529 0.8522
1660.000000 0.8514 0.8506 0.8498 0.8489 0.8481
1665.000000 0.8463 0.8441 0.8419 0.8398 0.8372
1670.000000 0.8335 0.8299 0.8262 0.8225 0.8177
1675.000000 0.8127 0.8076 0.8020 0.7964 0.7908
1680.000000 0.7865 0.7822 0.7779 0.7737 0.7700
1685.000000 0.7678 0.7656 0.7642 0.7628 0.7615
1690.000000 0.7602 0.7597 0.7592 0.7587 0.7578
1695.000000 0.7570 0.7561 0.7548 0.7529 0.7509
1700.000000 0.7490 0.7450 0.7405 0.7359 0.7303
1705.000000 0.7234 0.7150 0.7026 0.6940 0.6856
1710.000000 0.6677 0.6613 0.6555 0.6527 0.6504
1715.000000 0.6533 0.6550 0.6578 0.6608 0.6640
1720.000000 0.6674 0.6709 0.6741 0.6773 0.6805
1725.000000 0.6830 0.6841 0.6837 0.6818 0.6866
1730.000000 0.6716 0.6669 0.6598 0.6510 0.6436
1735.000000 0.6436 0.6440 0.6440 0.6454 0.6487
1740.000000 0.6537 0.6620 0.6722 0.6840 0.6934
1745.000000 0.7012 0.7083 0.7143 0.7204 0.7260
1750.000000 0.7313 0.7365 0.7418 0.7461 0.7505
1755.000000 0.7548 0.7589 0.7625 0.7660 0.7696
1760.000000 0.7732 0.7768 0.7805 0.7836 0.7866
1765.000000 0.7895 0.7937 0.7987 0.8042 0.8099
1770.000000 0.8142 0.8174 0.8206 0.8231 0.8247
1775.000000 0.8264 0.8280 0.8297 0.8313 0.8329
1780.000000 0.8344 0.8360 0.8376 0.8392 0.8407
1785.000000 0.8422 0.8437 0.8452 0.8467 0.8479
1790.000000 0.8488 0.8497 0.8505 0.8514 0.8523
1795.000000 0.8532 0.8540 0.8546 0.8552 0.8558
1800.000000 0.8565 0.8571 0.8577 0.8583 0.8589
1805.000000 0.8595 0.8601 0.8607 0.8613 0.8620
1810.000000 0.8626 0.8629 0.8631 0.8634 0.8636
1815.000000 0.8638 0.8641 0.8643 0.8645 0.8649
1820.000000 0.8648 0.8650 0.8652 0.8653 0.8655
1825.000000 0.8656 0.8658 0.8659 0.8661 0.8662
1830.000000 0.8664 0.8662 0.8660 0.8658 0.8656
1835.000000 0.8654 0.8652 0.8650 0.8649 0.8647
1840.000000 0.8646 0.8645 0.8643 0.8642 0.8640
1845.000000 0.8639 0.8638 0.8636 0.8634 0.8632
1850.000000 0.8630 0.8628 0.8626 0.8624 0.8622
1855.000000 0.8620 0.8618 0.8616 0.8614 0.8612
1860.000000 0.8611 0.8610 0.8610 0.8609 0.8609
1865.000000 0.8608 0.8607 0.8608 0.8609 0.8610
1870.000000 0.8611 0.8610 0.8609 0.8608 0.8607
1875.000000 0.8607 0.8607 0.8608 0.8609 0.8609
1880.000000 0.8610 0.8610 0.8611 0.8612 0.8612
1885.000000 0.8613 0.8613 0.8611 0.8609 0.8607
1890.000000 0.8605 0.8603 0.8600 0.8591 0.8583
1895.000000 0.8574 0.8562 0.8551 0.8539 0.8528
1900.000000 0.8522 0.8521 0.8528 0.8540 0.8552
1905.000000 0.8584 0.8606 0.8619 0.8623 0.8619
1910.000000 0.8615 0.8611 0.8607 0.8603 0.8598
1915.000000 0.8594 0.8591 0.8588 0.8586 0.8584
1920.000000 0.8585 0.8586 0.8588 0.8591 0.8595
1925.000000 0.8600 0.8604 0.8609 0.8615 0.8621
1930.000000 0.8627 0.8632 0.8636 0.8640 0.8640
1935.000000 0.8639 0.8638 0.8637 0.8636 0.8635
1940.000000 0.8634 0.8633 0.8633 0.8633 0.8634
1945.000000 0.8634 0.8635 0.8635 0.8635 0.8636
1950.000000 0.8637 0.8638 0.8640 0.8641 0.8642
1955.000000 0.8644 0.8645 0.8647 0.8645 0.8643
1960.000000 0.8641 0.8638 0.8636 0.8633 0.8628
1965.000000 0.8624 0.8620 0.8612 0.8605 0.8597
1970.000000 0.8589 0.8581 0.8573 0.8564 0.8553
1975.000000 0.8542 0.8531 0.8520 0.8510 0.8510
1980.000000 0.8510 0.8510 0.8511 0.8512 0.8512
1985.000000 0.8513 0.8511 0.8508 0.8505 0.8502
1990.000000 0.8499 0.8496 0.8493 0.8490 0.8487
1995.000000 0.8481 0.8476 0.8470 0.8464 0.8458
2000.000000 0.8457 0.8455 0.8454 0.8453 0.8452
2005.000000 0.8451 0.8450 0.8452 0.8454 0.8455
2010.000000 0.8457 0.8459 0.8461 0.8459 0.8457
2015.000000 0.8454 0.8451 0.8444 0.8438 0.8427
2020.000000 0.8417 0.8402 0.8387 0.8380 0.8373
2025.000000 0.8368 0.8364 0.8362 0.8361 0.8358
2030.000000 0.8356 0.8352 0.8349 0.8343 0.8338
2035.000000 0.8330 0.8322 0.8302 0.8282 0.8259
2040.000000 0.8237 0.8220 0.8204 0.8201 0.8198
2045.000000 0.8205 0.8213 0.8238 0.8264 0.8289
2050.000000 0.8228 0.8342 0.8371 0.8412 0.8454
2055.000000 0.8475 0.8496 0.8505 0.8515 0.8525
2060.000000 0.8535 0.8541 0.8547 0.8552 0.8557
2065.000000 0.8561 0.8566 0.8568 0.8571 0.8574
2070.000000 0.8577 0.8579 0.8582 0.8584 0.8587
2075.000000 0.8587 0.8587 0.8587 0.8587 0.8587
2080.000000 0.8587 0.8587 0.8587 0.8585 0.8583
2085.000000 0.8581 0.8579 0.8577 0.8575 0.8573
2090.000000 0.8571 0.8565 0.8559 0.8553 0.8547
2095.000000 0.8540 0.8534 0.8531 0.8528 0.8525
2100.000000 0.8522 0.8523 0.8524 0.8526 0.8529
2105.000000 0.8532 0.8535 0.8537 0.8540 0.8542
2110.000000 0.8545 0.8547 0.8550 0.8552 0.8555
2115.000000 0.8557 0.8560 0.8562 0.8565 0.8567
2120.000000 0.8570 0.8573 0.8576 0.8579 0.8582
2125.000000 0.8585 0.8588 0.8591 0.8594 0.8597
2130.000000 0.8601 0.8603 0.8605 0.8605 0.8606
2135.000000 0.8606 0.8607 0.8607 0.8608 0.8607
2140.000000 0.8607 0.8606 0.8605 0.8604 0.8604
2145.000000 0.8601 0.8599 0.8596 0.8594 0.8591
2150.000000 0.8589 0.8586 0.8584 0.8583 0.8583
2155.000000 0.8582 0.8581 0.8580 0.8580 0.8579
2160.000000 0.8578 0.8577 0.8576 0.8575 0.8574
2165.000000 0.8572 0.8571 0.8569 0.8568 0.8566
2170.000000 0.8565 0.8564 0.8563 0.8562 0.8562
2175.000000 0.8561 0.8560 0.8559 0.8559 0.8558
2180.000000 0.8558 0.8557 0.8556 0.8557 0.8558
2185.000000 0.8559 0.8561 0.8562 0.8563 0.8564
2190.000000 0.8565 0.8566 0.8567 0.8567 0.8567
2195.000000 0.8567 0.8567 0.8567 0.8567 0.8566
2200.000000 0.8565 0.8564 0.8564 0.8563 0.8562
2205.000000 0.8560 0.8559 0.8558 0.8557 0.8555
2210.000000 0.8554 0.8553 0.8552 0.8550 0.8548
2215.000000 0.8546 0.8545 0.8543 0.8541 0.8538
2220.000000 0.8536 0.8533 0.8530 0.8526 0.8523
2225.000000 0.8520 0.8517 0.8513 0.8510 0.8508
2230.000000 0.8506 0.8504 0.8502 0.8500 0.8499
2235.000000 0.8497 0.8496 0.8494 0.8493 0.8493
2240.000000 0.8494 0.8495 0.8496 0.8496 0.8497
2245.000000 0.8498 0.8499 0.8500 0.8502 0.8503
2250.000000 0.8505 0.8506 0.8508 0.8509 0.8511
2255.000000 0.8512 0.8514 0.8515 0.8516 0.8516
2260.000000 0.8517 0.8517 0.8518 0.8518 0.8519
2265.000000 0.8519 0.8520 0.8521 0.8522 0.8523
2270.000000 0.8525 0.8527 0.8529 0.8531 0.8533
2275.000000 0.8535 0.8538 0.8543 0.8549 0.8555
2280.000000 0.8561 0.8572 0.8583 0.8593 0.8604
2285.000000 0.8611 0.8618 0.8622 0.8626 0.8626
2290.000000 0.8626 0.8625 0.8624 0.8623 0.8622
2295.000000 0.8621 0.8620 0.8619 0.8618 0.8617
2300.000000 0.8616 0.8615 0.8614 0.8612 0.8611
2305.000000 0.8609 0.8608 0.8606 0.8605 0.8603
2310.000000 0.8602 0.8598 0.8594 0.8589 0.8584
2315.000000 0.8579 0.8575 0.8570 0.8565 0.8559
2320.000000 0.8553 0.8544 0.8535 0.8524 0.8513
2325.000000 0.8499 0.8486 0.8472 0.8459 0.8445
2330.000000 0.8432 0.8419 0.8406 0.8396 0.8386
2335.000000 0.8376 0.8367 0.8357 0.8348 0.8346
2340.000000 0.8345 0.8344 0.8343 0.8342 0.8326
2345.000000 0.8343 0.8345 0.8349 0.8353 0.8356
2350.000000 0.8360 0.8368 0.8376 0.8384 0.8393
2355.000000 0.8401 0.8410 0.8418 0.8427 0.8435
2360.000000 0.8444 0.8453 0.8462 0.8471 0.8481
2365.000000 0.8491 0.8501 0.8510 0.8520 0.8529
2370.000000 0.8539 0.8549 0.8559 0.8565 0.8571
2375.000000 0.8576 0.8582 0.8587 0.8593 0.8594
2380.000000 0.8595 0.8595 0.8595 0.8595 0.8618
2385.000000 0.8594 0.8594 0.8593 0.8592 0.8591
2390.000000 0.8590 0.8588 0.8587 0.8582 0.8578
2395.000000 0.8573 0.8569 0.8564 0.8559 0.8554
2400.000000 0.8550 0.8545 0.8540 0.8535 0.8531
2405.000000 0.8526 0.8521 0.8516 0.8511 0.8506
2410.000000 0.8502 0.8497 0.8492 0.8488 0.8484
2415.000000 0.8480 0.8477 0.8473 0.8470 0.8466
2420.000000 0.8463 0.8460 0.8457 0.8453 0.8450
2425.000000 0.8446 0.8443 0.8442 0.8458 0.8444
2430.000000 0.8447 0.8450 0.8454 0.8457 0.8461
2435.000000 0.8468 0.8475 0.8482 0.8489 0.8495
2440.000000 0.8502 0.8509 0.8516 0.8522 0.8529
2445.000000 0.8536 0.8543 0.8550 0.8557 0.8563
2450.000000 0.8570 0.8577 0.8584 0.8590 0.8597
2455.000000 0.8604 0.8611 0.8619 0.8627 0.8635
2460.000000 0.8643 0.8651 0.8659 0.8667 0.8675
2465.000000 0.8683 0.8691 0.8699 0.8708 0.8711
2470.000000 0.8715 0.8718 0.8721 0.8724 0.8728
2475.000000 0.8731 0.8735 0.8738 0.8742 0.8744
2480.000000 0.8747 0.8747 0.8747 0.8747 0.8748
2485.000000 0.8748 0.8748 0.8748 0.8749 0.8749
2490.000000 0.8750 0.8749 0.8748 0.8746 0.8745
