##TITLE=3-Butyn-2-ol, 2-methyl-
##JCAMP-DX=4.24
##DATA TYPE=INFRARED SPECTRUM
##CLASS=COBLENTZ III
##ORIGIN=SOUTHERN RESEARCH INSTITUTE
##OWNER=Copyright (C) 1987 by the Coblentz Society
Collection (C) 2018 copyright by the U.S. Secretary of Commerce
on behalf of the United States of America. All rights reserved.
##DATE=1963/11/13
##NAMES=2-methyl-3-butyn-2-ol
##CAS REGISTRY NO=115-19-5
##MOLFORM=C5 H8 O
##SOURCE REFERENCE=COBLENTZ NO. 6807
##$NIST SOURCE=COBLENTZ
##$NIST IMAGE=cob6807
##SPECTROMETER/DATA SYSTEM=PERKIN-ELMER 221 (GRATING)
##INSTRUMENT PARAMETERS=FILTER AT 980 CM^-^1. GRATING 4000-1428 CM^-^1, NaCl PRISM 1428-650 CM^-^1
##STATE=LIQUID (NEAT)
##PATH LENGTH=CAPILLARY
##RESOLUTION=2
##DATA PROCESSING=(ADJUSTED \addcm-1\10-8-2\)
##XUNITS=1/CM
##YUNITS=TRANSMITTANCE
##XFACTOR=1.0
##YFACTOR=1
##DELTAX=1.002751
##FIRSTX=638.744
##LASTX=4012
##FIRSTY=0.3831
##MAXX=4012
##MINX=638.744
##MAXY=0.9724
##MINY=0.168113
##NPOINTS=3365
##XYDATA=(X++(Y..Y))
638.744000 0.3831 0.3833 0.3835 0.3838 0.3817
643.757753 0.3846 0.3855 0.3864 0.3877 0.3896
648.771507 0.3914 0.3939 0.3969 0.4003 0.4059
653.785260 0.4104 0.4146 0.4189 0.4235 0.4281
658.799013 0.4326 0.4371 0.4405 0.4437 0.4470
663.812767 0.4532 0.4605 0.4679 0.4751 0.4825
668.826520 0.4898 0.4972 0.5045 0.5119 0.5192
673.840273 0.5265 0.5339 0.5412 0.5485 0.5558
678.854027 0.5632 0.5705 0.5779 0.5849 0.5906
683.867780 0.5948 0.5989 0.6024 0.6056 0.6086
688.881533 0.6110 0.6114 0.6109 0.6104 0.6091
693.895287 0.6067 0.6023 0.5971 0.5917 0.5887
698.909040 0.5877 0.5878 0.5906 0.6003 0.6107
703.922793 0.6239 0.6477 0.6590 0.6681 0.6780
708.936547 0.6897 0.7000 0.7102 0.7181 0.7253
713.950300 0.7323 0.7376 0.7428 0.7480 0.7528
718.964053 0.7577 0.7626 0.7674 0.7720 0.7766
723.977807 0.7812 0.7858 0.7904 0.7950 0.7997
728.991560 0.8043 0.8080 0.8113 0.8146 0.8179
734.005314 0.8211 0.8244 0.8277 0.8305 0.8329
739.019067 0.8354 0.8379 0.8403 0.8428 0.8452
744.032820 0.8476 0.8499 0.8522 0.8545 0.8568
749.046574 0.8591 0.8615 0.8638 0.8661 0.8689
754.060327 0.8717 0.8746 0.8774 0.8802 0.8831
759.074080 0.8859 0.8880 0.8901 0.8921 0.8941
764.087834 0.8962 0.8982 0.9003 0.9023 0.9044
769.101587 0.9062 0.9081 0.9100 0.9118 0.9137
774.115340 0.9156 0.9175 0.9193 0.9210 0.9221
779.129094 0.9232 0.9242 0.9252 0.9263 0.9273
784.142847 0.9284 0.9294 0.9304 0.9314 0.9324
789.156600 0.9334 0.9344 0.9354 0.9364 0.9374
794.170354 0.9383 0.9393 0.9403 0.9412 0.9421
799.184107 0.9431 0.9440 0.9450 0.9459 0.9469
804.197860 0.9478 0.9488 0.9498 0.9508 0.9518
809.211614 0.9528 0.9536 0.9540 0.9543 0.9546
814.225367 0.9549 0.9552 0.9556 0.9559 0.9562
819.239120 0.9564 0.9565 0.9565 0.9566 0.9566
824.252874 0.9567 0.9568 0.9568 0.9567 0.9565
829.266627 0.9564 0.9570 0.9564 0.9560 0.9559
834.280380 0.9557 0.9555 0.9552 0.9549 0.9546
839.294134 0.9543 0.9540 0.9536 0.9531 0.9526
844.307887 0.9521 0.9516 0.9508 0.9498 0.9488
849.321640 0.9479 0.9467 0.9452 0.9436 0.9414
854.335394 0.9390 0.9366 0.9320 0.9262 0.9200
859.349147 0.9129 0.9053 0.8973 0.8889 0.8809
864.362900 0.8734 0.8660 0.8582 0.8492 0.8399
869.376654 0.8298 0.8086 0.7720 0.7311 0.6902
874.390407 0.6493 0.6083 0.5675 0.5265 0.4856
879.404160 0.4447 0.4038 0.3819 0.3757 0.3754
884.417914 0.3882 0.4207 0.4595 0.4983 0.5371
889.431667 0.5759 0.6147 0.6535 0.6923 0.7311
894.445421 0.7699 0.8087 0.8475 0.8818 0.9041
899.459174 0.9143 0.9209 0.9258 0.9299 0.9334
904.472927 0.9361 0.9387 0.9410 0.9430 0.9439
909.486681 0.9442 0.9444 0.9441 0.9435 0.9427
914.500434 0.9415 0.9401 0.9382 0.9362 0.9341
919.514187 0.9322 0.9303 0.9285 0.9268 0.9250
924.527941 0.9229 0.9206 0.9182 0.9155 0.9128
929.541694 0.9087 0.9039 0.8975 0.8893 0.8789
934.555447 0.8582 0.8374 0.8216 0.8082 0.7946
939.569201 0.7771 0.7604 0.7466 0.7279 0.6819
944.582954 0.6241 0.5678 0.5115 0.4552 0.3989
949.596707 0.3427 0.2863 0.2417 0.2259 0.2268
954.610461 0.2268 0.2267 0.2356 0.2751 0.3343
959.624214 0.3936 0.4529 0.5121 0.5713 0.6306
964.637967 0.7095 0.7784 0.8048 0.8376 0.8643
969.651721 0.8888 0.9133 0.9341 0.9417 0.9249
974.665474 0.8747 0.8246 0.7744 0.7339 0.7694
979.679227 0.9336 0.9364 0.9376 0.9387 0.9392
984.692981 0.9393 0.9395 0.9394 0.9386 0.9378
989.706734 0.9368 0.9358 0.9346 0.9332 0.9320
994.720487 0.9308 0.9295 0.9280 0.9270 0.9272
999.734241 0.9275 0.9279 0.9286 0.9297 0.9311
1004.747994 0.9325 0.9342 0.9357 0.9367 0.9373
1009.761747 0.9378 0.9382 0.9385 0.9387 0.9388
1014.775501 0.9390 0.9392 0.9394 0.9395 0.9397
1019.789254 0.9397 0.9397 0.9397 0.9406 0.9408
1024.803007 0.9398 0.9398 0.9398 0.9398 0.9398
1029.816761 0.9398 0.9398 0.9398 0.9398 0.9397
1034.830514 0.9397 0.9396 0.9396 0.9393 0.9389
1039.844267 0.9384 0.9380 0.9375 0.9371 0.9367
1044.858021 0.9364 0.9361 0.9357 0.9354 0.9351
1049.871774 0.9348 0.9344 0.9338 0.9332 0.9326
1054.885527 0.9321 0.9315 0.9314 0.9314 0.9314
1059.899281 0.9311 0.9304 0.9297 0.9284 0.9270
1064.913034 0.9253 0.9235 0.9216 0.9198 0.9179
1069.926788 0.9161 0.9143 0.9123 0.9102 0.9081
1074.940541 0.9059 0.9031 0.8999 0.8967 0.8931
1079.954294 0.8890 0.8848 0.8805 0.8759 0.8710
1084.968048 0.8660 0.8611 0.8563 0.8514 0.8464
1089.981801 0.8410 0.8355 0.8300 0.8243 0.8183
1094.995554 0.8119 0.8049 0.7979 0.7909 0.7839
1100.009308 0.7769 0.7699 0.7628 0.7552 0.7469
1105.023061 0.7385 0.7267 0.7002 0.6658 0.6494
1110.036814 0.6266 0.6038 0.5810 0.5582 0.5354
1115.050568 0.5127 0.4978 0.4893 0.4796 0.4679
1120.064321 0.4565 0.4467 0.4373 0.4255 0.4083
1125.078074 0.3910 0.3754 0.3623 0.3520 0.3440
1130.091828 0.3366 0.3297 0.3242 0.3194 0.3147
1135.105581 0.3102 0.3063 0.3027 0.2992 0.2957
1140.119334 0.2922 0.2885 0.2847 0.2810 0.2772
1145.133088 0.2733 0.2694 0.2655 0.2615 0.2570
1150.146841 0.2525 0.2479 0.2426 0.2365 0.2302
1155.160594 0.2235 0.2167 0.2102 0.2068 0.2046
1160.174348 0.2040 0.2057 0.2054 0.2075 0.2108
1165.188101 0.2196 0.2357 0.2426 0.2481 0.2545
1170.201854 0.2603 0.2645 0.2888 0.3173 0.3461
1175.215608 0.3749 0.4038 0.4326 0.4614 0.4902
1180.229361 0.5191 0.5480 0.5723 0.5939 0.6150
1185.243114 0.6291 0.6367 0.6394 0.6401 0.6415
1190.256868 0.6405 0.6383 0.6341 0.6279 0.6209
1195.270621 0.6142 0.6083 0.6016 0.5800 0.5243
1200.284374 0.4465 0.3913 0.3741 0.3702 0.3666
1205.298128 0.3647 0.3638 0.3637 0.3644 0.3661
1210.311881 0.3681 0.3771 0.3984 0.4242 0.4500
1215.325634 0.4757 0.5014 0.5272 0.5529 0.5793
1220.339388 0.6060 0.6270 0.6410 0.6534 0.6654
1225.353141 0.6793 0.6942 0.7116 0.7304 0.7426
1230.366895 0.7509 0.7570 0.7628 0.7677 0.7720
1235.380648 0.7760 0.7790 0.7811 0.7831 0.7847
1240.394401 0.7862 0.7871 0.7877 0.7884 0.7889
1245.408155 0.7892 0.7894 0.7895 0.7895 0.7895
1250.421908 0.7895 0.7895 0.7896 0.7899 0.7902
1255.435661 0.7904 0.7908 0.7919 0.7931 0.7943
1260.449415 0.7955 0.7964 0.7968 0.7971 0.7975
1265.463168 0.7977 0.7979 0.7979 0.7979 0.7979
1270.476921 0.7979 0.7978 0.7976 0.7978 0.7977
1275.490675 0.7975 0.7973 0.7971 0.7969 0.7963
1280.504428 0.7957 0.7951 0.7942 0.7923 0.7897
1285.518181 0.7867 0.7839 0.7812 0.7786 0.7762
1290.531935 0.7738 0.7715 0.7696 0.7679 0.7663
1295.545688 0.7646 0.7634 0.7627 0.7623 0.7621
1300.559441 0.7618 0.7613 0.7593 0.7563 0.7532
1305.573195 0.7502 0.7469 0.7426 0.7383 0.7343
1310.586948 0.7291 0.7176 0.7022 0.6955 0.6900
1315.600701 0.6836 0.6761 0.6691 0.6644 0.6601
1320.614455 0.6567 0.6537 0.6502 0.6447 0.6363
1325.628208 0.6287 0.6254 0.6224 0.6208 0.6193
1330.641961 0.6178 0.6167 0.6163 0.6159 0.6150
1335.655715 0.6140 0.6123 0.6101 0.6077 0.6052
1340.669468 0.6023 0.5965 0.5905 0.5839 0.5773
1345.683221 0.5713 0.5624 0.5321 0.5008 0.4694
1350.696975 0.4380 0.4067 0.3763 0.3546 0.3500
1355.710728 0.3476 0.3473 0.3477 0.3511 0.3588
1360.724481 0.3697 0.3825 0.3878 0.3907 0.3928
1365.738235 0.3943 0.3954 0.3964 0.3973 0.3996
1370.751988 0.4142 0.4354 0.4565 0.4776 0.4988
1375.765741 0.5199 0.5411 0.5623 0.5835 0.6046
1380.779495 0.6258 0.6470 0.6671 0.6763 0.6802
1385.793248 0.6837 0.6872 0.6897 0.6920 0.6942
1390.807001 0.6965 0.6989 0.7013 0.7038 0.7062
1395.820755 0.7085 0.7107 0.7129 0.7150 0.7172
1400.834508 0.7193 0.7215 0.7236 0.7261 0.7322
1405.848262 0.7446 0.7625 0.7794 0.7859 0.7906
1410.862015 0.7931 0.7951 0.7971 0.7982 0.7988
1415.875768 0.7995 0.7999 0.8003 0.8007 0.8010
1420.889522 0.8014 0.8018 0.8022 0.8027 0.8031
1425.903275 0.8035 0.8038 0.8043 0.8032 0.8029
1430.917028 0.8026 0.8012 0.7994 0.7965 0.7922
1435.930782 0.7872 0.7823 0.7761 0.7686 0.7621
1440.944535 0.7567 0.7512 0.7458 0.7393 0.7327
1445.958288 0.7255 0.7176 0.7049 0.6914 0.6745
1450.972042 0.6689 0.6670 0.6676 0.6681 0.6695
1455.985795 0.6652 0.6745 0.6794 0.6847 0.6878
1460.999548 0.6910 0.6946 0.6996 0.7149 0.7304
1466.013302 0.7457 0.7610 0.7763 0.7916 0.8071
1471.027055 0.8262 0.8372 0.8450 0.8499 0.8548
1476.040808 0.8600 0.8714 0.8808 0.8876 0.8944
1481.054562 0.9009 0.9056 0.9104 0.9152 0.9192
1486.068315 0.9217 0.9242 0.9267 0.9292 0.9310
1491.082068 0.9325 0.9340 0.9355 0.9368 0.9377
1496.095822 0.9383 0.9389 0.9395 0.9401 0.9409
1501.109575 0.9419 0.9429 0.9438 0.9455 0.9477
1506.123328 0.9499 0.9523 0.9557 0.9580 0.9585
1511.137082 0.9591 0.9596 0.9602 0.9605 0.9607
1516.150835 0.9609 0.9611 0.9613 0.9614 0.9616
1521.164588 0.9618 0.9620 0.9621 0.9621 0.9622
1526.178342 0.9622 0.9623 0.9623 0.9624 0.9624
1531.192095 0.9625 0.9625 0.9625 0.9625 0.9625
1536.205848 0.9624 0.9624 0.9624 0.9623 0.9623
1541.219602 0.9623 0.9622 0.9622 0.9622 0.9621
1546.233355 0.9621 0.9621 0.9620 0.9620 0.9620
1551.247108 0.9620 0.9620 0.9620 0.9620 0.9619
1556.260862 0.9619 0.9623 0.9647 0.9619 0.9619
1561.274615 0.9619 0.9618 0.9617 0.9617 0.9616
1566.288368 0.9615 0.9614 0.9614 0.9613 0.9612
1571.302122 0.9611 0.9610 0.9610 0.9609 0.9608
1576.315875 0.9607 0.9607 0.9606 0.9606 0.9606
1581.329629 0.9606 0.9605 0.9605 0.9605 0.9605
1586.343382 0.9605 0.9605 0.9605 0.9604 0.9604
1591.357135 0.9604 0.9604 0.9604 0.9604 0.9603
1596.370889 0.9603 0.9603 0.9603 0.9603 0.9603
1601.384642 0.9602 0.9602 0.9603 0.9603 0.9603
1606.398395 0.9604 0.9604 0.9604 0.9605 0.9605
1611.412149 0.9605 0.9606 0.9606 0.9606 0.9607
1616.425902 0.9607 0.9607 0.9608 0.9608 0.9608
1621.439655 0.9609 0.9609 0.9609 0.9608 0.9608
1626.453409 0.9608 0.9607 0.9607 0.9606 0.9606
1631.467162 0.9605 0.9605 0.9604 0.9604 0.9603
1636.480915 0.9603 0.9602 0.9602 0.9602 0.9601
1641.494669 0.9601 0.9599 0.9598 0.9597 0.9596
1646.508422 0.9595 0.9594 0.9593 0.9592 0.9591
1651.522175 0.9589 0.9588 0.9587 0.9586 0.9585
1656.535929 0.9584 0.9583 0.9582 0.9581 0.9580
1661.549682 0.9578 0.9577 0.9576 0.9575 0.9574
1666.563435 0.9573 0.9571 0.9569 0.9567 0.9565
1671.577189 0.9563 0.9561 0.9558 0.9556 0.9554
1676.590942 0.9552 0.9550 0.9548 0.9545 0.9543
1681.604695 0.9541 0.9537 0.9531 0.9524 0.9514
1686.618449 0.9495 0.9475 0.9454 0.9430 0.9397
1691.632202 0.9365 0.9334 0.9307 0.9280 0.9253
1696.645955 0.9224 0.9190 0.9156 0.9124 0.9097
1701.659709 0.9072 0.9047 0.9030 0.9032 0.9037
1706.673462 0.9047 0.9065 0.9098 0.9143 0.9191
1711.687215 0.9239 0.9286 0.9334 0.9381 0.9428
1716.700969 0.9476 0.9523 0.9574 0.9619 0.9636
1721.714722 0.9643 0.9645 0.9648 0.9649 0.9650
1726.728475 0.9650 0.9650 0.9650 0.9650 0.9651
1731.742229 0.9652 0.9652 0.9653 0.9654 0.9654
1736.755982 0.9655 0.9656 0.9656 0.9657 0.9657
1741.769736 0.9658 0.9658 0.9659 0.9659 0.9660
1746.783489 0.9660 0.9660 0.9661 0.9661 0.9661
1751.797242 0.9661 0.9661 0.9661 0.9661 0.9662
1756.810996 0.9662 0.9662 0.9662 0.9662 0.9662
1761.824749 0.9663 0.9663 0.9664 0.9664 0.9665
1766.838502 0.9665 0.9666 0.9666 0.9667 0.9667
1771.852256 0.9668 0.9668 0.9668 0.9669 0.9669
1776.866009 0.9669 0.9670 0.9670 0.9671 0.9671
1781.879762 0.9671 0.9672 0.9672 0.9672 0.9673
1786.893516 0.9673 0.9674 0.9674 0.9674 0.9675
1791.907269 0.9675 0.9676 0.9676 0.9677 0.9677
1796.921022 0.9677 0.9678 0.9678 0.9679 0.9679
1801.934776 0.9679 0.9678 0.9678 0.9678 0.9677
1806.948529 0.9677 0.9676 0.9676 0.9675 0.9675
1811.962282 0.9674 0.9673 0.9671 0.9669 0.9666
1816.976036 0.9663 0.9660 0.9657 0.9654 0.9652
1821.989789 0.9649 0.9646 0.9643 0.9639 0.9635
1827.003542 0.9631 0.9628 0.9624 0.9620 0.9616
1832.017296 0.9612 0.9609 0.9607 0.9604 0.9602
1837.031049 0.9600 0.9598 0.9595 0.9593 0.9591
1842.044802 0.9591 0.9593 0.9595 0.9598 0.9601
1847.058556 0.9603 0.9606 0.9609 0.9614 0.9619
1852.072309 0.9625 0.9630 0.9636 0.9641 0.9648
1857.086062 0.9654 0.9661 0.9667 0.9674 0.9680
1862.099816 0.9685 0.9690 0.9694 0.9699 0.9704
1867.113569 0.9708 0.9711 0.9713 0.9714 0.9715
1872.127322 0.9717 0.9718 0.9719 0.9719 0.9720
1877.141076 0.9720 0.9720 0.9720 0.9720 0.9720
1882.154829 0.9720 0.9721 0.9721 0.9721 0.9721
1887.168582 0.9721 0.9721 0.9722 0.9722 0.9722
1892.182336 0.9722 0.9722 0.9722 0.9722 0.9723
1897.196089 0.9723 0.9723 0.9723 0.9723 0.9723
1902.209842 0.9723 0.9724 0.9724 0.9724 0.9724
1907.223596 0.9724 0.9724 0.9723 0.9722 0.9722
1912.237349 0.9721 0.9720 0.9719 0.9719 0.9718
1917.251103 0.9717 0.9717 0.9716 0.9715 0.9714
1922.264856 0.9714 0.9713 0.9712 0.9711 0.9710
1927.278609 0.9709 0.9708 0.9707 0.9706 0.9705
1932.292363 0.9704 0.9703 0.9702 0.9701 0.9700
1937.306116 0.9699 0.9698 0.9697 0.9696 0.9696
1942.319869 0.9696 0.9696 0.9696 0.9696 0.9697
1947.333623 0.9697 0.9697 0.9697 0.9697 0.9697
1952.347376 0.9697 0.9698 0.9698 0.9698 0.9698
1957.361129 0.9699 0.9699 0.9700 0.9700 0.9701
1962.374883 0.9701 0.9702 0.9702 0.9703 0.9703
1967.388636 0.9704 0.9704 0.9705 0.9705 0.9706
1972.402389 0.9706 0.9707 0.9707 0.9708 0.9708
1977.416143 0.9708 0.9707 0.9705 0.9703 0.9701
1982.429896 0.9700 0.9698 0.9696 0.9692 0.9683
1987.443649 0.9674 0.9661 0.9622 0.9555 0.9504
1992.457403 0.9462 0.9425 0.9405 0.9401 0.9451
1997.471156 0.9533 0.9622 0.9676 0.9686 0.9686
2002.484909 0.9684 0.9683 0.9681 0.9680 0.9678
2007.498663 0.9676 0.9672 0.9669 0.9666 0.9663
2012.512416 0.9660 0.9657 0.9654 0.9650 0.9647
2017.526169 0.9644 0.9641 0.9638 0.9635 0.9632
2022.539923 0.9628 0.9625 0.9621 0.9617 0.9613
2027.553676 0.9609 0.9605 0.9601 0.9598 0.9594
2032.567429 0.9590 0.9586 0.9583 0.9579 0.9576
2037.581183 0.9572 0.9569 0.9566 0.9562 0.9559
2042.594936 0.9556 0.9553 0.9550 0.9548 0.9545
2047.608689 0.9543 0.9540 0.9538 0.9536 0.9533
2052.622443 0.9530 0.9528 0.9525 0.9523 0.9520
2057.636196 0.9517 0.9515 0.9512 0.9509 0.9506
2062.649949 0.9504 0.9501 0.9497 0.9494 0.9491
2067.663703 0.9487 0.9484 0.9480 0.9477 0.9474
2072.677456 0.9470 0.9466 0.9460 0.9455 0.9449
2077.691210 0.9443 0.9437 0.9431 0.9426 0.9420
2082.704963 0.9414 0.9408 0.9402 0.9397 0.9391
2087.718716 0.9385 0.9379 0.9373 0.9368 0.9362
2092.732470 0.9357 0.9352 0.9347 0.9342 0.9340
2097.746223 0.9338 0.9336 0.9334 0.9332 0.9329
2102.759976 0.9326 0.9324 0.9321 0.9318 0.9319
2107.773730 0.9320 0.9321 0.9322 0.9323 0.9325
2112.787483 0.9326 0.9327 0.9328 0.9306 0.9328
2117.801236 0.9332 0.9338 0.9345 0.9353 0.9366
2122.814990 0.9380 0.9399 0.9418 0.9438 0.9458
2127.828743 0.9471 0.9483 0.9495 0.9507 0.9518
2132.842496 0.9529 0.9541 0.9552 0.9563 0.9574
2137.856250 0.9579 0.9584 0.9589 0.9595 0.9600
2142.870003 0.9605 0.9608 0.9611 0.9613 0.9615
2147.883756 0.9617 0.9619 0.9620 0.9622 0.9623
2152.897510 0.9624 0.9625 0.9626 0.9628 0.9629
2157.911263 0.9631 0.9632 0.9634 0.9636 0.9637
2162.925016 0.9639 0.9640 0.9642 0.9643 0.9644
2167.938770 0.9644 0.9644 0.9644 0.9644 0.9644
2172.952523 0.9645 0.9645 0.9645 0.9645 0.9645
2177.966276 0.9645 0.9645 0.9646 0.9646 0.9646
2182.980030 0.9646 0.9646 0.9646 0.9647 0.9647
2187.993783 0.9647 0.9646 0.9646 0.9646 0.9645
2193.007536 0.9645 0.9644 0.9644 0.9644 0.9643
2198.021290 0.9643 0.9643 0.9642 0.9642 0.9641
2203.035043 0.9641 0.9641 0.9640 0.9640 0.9639
2208.048796 0.9639 0.9639 0.9637 0.9636 0.9635
2213.062550 0.9633 0.9632 0.9631 0.9629 0.9628
2218.076303 0.9627 0.9626 0.9624 0.9623 0.9622
2223.090056 0.9620 0.9619 0.9618 0.9616 0.9614
2228.103810 0.9610 0.9607 0.9603 0.9599 0.9596
2233.117563 0.9592 0.9588 0.9584 0.9581 0.9577
2238.131316 0.9573 0.9570 0.9566 0.9561 0.9555
2243.145070 0.9549 0.9543 0.9537 0.9531 0.9525
2248.158823 0.9519 0.9513 0.9507 0.9503 0.9499
2253.172577 0.9495 0.9491 0.9487 0.9483 0.9479
2258.186330 0.9475 0.9470 0.9466 0.9463 0.9461
2263.200083 0.9460 0.9459 0.9458 0.9457 0.9457
2268.213837 0.9456 0.9455 0.9454 0.9453 0.9452
2273.227590 0.9451 0.9450 0.9449 0.9450 0.9450
2278.241343 0.9451 0.9452 0.9452 0.9453 0.9453
2283.255097 0.9454 0.9454 0.9455 0.9456 0.9456
2288.268850 0.9457 0.9457 0.9458 0.9459 0.9459
2293.282603 0.9459 0.9460 0.9460 0.9461 0.9461
2298.296357 0.9461 0.9462 0.9462 0.9463 0.9463
2303.310110 0.9463 0.9464 0.9464 0.9464 0.9462
2308.323863 0.9459 0.9456 0.9454 0.9451 0.9448
2313.337617 0.9446 0.9443 0.9441 0.9440 0.9440
2318.351370 0.9441 0.9441 0.9441 0.9441 0.9441
2323.365123 0.9441 0.9442 0.9442 0.9442 0.9442
2328.378877 0.9442 0.9442 0.9443 0.9444 0.9445
2333.392630 0.9446 0.9447 0.9448 0.9449 0.9450
2338.406383 0.9451 0.9452 0.9454 0.9455 0.9456
2343.420137 0.9457 0.9458 0.9459 0.9460 0.9461
2348.433890 0.9462 0.9463 0.9464 0.9465 0.9467
2353.447643 0.9468 0.9469 0.9470 0.9471 0.9472
2358.461397 0.9473 0.9474 0.9475 0.9476 0.9477
2363.475150 0.9478 0.9479 0.9481 0.9484 0.9487
2368.488903 0.9490 0.9494 0.9497 0.9500 0.9504
2373.502657 0.9507 0.9510 0.9514 0.9517 0.9520
2378.516410 0.9524 0.9526 0.9527 0.9526 0.9526
2383.530163 0.9525 0.9525 0.9524 0.9523 0.9523
2388.543917 0.9522 0.9521 0.9520 0.9520 0.9519
2393.557670 0.9518 0.9517 0.9516 0.9515 0.9514
2398.571423 0.9513 0.9512 0.9511 0.9510 0.9508
2403.585177 0.9507 0.9506 0.9505 0.9505 0.9504
2408.598930 0.9504 0.9503 0.9502 0.9502 0.9501
2413.612684 0.9501 0.9500 0.9500 0.9499 0.9499
2418.626437 0.9498 0.9497 0.9497 0.9496 0.9495
2423.640190 0.9495 0.9494 0.9493 0.9493 0.9492
2428.653944 0.9491 0.9490 0.9490 0.9489 0.9488
2433.667697 0.9486 0.9483 0.9478 0.9475 0.9470
2438.681450 0.9466 0.9463 0.9459 0.9455 0.9451
2443.695204 0.9447 0.9443 0.9440 0.9436 0.9433
2448.708957 0.9430 0.9426 0.9423 0.9420 0.9416
2453.722710 0.9413 0.9409 0.9405 0.9401 0.9397
2458.736464 0.9393 0.9391 0.9391 0.9391 0.9391
2463.750217 0.9392 0.9392 0.9392 0.9392 0.9392
2468.763970 0.9394 0.9396 0.9399 0.9402 0.9404
2473.777724 0.9407 0.9411 0.9416 0.9421 0.9426
2478.791477 0.9431 0.9437 0.9446 0.9455 0.9464
2483.805230 0.9468 0.9468 0.9467 0.9455 0.9430
2488.818984 0.9400 0.9367 0.9340 0.9323 0.9314
2493.832737 0.9309 0.9304 0.9299 0.9296 0.9293
2498.846490 0.9291 0.9289 0.9287 0.9284 0.9282
2503.860244 0.9280 0.9279 0.9280 0.9280 0.9280
2508.873997 0.9280 0.9280 0.9280 0.9280 0.9281
2513.887750 0.9281 0.9281 0.9281 0.9282 0.9282
2518.901504 0.9282 0.9283 0.9283 0.9284 0.9284
2523.915257 0.9285 0.9285 0.9285 0.9286 0.9286
2528.929010 0.9287 0.9287 0.9288 0.9288 0.9288
2533.942764 0.9289 0.9289 0.9289 0.9290 0.9290
2538.956517 0.9290 0.9291 0.9291 0.9292 0.9292
2543.970270 0.9292 0.9293 0.9293 0.9294 0.9295
2548.984024 0.9296 0.9297 0.9298 0.9298 0.9299
2553.997777 0.9300 0.9301 0.9302 0.9303 0.9304
2559.011530 0.9305 0.9305 0.9306 0.9307 0.9307
2564.025284 0.9307 0.9307 0.9308 0.9308 0.9308
2569.039037 0.9309 0.9309 0.9309 0.9310 0.9310
2574.052790 0.9310 0.9310 0.9311 0.9311 0.9311
2579.066544 0.9312 0.9312 0.9312 0.9313 0.9313
2584.080297 0.9313 0.9314 0.9315 0.9317 0.9318
2589.094051 0.9320 0.9321 0.9323 0.9324 0.9326
2594.107804 0.9327 0.9329 0.9330 0.9332 0.9333
2599.121557 0.9335 0.9336 0.9338 0.9339 0.9341
2604.135311 0.9342 0.9344 0.9345 0.9347 0.9348
2609.149064 0.9350 0.9351 0.9353 0.9354 0.9355
2614.162817 0.9355 0.9355 0.9355 0.9356 0.9356
2619.176571 0.9356 0.9357 0.9357 0.9357 0.9357
2624.190324 0.9358 0.9358 0.9358 0.9359 0.9359
2629.204077 0.9359 0.9359 0.9360 0.9360 0.9360
2634.217831 0.9361 0.9361 0.9361 0.9361 0.9362
2639.231584 0.9361 0.9360 0.9357 0.9355 0.9353
2644.245337 0.9351 0.9349 0.9347 0.9345 0.9343
2649.259091 0.9341 0.9339 0.9336 0.9334 0.9332
2654.272844 0.9330 0.9328 0.9326 0.9324 0.9322
2659.286597 0.9320 0.9318 0.9315 0.9313 0.9311
2664.300351 0.9309 0.9307 0.9305 0.9303 0.9301
2669.314104 0.9299 0.9298 0.9296 0.9294 0.9292
