##TITLE=PROPANAL
##JCAMP-DX=4.24
##DATA TYPE=INFRARED SPECTRUM
##CLASS=COBLENTZ
##ORIGIN=DOW CHEMICAL COMPANY
##OWNER=COBLENTZ SOCIETY
Collection (C) 2018 copyright by the U.S. Secretary of Commerce
on behalf of the United States of America. All rights reserved.
##DATE=1964
##NAMES=propionaldehyde
PROPIONALDEHYDE
##CAS REGISTRY NO=123-38-6
##MOLFORM=C3 H6 O
##SOURCE REFERENCE=COBLENTZ NO. 8785
##$NIST SOURCE=COBLENTZ
##$NIST IMAGE=cob-r8785
##SPECTROMETER/DATA SYSTEM=DOW KBr FOREPRISM-GRATING
##INSTRUMENT PARAMETERS=GRATING CHANGED AT 5.0, 7.5, 15.0 MICRON
$$ SPECTRAL CONTAMINATION DUE TO H2O IN THE 1600 CM^-^1 REGION.
$$ ABSORPTION DUE TO CCl4 AT 797 AND 780 CM^-^1.
##STATE=GAS (100 mmHg, N2 ADDED, TOTAL PRESSURE 600 mmHg)
##PATH LENGTH=5 CM
##SAMPLING PROCEDURE=TRANSMISSION
##RESOLUTION=2
##DATA PROCESSING=DIGITIZED BY NIST FROM HARD COPY (FROM TWO SEGMENTS)
##XUNITS=1/CM
##YUNITS=TRANSMITTANCE
##XFACTOR=1.000000
##YFACTOR=1
##DELTAX=1.358703
##FIRSTX=455.163
##LASTX=3751.38
##FIRSTY=0.924
##MAXX=3751.38
##MINX=455.163
##MAXY=0.985
##MINY=0.004
##NPOINTS=2427
##XYDATA=(X++(Y..Y))
455.163000 0.9240 0.9210 0.9190 0.9170 0.9150
461.956515 0.9150 0.9240 0.9210 0.9190 0.9170
468.750029 0.9150 0.9150 0.9130 0.9130 0.9110
475.543544 0.9090 0.9070 0.9050 0.9020 0.9000
482.337059 0.8980 0.8960 0.8900 0.8880 0.8830
489.130573 0.8810 0.8770 0.8750 0.8710 0.8621
495.924088 0.8560 0.8430 0.8310 0.8160 0.8030
502.717603 0.8010 0.7990 0.7990 0.7950 0.7950
509.511118 0.7930 0.7860 0.7820 0.7820 0.7800
516.304632 0.7760 0.7740 0.7740 0.7720 0.7720
523.098147 0.7740 0.7740 0.7760 0.7780 0.7800
529.891662 0.7820 0.7929 0.8079 0.8308 0.8330
536.685176 0.8430 0.8480 0.8500 0.8540 0.8540
543.478691 0.8640 0.8690 0.8730 0.8790 0.8830
550.272206 0.8900 0.8940 0.9020 0.9090 0.9130
557.065720 0.9150 0.9190 0.9210 0.9240 0.9240
563.859235 0.9240 0.9280 0.9300 0.9320 0.9320
570.652750 0.9320 0.9320 0.9360 0.9360 0.9380
577.446265 0.9380 0.9380 0.9400 0.9400 0.9400
584.239779 0.9430 0.9430 0.9430 0.9450 0.9450
591.033294 0.9450 0.9450 0.9470 0.9470 0.9470
597.826809 0.9470 0.9470 0.9510 0.9510 0.9510
604.620323 0.9510 0.9530 0.9510 0.9510 0.9510
611.413838 0.9490 0.9490 0.9490 0.9490 0.9470
618.207353 0.9450 0.9450 0.9400 0.9400 0.9380
625.000867 0.9360 0.9320 0.9280 0.9260 0.9210
631.794382 0.9190 0.9110 0.9020 0.8960 0.8940
638.587897 0.8880 0.8770 0.8481 0.8331 0.8221
645.381411 0.8180 0.8160 0.8160 0.8160 0.8160
652.174926 0.8160 0.8140 0.8140 0.8011 0.7931
658.968441 0.7970 0.7890 0.7760 0.7760 0.7780
665.761956 0.7780 0.7760 0.7611 0.7610 0.7968
672.555470 0.7990 0.8100 0.8180 0.8350 0.8370
679.348985 0.8450 0.8520 0.8669 0.8919 0.8940
686.142500 0.8980 0.9020 0.9070 0.9130 0.9150
692.936014 0.9190 0.9210 0.9260 0.9280 0.9320
699.729529 0.9340 0.9400 0.9430 0.9450 0.9470
706.523044 0.9490 0.9510 0.9530 0.9550 0.9550
713.316558 0.9550 0.9550 0.9550 0.9550 0.9550
720.110073 0.9550 0.9550 0.9550 0.9550 0.9550
726.903588 0.9550 0.9550 0.9530 0.9530 0.9510
733.697103 0.9510 0.9490 0.9490 0.9470 0.9470
740.490617 0.9450 0.9430 0.9430 0.9400 0.9400
747.284132 0.9380 0.9340 0.9340 0.9320 0.9300
754.077647 0.9260 0.9240 0.9190 0.9150 0.9110
760.871161 0.9090 0.9070 0.9020 0.8980 0.8960
767.664676 0.8920 0.8900 0.8880 0.8830 0.8810
774.458191 0.8770 0.8750 0.8750 0.8730 0.8710
781.251705 0.8730 0.8750 0.8790 0.8830 0.8830
788.045220 0.8770 0.8242 0.7932 0.7403 0.7062
794.838735 0.7078 0.5800 0.5820 0.6769 0.7718
801.632249 0.8637 0.8640 0.8769 0.8959 0.8980
808.425764 0.9070 0.9110 0.9090 0.9000 0.8960
815.219279 0.8940 0.8900 0.8791 0.8710 0.8333
822.012794 0.8180 0.8030 0.7700 0.7460 0.6702
828.806308 0.6660 0.6281 0.5882 0.5840 0.5751
835.599823 0.5610 0.5480 0.5460 0.5460 0.5630
842.393338 0.5799 0.5800 0.5352 0.4266 0.3565
849.186852 0.4111 0.4660 0.5330 0.5989 0.4892
855.980367 0.4681 0.4640 0.4451 0.4718 0.5018
862.773882 0.5231 0.5840 0.6450 0.6869 0.7269
869.567396 0.7340 0.7400 0.7440 0.7460 0.7460
876.360911 0.7440 0.7420 0.7380 0.7380 0.7360
883.154426 0.7360 0.7340 0.7340 0.7340 0.7290
889.947941 0.7250 0.7170 0.7130 0.7130 0.7130
896.741455 0.7130 0.7130 0.7130 0.7130 0.7130
903.534970 0.7130 0.7130 0.7130 0.7130 0.7130
910.328485 0.7230 0.7290 0.7290 0.7340 0.7419
917.121999 0.7440 0.7610 0.7740 0.7970 0.8180
923.915514 0.8310 0.8410 0.8519 0.8520 0.8599
930.709029 0.8690 0.8730 0.8830 0.8900 0.9000
937.502543 0.9090 0.9090 0.9130 0.9150 0.9239
944.296058 0.9280 0.9320 0.9320 0.9340 0.9340
951.089573 0.9380 0.9400 0.9400 0.9430 0.9430
957.883087 0.9430 0.9430 0.9430 0.9430 0.9430
964.676602 0.9430 0.9430 0.9400 0.9400 0.9380
971.470117 0.9360 0.9360 0.9360 0.9340 0.9340
978.263632 0.9340 0.9340 0.9320 0.9300 0.9280
985.057146 0.9240 0.9210 0.9170 0.9150 0.9130
991.850661 0.9110 0.9020 0.8960 0.8920 0.8920
998.644176 0.8920 0.8920 0.8790 0.8750 0.8790
1005.437690 0.8810 0.8830 0.8860 0.8860 0.8860
1012.231205 0.8830 0.8810 0.8810 0.8810 0.8830
1019.024720 0.8830 0.8880 0.8900 0.8920 0.8940
1025.818234 0.9020 0.9090 0.9110 0.9110 0.9150
1032.611749 0.9150 0.9170 0.9190 0.9260 0.9280
1039.405264 0.9280 0.9280 0.9280 0.9280 0.9260
1046.198779 0.9240 0.9210 0.9170 0.9150 0.9130
1052.992293 0.9110 0.9090 0.9070 0.9050 0.9020
1059.785808 0.9000 0.8960 0.8920 0.8880 0.8860
1066.579323 0.8810 0.8790 0.8690 0.8430 0.8010
1073.372837 0.7950 0.7860 0.7760 0.7322 0.7250
1080.166352 0.6980 0.6790 0.6600 0.6220 0.6160
1086.959867 0.6130 0.6130 0.6130 0.6110 0.6110
1093.753381 0.6030 0.5880 0.5820 0.5780 0.5800
1100.546896 0.6259 0.6699 0.7148 0.6204 0.5673
1107.340411 0.5630 0.5670 0.5780 0.5900 0.6180
1114.133925 0.6469 0.6789 0.7099 0.7548 0.7590
1120.927440 0.7610 0.7740 0.7740 0.7590 0.7570
1127.720955 0.7570 0.7570 0.7570 0.7570 0.7590
1134.514470 0.7610 0.7610 0.7700 0.7740 0.7760
1141.307984 0.7760 0.7760 0.7760 0.7760 0.7760
1148.101499 0.7760 0.7780 0.7800 0.7890 0.7970
1154.895014 0.8050 0.8349 0.8390 0.8480 0.8520
1161.688528 0.8540 0.8670 0.8710 0.8730 0.8900
1168.482043 0.8920 0.9000 0.9050 0.9070 0.9090
1175.275558 0.9110 0.9150 0.9170 0.9170 0.9170
1182.069072 0.9150 0.9150 0.9150 0.9240 0.9240
1188.862587 0.9240 0.9240 0.9210 0.9190 0.9130
1195.656102 0.9110 0.9020 0.9000 0.8920 0.8900
1202.449616 0.8810 0.8770 0.8600 0.8480 0.8450
1209.243131 0.8450 0.8450 0.8480 0.8500 0.8500
1216.036646 0.8450 0.8430 0.8270 0.7970 0.7970
1222.830161 0.8329 0.8350 0.8430 0.8520 0.8351
1229.623675 0.8270 0.8200 0.8200 0.8200 0.8220
1236.417190 0.8310 0.8410 0.8450 0.8500 0.8520
1243.210705 0.8600 0.8690 0.8710 0.8830 0.8880
1250.004219 0.8920 0.8920 0.8920 0.8920 0.8940
1256.797734 0.8960 0.8980 0.9000 0.9020 0.9020
1263.591249 0.9070 0.9110 0.9130 0.9170 0.9190
1270.384763 0.9240 0.9280 0.9320 0.9320 0.9360
1277.178278 0.9400 0.9400 0.9400 0.9400 0.9400
1283.971793 0.9380 0.9380 0.9380 0.9380 0.9380
1290.765308 0.9360 0.9340 0.9340 0.9320 0.9300
1297.558822 0.9300 0.9280 0.9260 0.9240 0.9210
1304.352337 0.9150 0.9150 0.9110 0.9070 0.9050
1311.145852 0.9000 0.8960 0.8920 0.8770 0.8450
1317.939366 0.8410 0.8330 0.8180 0.8120 0.7951
1324.732881 0.7780 0.7700 0.7650 0.7590 0.7550
1331.526396 0.7460 0.7420 0.7250 0.7230 0.7230
1338.319910 0.7229 0.6910 0.6870 0.6750 0.6620
1345.113425 0.6750 0.6660 0.6620 0.6431 0.6320
1351.906940 0.6279 0.6050 0.5970 0.5880 0.5900
1358.700454 0.5900 0.5920 0.5920 0.5900 0.5820
1365.493969 0.5629 0.5370 0.5210 0.5120 0.5100
1372.287484 0.4970 0.4890 0.4780 0.4680 0.4620
1379.080999 0.4590 0.4570 0.4550 0.4550 0.4570
1385.874513 0.4590 0.4640 0.4680 0.4700 0.4720
1392.668028 0.4811 0.5041 0.5460 0.5480 0.5500
1399.461543 0.5500 0.5250 0.4971 0.4591 0.4490
1406.255057 0.4490 0.4490 0.4490 0.4490 0.4510
1413.048572 0.4510 0.4550 0.4590 0.4700 0.4889
1419.842087 0.4890 0.4781 0.5099 0.4640 0.4910
1426.635601 0.5140 0.5350 0.5350 0.5041 0.4930
1433.429116 0.4810 0.4780 0.4660 0.4660 0.4810
1440.222631 0.5040 0.5160 0.5290 0.5400 0.5420
1447.016146 0.5460 0.5500 0.5480 0.5370 0.5330
1453.809660 0.5250 0.5180 0.4721 0.4511 0.4639
1460.603175 0.4660 0.4701 0.5161 0.5610 0.5480
1467.396690 0.5480 0.5560 0.5630 0.6009 0.5920
1474.190204 0.5920 0.5970 0.5990 0.6050 0.6180
1480.983719 0.6260 0.6320 0.6619 0.6789 0.6939
1487.777234 0.7040 0.7150 0.7170 0.7250 0.7550
1494.570748 0.7930 0.7950 0.7611 0.7610 0.8078
1501.364263 0.8520 0.8520 0.8540 0.8579 0.7670
1508.157778 0.7670 0.8269 0.8450 0.8639 0.8710
1514.951292 0.8790 0.8830 0.8880 0.8900 0.8900
1521.744807 0.8180 0.8559 0.8919 0.8920 0.8920
1528.538322 0.8920 0.8941 0.9150 0.8940 0.8940
1535.331837 0.8750 0.9129 0.9170 0.9210 0.8144
1542.125351 0.8431 0.8641 0.8831 0.9150 0.9170
1548.918866 0.9190 0.9260 0.9260 0.9260 0.9210
1555.712381 0.9129 0.8957 0.7910 0.7860 0.7860
1562.505895 0.8520 0.9149 0.9260 0.9260 0.9280
1569.299410 0.9278 0.8811 0.9090 0.9240 0.9239
1576.092925 0.8370 0.8730 0.9089 0.9300 0.9320
1582.886439 0.9320 0.9300 0.9300 0.9300 0.9300
1589.679954 0.9300 0.9300 0.9300 0.9300 0.9320
1596.473469 0.9320 0.9320 0.9300 0.9280 0.9280
1603.266984 0.9260 0.9240 0.9240 0.9240 0.9240
1610.060498 0.9260 0.9260 0.9300 0.9260 0.9239
1616.854013 0.8370 0.8370 0.8789 0.9209 0.9210
1623.647528 0.8941 0.9070 0.9090 0.9110 0.9130
1630.441042 0.9170 0.9190 0.9150 0.9110 0.8293
1637.234557 0.8292 0.8641 0.8980 0.9020 0.9020
1644.028072 0.8960 0.8940 0.8291 0.8290 0.8499
1650.821586 0.8710 0.8783 0.7022 0.7762 0.8500
1657.615101 0.8500 0.8500 0.8500 0.8390 0.8181
1664.408616 0.8140 0.8120 0.8120 0.8079 0.7800
1671.202130 0.7610 0.7530 0.7530 0.7440 0.7101
1677.995645 0.7101 0.7320 0.7320 0.7290 0.7250
1684.789160 0.7190 0.6350 0.6680 0.7019 0.6811
1691.582675 0.6789 0.6679 0.6540 0.6449 0.6180
1698.376189 0.5900 0.5400 0.5370 0.5560 0.5730
1705.169704 0.5669 0.5480 0.5420 0.5350 0.5159
1711.963219 0.4660 0.4570 0.4280 0.3731 0.3481
1718.756733 0.3028 0.2699 0.2399 0.2079 0.1719
1725.550248 0.1240 0.1090 0.1030 0.0631 0.0520
1732.343763 0.0330 0.0270 0.0250 0.0140 0.0100
1739.137277 0.0100 0.0100 0.0080 0.0060 0.0040
1745.930792 0.0040 0.0040 0.0040 0.0040 0.0040
1752.724307 0.0040 0.0100 0.0120 0.0120 0.0100
1759.517822 0.0080 0.0060 0.0060 0.0100 0.0100
1766.311336 0.0120 0.0140 0.0210 0.0290 0.0420
1773.104851 0.0501 0.0671 0.0921 0.1183 0.2480
1779.898366 0.2610 0.2740 0.3559 0.3899 0.4239
1786.691880 0.4571 0.4811 0.5121 0.5270 0.5440
1793.485395 0.5630 0.5800 0.6489 0.6640 0.6939
1800.278910 0.6981 0.7130 0.7251 0.7461 0.7740
1807.072424 0.7950 0.7970 0.8050 0.8140 0.8200
1813.865939 0.8330 0.8410 0.8450 0.8480 0.8500
1820.659454 0.8500 0.8450 0.8450 0.8450 0.8430
1827.452968 0.8430 0.8450 0.8450 0.8500 0.8520
1834.246483 0.8560 0.8640 0.8670 0.8670 0.8640
1841.039998 0.8640 0.8600 0.8540 0.8500 0.8500
1847.833513 0.8640 0.8640 0.8670 0.8690 0.8710
1854.627027 0.8730 0.8750 0.8770 0.8770 0.8830
1861.420542 0.8900 0.8900 0.8900 0.8900 0.8900
1868.214057 0.8900 0.8880 0.8900 0.8940 0.9000
1875.007571 0.9110 0.9110 0.9130 0.9130 0.9150
1881.801086 0.9150 0.9150 0.9150 0.9150 0.9150
1888.594601 0.9150 0.9170 0.9170 0.9260 0.9320
1895.388115 0.9320 0.9340 0.9340 0.9360 0.9360
1902.181630 0.9380 0.9380 0.9360 0.9380 0.9380
1908.975145 0.9380 0.9380 0.9360 0.9340 0.9340
1915.768660 0.9340 0.9340 0.9340 0.9340 0.9340
1922.562174 0.9340 0.9360 0.9400 0.9430 0.9450
1929.355689 0.9450 0.9450 0.9470 0.9470 0.9470
1936.149204 0.9450 0.9450 0.9450 0.9450 0.9450
1942.942718 0.9450 0.9450 0.9470 0.9470 0.9490
1949.736233 0.9490 0.9490 0.9510 0.9530 0.9550
1956.529748 0.9550 0.9550 0.9550 0.9550 0.9550
1963.323262 0.9550 0.9550 0.9550 0.9570 0.9570
1970.116777 0.9570 0.9570 0.9570 0.9570 0.9570
1976.910292 0.9570 0.9570 0.9550 0.9550 0.9550
1983.703806 0.9550 0.9550 0.9570 0.9570 0.9570
1990.497321 0.9570 0.9570 0.9550 0.9550 0.9530
1997.290836 0.9530 0.9530 0.9530 0.9540 0.9550
2004.084351 0.9550 0.9550 0.9550 0.9550 0.9550
2010.877865 0.9550 0.9550 0.9550 0.9550 0.9550
2017.671380 0.9550 0.9550 0.9550 0.9550 0.9560
2024.464895 0.9570 0.9570 0.9570 0.9570 0.9570
2031.258409 0.9580 0.9590 0.9590 0.9590 0.9590
2038.051924 0.9590 0.9590 0.9590 0.9604 0.9619
2044.845439 0.9620 0.9620 0.9620 0.9620 0.9620
2051.638953 0.9620 0.9606 0.9591 0.9590 0.9590
2058.432468 0.9590 0.9590 0.9590 0.9590 0.9590
2065.225983 0.9590 0.9581 0.9571 0.9570 0.9570
2072.019498 0.9570 0.9570 0.9570 0.9570 0.9570
2078.813012 0.9570 0.9570 0.9570 0.9570 0.9570
2085.606527 0.9570 0.9570 0.9570 0.9570 0.9579
2092.400042 0.9589 0.9590 0.9590 0.9590 0.9590
2099.193556 0.9590 0.9590 0.9590 0.9590 0.9590
2105.987071 0.9590 0.9590 0.9590 0.9590 0.9590
2112.780586 0.9590 0.9590 0.9590 0.9590 0.9590
2119.574100 0.9590 0.9590 0.9590 0.9590 0.9590
2126.367615 0.9590 0.9590 0.9581 0.9571 0.9570
2133.161130 0.9570 0.9570 0.9570 0.9561 0.9551
2139.954644 0.9550 0.9550 0.9541 0.9531 0.9530
2146.748159 0.9530 0.9530 0.9530 0.9530 0.9530
2153.541674 0.9530 0.9530 0.9530 0.9530 0.9530
2160.335189 0.9530 0.9538 0.9548 0.9550 0.9550
2167.128703 0.9550 0.9550 0.9550 0.9550 0.9550
2173.922218 0.9550 0.9550 0.9550 0.9550 0.9550
2180.715733 0.9550 0.9550 0.9550 0.9550 0.9550
2187.509247 0.9550 0.9550 0.9550 0.9558 0.9568
2194.302762 0.9570 0.9570 0.9570 0.9570 0.9578
2201.096277 0.9588 0.9610 0.9635 0.9640 0.9640
2207.889791 0.9640 0.9640 0.9632 0.9622 0.9620
2214.683306 0.9620 0.9620 0.9620 0.9620 0.9620
2221.476821 0.9620 0.9620 0.9620 0.9620 0.9620
2228.270336 0.9620 0.9620 0.9620 0.9620 0.9620
2235.063850 0.9628 0.9637 0.9640 0.9640 0.9633
2241.857365 0.9623 0.9620 0.9620 0.9628 0.9638
2248.650880 0.9640 0.9640 0.9640 0.9640 0.9640
2255.444394 0.9640 0.9640 0.9640 0.9640 0.9640
2262.237909 0.9640 0.9640 0.9640 0.9640 0.9640
2269.031424 0.9640 0.9640 0.9640 0.9647 0.9657
2275.824938 0.9660 0.9660 0.9660 0.9660 0.9660
2282.618453 0.9660 0.9660 0.9660 0.9660 0.9660
2289.411968 0.9653 0.9643 0.9640 0.9640 0.9633
2296.205482 0.9623 0.9610 0.9594 0.9576 0.9556
2302.998997 0.9543 0.9533 0.9530 0.9530 0.9509
2309.792512 0.9479 0.9456 0.9436 0.9430 0.9430
2316.586027 0.9420 0.9405 0.9387 0.9367 0.9360
2323.379541 0.9360 0.9353 0.9343 0.9333 0.9323
2330.173056 0.9313 0.9303 0.9300 0.9300 0.9300
2336.966571 0.9300 0.9300 0.9300 0.9306 0.9316
2343.760085 0.9320 0.9320 0.9307 0.9287 0.9258
2350.553600 0.9223 0.9204 0.9194 0.9177 0.9157
2357.347115 0.9150 0.9150 0.9156 0.9166 0.9183
2364.140629 0.9203 0.9245 0.9299 0.9326 0.9336
2370.934144 0.9346 0.9356 0.9388 0.9432 0.9456
2377.727659 0.9466 0.9494 0.9535 0.9556 0.9566
2384.521173 0.9576 0.9586 0.9590 0.9590 0.9590
2391.314688 0.9590 0.9599 0.9614 0.9620 0.9620
2398.108203 0.9620 0.9620 0.9620 0.9620 0.9620
2404.901718 0.9620 0.9620 0.9620 0.9620 0.9620
2411.695232 0.9620 0.9620 0.9611 0.9596 0.9590
2418.488747 0.9590 0.9604 0.9629 0.9646 0.9656
2425.282262 0.9666 0.9676 0.9680 0.9680 0.9680
2432.075776 0.9680 0.9686 0.9696 0.9700 0.9700
2438.869291 0.9700 0.9700 0.9700 0.9700 0.9706
2445.662806 0.9716 0.9720 0.9720 0.9720 0.9720
2452.456320 0.9720 0.9720 0.9720 0.9720 0.9720
2459.249835 0.9720 0.9720 0.9720 0.9720 0.9720
2466.043350 0.9715 0.9705 0.9700 0.9700 0.9700
2472.836865 0.9700 0.9700 0.9700 0.9700 0.9700
2479.630379 0.9700 0.9700 0.9700 0.9700 0.9705
2486.423894 0.9715 0.9720 0.9720 0.9720 0.9720
2493.217409 0.9720 0.9720 0.9720 0.9720 0.9720
2500.010923 0.9720 0.9720 0.9720 0.9720 0.9720
2506.804438 0.9720 0.9720 0.9720 0.9720 0.9715
2513.597953 0.9705 0.9700 0.9700 0.9700 0.9700
2520.391467 0.9700 0.9700 0.9700 0.9700 0.9700
2527.184982 0.9700 0.9700 0.9700 0.9695 0.9685
2533.978497 0.9680 0.9680 0.9680 0.9680 0.9680
2540.772011 0.9680 0.9676 0.9665 0.9655 0.9645
2547.565526 0.9640 0.9640 0.9640 0.9640 0.9640
2554.359041 0.9640 0.9640 0.9640 0.9640 0.9640
2561.152556 0.9636 0.9626 0.9620 0.9620 0.9614
2567.946070 0.9599 0.9582 0.9561 0.9550 0.9550
2574.739585 0.9550 0.9550 0.9550 0.9550 0.9546
2581.533100 0.9536 0.9530 0.9530 0.9526 0.9516
2588.326614 0.9506 0.9496 0.9486 0.9476 0.9470
2595.120129 0.9470 0.9462 0.9442 0.9424 0.9409
2601.913644 0.9396 0.9386 0.9380 0.9380 0.9372
2608.707158 0.9352 0.9336 0.9326 0.9316 0.9306
2615.500673 0.9293 0.9273 0.9251 0.9226 0.9206
2622.294188 0.9196 0.9179 0.9149 0.9122 0.9102
2629.087703 0.9069 0.9014 0.8969 0.8939 0.8913
2635.881217 0.8893 0.8867 0.8833 0.8799 0.8770
2642.674732 0.8743 0.8723 0.8691 0.8636 0.8561
2649.468247 0.8447 0.8342 0.8255 0.8173 0.8099
2656.261761 0.8036 0.7996 0.7937 0.7843 0.7748
2663.055276 0.7653 0.7552 0.7437 0.7270 0.6996
2669.848791 0.6759 0.6599 0.6454 0.6339 0.6218
2676.642305 0.6084 0.5879 0.5515 0.5211 0.5032
2683.435820 0.4846 0.4646 0.4399 0.4050 0.3748
2690.229335 0.3549 0.3343 0.3124 0.2854 0.2465
2697.022849 0.2134 0.1945 0.1747 0.1528 0.1363
2703.816364 0.1338 0.1312 0.1281 0.1251 0.1221
2710.609879 0.1190 0.1155 0.1121 0.1091 0.1067
2717.403394 0.1057 0.1053 0.1063 0.1073 0.1083
2724.196908 0.1110 0.1185 0.1265 0.1359 0.1476
2730.990423 0.1655 0.1843 0.2056 0.2231 0.2305
2737.783938 0.2380 0.2455 0.2606 0.2969 0.3289
2744.577452 0.3478 0.3668 0.3857 0.4037 0.4186
2751.370967 0.4380 0.4714 0.4970 0.4970 0.4970
2758.164482 0.4970 0.4968 0.4958 0.4948 0.4938
2764.957996 0.4928 0.4918 0.4908 0.4898 0.4881
2771.751511 0.4841 0.4807 0.4792 0.4773 0.4744
2778.545026 0.4696 0.4581 0.4422 0.4093 0.3776
2785.338541 0.3507 0.3275 0.3199 0.3057 0.2678
2792.132055 0.2368 0.2313 0.2258 0.2198 0.2137
2798.925570 0.2072 0.1989 0.1829 0.1696 0.1676
2805.719085 0.1660 0.1660 0.1662 0.1672 0.1686
2812.512599 0.1721 0.1762 0.1833 0.1901 0.1955
2819.306114 0.2009 0.2059 0.2105 0.2129 0.2159
2826.099629 0.2209 0.2263 0.2338 0.2412 0.2487
2832.893143 0.2586 0.2816 0.3050 0.3315 0.3568
2839.686658 0.3757 0.3946 0.4128 0.4373 0.4931
2846.480173 0.5415 0.5510 0.5605 0.5699 0.5800
2853.273687 0.5935 0.6069 0.6204 0.6329 0.6394
2860.067202 0.6453 0.6473 0.6490 0.6490 0.6489
2866.860717 0.6479 0.6464 0.6414 0.6367 0.6342
2873.654232 0.6298 0.6134 0.5989 0.5979 0.5920
2880.447746 0.5506 0.5121 0.4956 0.4789 0.4600
2887.241261 0.4406 0.4171 0.3939 0.3730 0.3521
2894.034776 0.3311 0.3118 0.3098 0.3076 0.3041
2900.828290 0.3008 0.2988 0.2969 0.2959 0.2946
2907.621805 0.2901 0.2856 0.2817 0.2778 0.2748
2914.415320 0.2712 0.2607 0.2520 0.2654 0.2784
2921.208834 0.2838 0.2895 0.2976 0.3061 0.3191
2928.002349 0.3311 0.3321 0.3330 0.3330 0.3329
2934.795864 0.3319 0.3306 0.3241 0.3179 0.3169
2941.589379 0.3161 0.3170 0.3183 0.3248 0.3313
2948.382893 0.3398 0.3481 0.3522 0.3557 0.3502
2955.176408 0.3450 0.3450 0.3445 0.3341 0.3235
2961.969923 0.3110 0.2985 0.2851 0.2715 0.2556
2968.763437 0.2399 0.2344 0.2289 0.2239 0.2190
2975.556952 0.2145 0.2100 0.2049 0.1997 0.1913
2982.350467 0.1828 0.1764 0.1700 0.1680 0.1663
2989.143981 0.1872 0.2078 0.1764 0.1450 0.1440
2995.937496 0.1430 0.1296 0.1161 0.1407 0.1656
3002.731011 0.1900 0.2145 0.2432 0.2721 0.3005
3009.524525 0.3289 0.3479 0.3668 0.3843 0.4017
3016.318040 0.4251 0.4485 0.5047 0.5615 0.6174
3023.111555 0.6732 0.6818 0.6887 0.6962 0.7037
3029.905070 0.7321 0.7615 0.7885 0.8154 0.8189
3036.698584 0.8219 0.8302 0.8387 0.8433 0.8478
3043.492099 0.8518 0.8558 0.8612 0.8667 0.8698
3050.285614 0.8728 0.8758 0.8788 0.8832 0.8877
3057.079128 0.8908 0.8938 0.8940 0.8940 0.8940
3063.872643 0.8940 0.8949 0.8959 0.8969 0.8979
3070.666158 0.8989 0.8999 0.9009 0.9019 0.9020
3077.459672 0.9020 0.9020 0.9020 0.9020 0.9020
3084.253187 0.9033 0.9048 0.9050 0.9050 0.9068
3091.046702 0.9088 0.9099 0.9109 0.9119 0.9129
3097.840217 0.9130 0.9130 0.9130 0.9130 0.9121
3104.633731 0.9111 0.9110 0.9110 0.9110 0.9110
3111.427246 0.9110 0.9110 0.9110 0.9110 0.9110
3118.220761 0.9110 0.9110 0.9110 0.9119 0.9129
3125.014275 0.9139 0.9149 0.9150 0.9150 0.9159
3131.807790 0.9169 0.9179 0.9189 0.9190 0.9190
3138.601305 0.9211 0.9236 0.9240 0.9240 0.9275
3145.394819 0.9315 0.9329 0.9339 0.9340 0.9340
3152.188334 0.9365 0.9395 0.9421 0.9446 0.9450
3158.981849 0.9450 0.9458 0.9468 0.9478 0.9488
3165.775363 0.9498 0.9508 0.9518 0.9528 0.9530
3172.568878 0.9530 0.9530 0.9530 0.9530 0.9530
3179.362393 0.9530 0.9530 0.9530 0.9530 0.9522
3186.155908 0.9512 0.9510 0.9510 0.9510 0.9510
