##TITLE=PYRUVIC ACID
##JCAMP-DX=4.24
##DATA TYPE=INFRARED SPECTRUM
##CLASS=COBLENTZ
##ORIGIN=STANDARD OIL OF OHIO
##OWNER=COBLENTZ SOCIETY
Collection (C) 2018 copyright by the U.S. Secretary of Commerce
on behalf of the United States of America. All rights reserved.
##DATE=Not specified, most likely prior to 1970
##NAMES=2-oxopropanoic acid
##CAS REGISTRY NO=127-17-3
##MOLFORM=C3 H4 O3
##SOURCE REFERENCE=COBLENTZ NO. 4638
##$NIST SOURCE=COBLENTZ
##$NIST IMAGE=cob4638
##SPECTROMETER/DATA SYSTEM=Not specified, most likely a grating spectrometer.
##STATE=LIQUID
##PATH LENGTH=(CsI PLATES)
##SAMPLING PROCEDURE=TRANSMISSION
##RESOLUTION=4
##DATA PROCESSING=DIGITIZED BY NIST FROM HARD COPY (FROM TWO SEGMENTS)
##XUNITS=1/CM
##YUNITS=TRANSMITTANCE
##XFACTOR=1.000000
##YFACTOR=1
##DELTAX=1.349831
##FIRSTX=312.711
##LASTX=3891.11
##FIRSTY=0.113
##MAXX=3891.11
##MINX=312.711
##MAXY=0.901
##MINY=0.013
##NPOINTS=2652
##XYDATA=(X++(Y..Y))
312.711000 0.1130 0.1130 0.1150 0.1160 0.1160
319.460156 0.1200 0.1369 0.1440 0.1500 0.1609
326.209312 0.1690 0.1720 0.1740 0.1790 0.1830
332.958468 0.1860 0.1910 0.2009 0.2060 0.2110
339.707624 0.2160 0.2230 0.2370 0.2400 0.2420
346.456780 0.2490 0.2540 0.2659 0.2789 0.2859
353.205936 0.2930 0.2980 0.3010 0.3060 0.3080
359.955092 0.3110 0.3130 0.3160 0.3220 0.3250
366.704248 0.3270 0.3330 0.3380 0.3380 0.3400
373.453404 0.3400 0.3420 0.3420 0.3380 0.3370
380.202560 0.3380 0.3380 0.3400 0.3420 0.3420
386.951716 0.3380 0.3350 0.3350 0.3370 0.3380
393.700872 0.3420 0.3520 0.3640 0.3720 0.3840
400.450028 0.3960 0.4099 0.4199 0.4279 0.4300
407.199184 0.4280 0.4280 0.4270 0.4270 0.4380
413.948340 0.4440 0.4490 0.4500 0.4540 0.4590
420.697496 0.4640 0.4710 0.4720 0.4720 0.4740
427.446652 0.4840 0.4890 0.4980 0.4980 0.5010
434.195808 0.5050 0.5130 0.5180 0.5220 0.5320
440.944964 0.5370 0.5400 0.5489 0.5540 0.5659
447.694120 0.5720 0.5770 0.5790 0.5860 0.5930
454.443276 0.5980 0.6010 0.6100 0.6160 0.6180
461.192432 0.6200 0.6250 0.6300 0.6330 0.6330
467.941588 0.6350 0.6370 0.6469 0.6520 0.6550
474.690744 0.6590 0.6610 0.6640 0.6660 0.6670
481.439900 0.6690 0.6710 0.6710 0.6740 0.6740
488.189056 0.6740 0.6770 0.6770 0.6760 0.6740
494.938212 0.6760 0.6770 0.6790 0.6790 0.6810
501.687368 0.6830 0.6840 0.6840 0.6840 0.6840
508.436524 0.6860 0.6860 0.6860 0.6880 0.6880
515.185680 0.6790 0.6760 0.6740 0.6740 0.6710
521.934836 0.6690 0.6670 0.6640 0.6541 0.6490
528.683992 0.6470 0.6470 0.6450 0.6420 0.6400
535.433148 0.6320 0.6300 0.6220 0.6131 0.6110
542.182304 0.6000 0.5910 0.5840 0.5760 0.5720
548.931460 0.5670 0.5620 0.5590 0.5520 0.5500
555.680616 0.5490 0.5500 0.5520 0.5540 0.5590
562.429772 0.5610 0.5620 0.5660 0.5670 0.5690
569.178928 0.5720 0.5740 0.5740 0.5740 0.5720
575.928084 0.5670 0.5660 0.5610 0.5590 0.5570
582.677240 0.5520 0.5490 0.5440 0.5420 0.5370
589.426396 0.5300 0.5220 0.5150 0.5001 0.4891
596.175552 0.4790 0.4690 0.4420 0.4220 0.3931
602.924708 0.3571 0.3331 0.3032 0.2811 0.2611
609.673864 0.2380 0.2270 0.2110 0.2060 0.2050
616.423020 0.2060 0.2110 0.2160 0.2279 0.2379
623.172176 0.2500 0.2640 0.2880 0.3010 0.3319
629.921332 0.3519 0.3759 0.3979 0.4079 0.4249
636.670488 0.4320 0.4380 0.4400 0.4420 0.4490
643.419644 0.4500 0.4520 0.4520 0.4540 0.4540
650.168800 0.4540 0.4520 0.4500 0.4500 0.4490
656.917956 0.4490 0.4450 0.4440 0.4420 0.4400
663.667112 0.4380 0.4350 0.4350 0.4330 0.4200
670.416268 0.4180 0.4160 0.4100 0.4060 0.4010
677.165424 0.3980 0.3880 0.3830 0.3690 0.3590
683.914580 0.3490 0.3380 0.3320 0.3201 0.3160
690.663736 0.3150 0.3150 0.3160 0.3160 0.3180
697.412892 0.3180 0.3220 0.3270 0.3330 0.3419
704.162048 0.3470 0.3520 0.3570 0.3690 0.3740
710.911204 0.3810 0.3890 0.4009 0.4129 0.4160
717.660360 0.4230 0.4280 0.4380 0.4380 0.4420
724.409516 0.4420 0.4400 0.4400 0.4380 0.4370
731.158672 0.4330 0.4320 0.4300 0.4250 0.4200
737.907828 0.4160 0.4130 0.4031 0.3941 0.3930
744.656984 0.3910 0.3810 0.3740 0.3640 0.3570
751.406140 0.3490 0.3381 0.3281 0.3161 0.3081
758.155296 0.3000 0.2880 0.2830 0.2770 0.2710
764.904452 0.2690 0.2670 0.2670 0.2670 0.2670
771.653608 0.2690 0.2720 0.2740 0.2720 0.2710
778.402764 0.2660 0.2620 0.2610 0.2590 0.2610
785.151920 0.2640 0.2690 0.2740 0.2860 0.2890
791.901076 0.3000 0.3000 0.3060 0.3080 0.3159
798.650232 0.3250 0.3330 0.3420 0.3490 0.3520
805.399388 0.3540 0.3570 0.3590 0.3590 0.3620
812.148544 0.3640 0.3660 0.3670 0.3670 0.3670
818.897700 0.3670 0.3660 0.3640 0.3640 0.3620
825.646856 0.3620 0.3620 0.3610 0.3610 0.3610
832.396012 0.3620 0.3620 0.3660 0.3670 0.3710
839.145168 0.3770 0.3840 0.3890 0.3940 0.4010
845.894324 0.4030 0.4050 0.4110 0.4180 0.4200
852.643480 0.4270 0.4330 0.4370 0.4400 0.4420
859.392636 0.4490 0.4540 0.4570 0.4610 0.4620
866.141792 0.4660 0.4720 0.4790 0.4830 0.4880
872.890948 0.4890 0.4940 0.4980 0.5000 0.5000
879.640104 0.5010 0.5010 0.5030 0.5050 0.5050
886.389260 0.5050 0.5080 0.5080 0.5060 0.5060
893.138416 0.5050 0.5050 0.5060 0.5080 0.5080
899.887572 0.5100 0.5100 0.5150 0.5200 0.5250
906.636728 0.5300 0.5350 0.5370 0.5370 0.5370
913.385884 0.5370 0.5370 0.5370 0.5370 0.5370
920.135040 0.5370 0.5350 0.5330 0.5280 0.5220
926.884196 0.5200 0.5150 0.5100 0.5080 0.5050
933.633352 0.5030 0.5030 0.5050 0.5060 0.5080
940.382508 0.5100 0.5130 0.5180 0.5269 0.5280
947.131664 0.5280 0.5300 0.5300 0.5300 0.5300
953.880820 0.5280 0.5250 0.5230 0.5220 0.5151
960.629976 0.5000 0.4880 0.4770 0.4620 0.4520
967.379132 0.4351 0.4061 0.3831 0.3711 0.3472
974.128288 0.3270 0.3150 0.3130 0.3150 0.3180
980.877444 0.3329 0.3499 0.3719 0.3959 0.4218
987.626600 0.4440 0.4610 0.4889 0.5000 0.5080
994.375756 0.5279 0.5439 0.5500 0.5540 0.5669
1001.124912 0.5710 0.5710 0.5690 0.5670 0.5660
1007.874068 0.5640 0.5610 0.5540 0.5470 0.5321
1014.623224 0.4980 0.4670 0.4380 0.4111 0.4110
1021.372380 0.4150 0.4180 0.4279 0.4538 0.4709
1028.121536 0.5000 0.5080 0.5160 0.5350 0.5470
1034.870692 0.5540 0.5570 0.5640 0.5670 0.5690
1041.619848 0.5720 0.5720 0.5710 0.5640 0.5610
1048.369004 0.5590 0.5550 0.5500 0.5450 0.5440
1055.118160 0.5420 0.5420 0.5420 0.5420 0.5420
1061.867316 0.5400 0.5400 0.5380 0.5300 0.5201
1068.616472 0.5130 0.4960 0.4770 0.4660 0.4500
1075.365628 0.4400 0.4181 0.4031 0.3861 0.3622
1082.114784 0.3490 0.3270 0.3030 0.2880 0.2721
1088.863940 0.2610 0.2471 0.2450 0.2470 0.2490
1095.613096 0.2520 0.2640 0.2740 0.2890 0.3000
1102.362252 0.3159 0.3160 0.3130 0.3060 0.3010
1109.111408 0.2860 0.2710 0.2620 0.2500 0.2380
1115.860564 0.2280 0.2161 0.2011 0.1930 0.1860
1122.609720 0.1740 0.1610 0.1470 0.1330 0.1230
1129.358876 0.1111 0.1030 0.0911 0.0860 0.0840
1136.108032 0.0720 0.0710 0.0710 0.0760 0.0770
1142.857188 0.0770 0.0720 0.0710 0.0690 0.0670
1149.606344 0.0640 0.0620 0.0610 0.0610 0.0620
1156.355500 0.0620 0.0660 0.0660 0.0670 0.0670
1163.104656 0.0710 0.0740 0.0790 0.0810 0.0880
1169.853812 0.0930 0.1010 0.1030 0.1149 0.1200
1176.602968 0.1230 0.1280 0.1330 0.1350 0.1370
1183.352124 0.1350 0.1320 0.1280 0.1250 0.1220
1190.101280 0.1150 0.1110 0.1100 0.1080 0.1080
1196.850436 0.1060 0.1050 0.1050 0.1030 0.1010
1203.599592 0.1010 0.1010 0.1030 0.1050 0.1060
1210.348748 0.1080 0.1110 0.1130 0.1150 0.1150
1217.097904 0.1150 0.1160 0.1160 0.1180 0.1200
1223.847060 0.1220 0.1230 0.1250 0.1250 0.1270
1230.596216 0.1280 0.1300 0.1350 0.1370 0.1420
1237.345372 0.1490 0.1500 0.1500 0.1520 0.1570
1244.094528 0.1590 0.1620 0.1660 0.1690 0.1740
1250.843684 0.1810 0.1860 0.1890 0.1910 0.1980
1257.592840 0.2010 0.2030 0.2080 0.2100 0.2130
1264.341996 0.2180 0.2220 0.2250 0.2280 0.2330
1271.091152 0.2350 0.2350 0.2370 0.2400 0.2450
1277.840308 0.2450 0.2490 0.2500 0.2500 0.2520
1284.589464 0.2520 0.2540 0.2550 0.2570 0.2570
1291.338620 0.2590 0.2610 0.2620 0.2620 0.2620
1298.087776 0.2620 0.2620 0.2640 0.2640 0.2640
1304.836932 0.2640 0.2640 0.2640 0.2640 0.2640
1311.586088 0.2620 0.2610 0.2590 0.2590 0.2570
1318.335244 0.2540 0.2500 0.2500 0.2421 0.2380
1325.084400 0.2350 0.2230 0.2180 0.2080 0.2010
1331.833556 0.1910 0.1771 0.1621 0.1501 0.1351
1338.582712 0.1160 0.1050 0.0910 0.0810 0.0710
1345.331868 0.0660 0.0620 0.0610 0.0610 0.0620
1352.081024 0.0660 0.0670 0.0670 0.0710 0.0740
1358.830180 0.0790 0.0860 0.0999 0.1129 0.1180
1365.579336 0.1300 0.1490 0.1570 0.1670 0.1720
1372.328492 0.1720 0.1690 0.1670 0.1640 0.1590
1379.077648 0.1570 0.1550 0.1550 0.1570 0.1590
1385.826804 0.1590 0.1610 0.1640 0.1660 0.1690
1392.575960 0.1740 0.1880 0.1940 0.1980 0.2050
1399.325116 0.2110 0.2180 0.2230 0.2250 0.2280
1406.074272 0.2300 0.2320 0.2330 0.2330 0.2320
1412.823428 0.2300 0.2270 0.2230 0.2220 0.2200
1419.572584 0.2180 0.2180 0.2180 0.2200 0.2230
1426.321740 0.2250 0.2330 0.2469 0.2520 0.2639
1433.070896 0.2720 0.2860 0.3060 0.3220 0.3300
1439.820052 0.3380 0.3499 0.3550 0.3689 0.3710
1446.569208 0.3770 0.3860 0.3910 0.3960 0.4030
1453.318364 0.4060 0.4249 0.4568 0.4739 0.4770
1460.067520 0.4810 0.4880 0.4940 0.5010 0.5249
1466.816676 0.5379 0.5400 0.5499 0.5609 0.5719
1473.565832 0.5760 0.5810 0.5830 0.5910 0.5930
1480.314988 0.6010 0.6030 0.6030 0.6080 0.6100
1487.064144 0.6110 0.6130 0.6160 0.6180 0.6200
1493.813300 0.6220 0.6220 0.6230 0.6250 0.6250
1500.562456 0.6280 0.6280 0.6300 0.6300 0.6320
1507.311612 0.6320 0.6320 0.6320 0.6280 0.6280
1514.060768 0.6300 0.6300 0.6300 0.6300 0.6280
1520.809924 0.6280 0.6280 0.6280 0.6280 0.6280
1527.559080 0.6280 0.6280 0.6270 0.6250 0.6270
1534.308236 0.6300 0.6270 0.6230 0.6200 0.6200
1541.057392 0.6220 0.6220 0.6220 0.6200 0.6200
1547.806548 0.6200 0.6180 0.6160 0.6130 0.6110
1554.555704 0.6100 0.6080 0.6030 0.6030 0.6010
1561.304860 0.6010 0.6010 0.6000 0.6000 0.6000
1568.054016 0.5960 0.5960 0.5960 0.5930 0.5910
1574.803172 0.5860 0.5860 0.5830 0.5810 0.5770
1581.552328 0.5760 0.5720 0.5660 0.5640 0.5610
1588.301484 0.5590 0.5520 0.5500 0.5440 0.5370
1595.050640 0.5300 0.5250 0.5220 0.5150 0.5001
1601.799796 0.4890 0.4860 0.4790 0.4740 0.4621
1608.548952 0.4590 0.4490 0.4400 0.4370 0.4300
1615.298108 0.4200 0.4180 0.4110 0.4011 0.4000
1622.047264 0.3890 0.3880 0.3770 0.3740 0.3720
1628.796420 0.3710 0.3710 0.3710 0.3720 0.3740
1635.545576 0.3740 0.3720 0.3720 0.3710 0.3660
1642.294732 0.3640 0.3550 0.3500 0.3450 0.3381
1649.043888 0.3280 0.3010 0.2611 0.2321 0.2280
1655.793044 0.2250 0.2200 0.2081 0.2080 0.2269
1662.542200 0.2300 0.2330 0.2470 0.2520 0.2660
1669.291356 0.2690 0.2690 0.2640 0.2541 0.2421
1676.040512 0.2380 0.2350 0.2230 0.2130 0.1980
1682.789668 0.1880 0.1790 0.1710 0.1640 0.1590
1689.538824 0.1540 0.1490 0.1400 0.1320 0.1230
1696.287980 0.1150 0.1110 0.1060 0.1010 0.0861
1703.037136 0.0810 0.0770 0.0670 0.0640 0.0620
1709.786292 0.0500 0.0490 0.0490 0.0420 0.0400
1716.535448 0.0320 0.0280 0.0270 0.0220 0.0180
1723.284604 0.0160 0.0150 0.0150 0.0130 0.0130
1730.033760 0.0130 0.0130 0.0130 0.0130 0.0130
1736.782916 0.0130 0.0130 0.0130 0.0130 0.0130
1743.532072 0.0150 0.0160 0.0200 0.0220 0.0230
1750.281228 0.0230 0.0250 0.0250 0.0250 0.0270
1757.030384 0.0270 0.0270 0.0270 0.0270 0.0280
1763.779540 0.0280 0.0320 0.0350 0.0380 0.0400
1770.528696 0.0400 0.0420 0.0420 0.0440 0.0440
1777.277852 0.0440 0.0450 0.0500 0.0540 0.0590
1784.027008 0.0670 0.0770 0.0880 0.1010 0.1050
1790.776164 0.1349 0.1659 0.1720 0.1859 0.2059
1797.525320 0.2250 0.2540 0.2720 0.2910 0.3060
1804.274476 0.3199 0.3329 0.3489 0.3520 0.3738
1811.023632 0.3830 0.3930 0.4030 0.4080 0.4220
1817.772788 0.4320 0.4469 0.4550 0.4739 0.4790
1824.521944 0.4930 0.5050 0.5230 0.5280 0.5469
1831.271100 0.5659 0.5690 0.5809 0.5860 0.5939
1838.020256 0.6000 0.6030 0.6030 0.6060 0.6080
1844.769412 0.6180 0.6220 0.6230 0.6329 0.6370
1851.518568 0.6440 0.6500 0.6550 0.6640 0.6670
1858.267724 0.6710 0.6740 0.6760 0.6770 0.6790
1865.016880 0.6810 0.6830 0.6860 0.6860 0.6880
1871.766036 0.6880 0.6880 0.6890 0.6890 0.6910
1878.515192 0.6910 0.6910 0.6910 0.6910 0.6910
1885.264348 0.6910 0.6910 0.6910 0.6910 0.6910
1892.013504 0.6910 0.6910 0.6890 0.6890 0.6890
1898.762660 0.6890 0.6890 0.6890 0.6910 0.6910
1905.511816 0.6910 0.6910 0.6910 0.6910 0.6910
1912.260972 0.6910 0.6910 0.6910 0.6910 0.6910
1919.010128 0.6910 0.6890 0.6880 0.6880 0.6880
1925.759284 0.6880 0.6880 0.6880 0.6880 0.6880
1932.508440 0.6880 0.6880 0.6880 0.6880 0.6880
1939.257596 0.6860 0.6860 0.6860 0.6860 0.6860
1946.006752 0.6860 0.6860 0.6840 0.6830 0.6810
1952.755908 0.6810 0.6790 0.6790 0.6770 0.6770
1959.505064 0.6770 0.6770 0.6770 0.6770 0.6770
1966.254220 0.6770 0.6770 0.6770 0.6760 0.6760
1973.003376 0.6760 0.6760 0.6760 0.6740 0.6740
1979.752532 0.6740 0.6740 0.6740 0.6740 0.6720
1986.501688 0.6720 0.6720 0.6720 0.6720 0.6710
1993.250844 0.6710 0.6710 0.6710 0.6710 0.6690
2000.000000 0.6690 0.6690 0.6690 0.6700 0.6710
2006.749156 0.6715 0.6720 0.6730 0.6740 0.6755
2013.498312 0.6770 0.6780 0.6790 0.6800 0.6810
2020.247468 0.6820 0.6830 0.6835 0.6840 0.6859
2026.996624 0.6880 0.6885 0.6890 0.6900 0.6910
2033.745780 0.6910 0.6910 0.6920 0.6930 0.6968
2040.494936 0.7008 0.7019 0.7029 0.7039 0.7049
2047.244092 0.7064 0.7079 0.7089 0.7099 0.7105
2053.993248 0.7110 0.7110 0.7110 0.7134 0.7159
2060.742404 0.7169 0.7179 0.7203 0.7228 0.7239
2067.491560 0.7249 0.7259 0.7269 0.7284 0.7299
2074.240716 0.7309 0.7319 0.7320 0.7320 0.7325
2080.989872 0.7330 0.7339 0.7349 0.7364 0.7379
2087.739028 0.7398 0.7418 0.7434 0.7449 0.7459
2094.488184 0.7469 0.7479 0.7489 0.7495 0.7499
2101.237340 0.7509 0.7519 0.7520 0.7520 0.7529
2107.986496 0.7539 0.7540 0.7540 0.7545 0.7550
2114.735652 0.7550 0.7550 0.7559 0.7569 0.7570
2121.484808 0.7570 0.7570 0.7570 0.7570 0.7570
2128.233964 0.7570 0.7570 0.7570 0.7570 0.7570
2134.983120 0.7570 0.7570 0.7570 0.7570 0.7570
2141.732276 0.7570 0.7570 0.7570 0.7570 0.7570
2148.481432 0.7570 0.7579 0.7589 0.7590 0.7590
2155.230588 0.7590 0.7590 0.7590 0.7590 0.7590
2161.979744 0.7590 0.7590 0.7590 0.7590 0.7590
2168.728900 0.7590 0.7590 0.7590 0.7590 0.7590
2175.478056 0.7590 0.7590 0.7590 0.7590 0.7590
2182.227212 0.7590 0.7590 0.7582 0.7572 0.7570
2188.976368 0.7570 0.7570 0.7570 0.7570 0.7570
2195.725524 0.7562 0.7552 0.7550 0.7550 0.7546
2202.474680 0.7541 0.7540 0.7540 0.7540 0.7540
2209.223836 0.7532 0.7522 0.7520 0.7520 0.7512
2215.972992 0.7502 0.7500 0.7500 0.7500 0.7500
2222.722148 0.7496 0.7491 0.7482 0.7472 0.7462
2229.471304 0.7452 0.7446 0.7441 0.7440 0.7440
2236.220460 0.7440 0.7440 0.7432 0.7422 0.7412
2242.969616 0.7402 0.7392 0.7382 0.7376 0.7371
2249.718772 0.7362 0.7352 0.7350 0.7350 0.7342
2256.467928 0.7332 0.7326 0.7321 0.7312 0.7302
2263.217084 0.7289 0.7274 0.7262 0.7252 0.7242
2269.966240 0.7232 0.7218 0.7203 0.7185 0.7165
2276.715396 0.7149 0.7134 0.7130 0.7130 0.7119
2283.464552 0.7104 0.7093 0.7083 0.7069 0.7054
2290.213708 0.7043 0.7033 0.7023 0.7013 0.7006
2296.962864 0.7001 0.6992 0.6983 0.6961 0.6936
2303.712020 0.6923 0.6913 0.6899 0.6884 0.6862
2310.461176 0.6837 0.6808 0.6778 0.6741 0.6701
2317.210332 0.6683 0.6673 0.6659 0.6644 0.6629
2323.959488 0.6614 0.6585 0.6550 0.6526 0.6506
2330.708644 0.6500 0.6500 0.6464 0.6414 0.6375
2337.457800 0.6340 0.6309 0.6279 0.6263 0.6253
2344.206956 0.6243 0.6233 0.6227 0.6222 0.6196
2350.956112 0.6160 0.6132 0.6107 0.6075 0.6041
2357.705268 0.6023 0.6013 0.6007 0.6002 0.5979
2364.454424 0.5950 0.5930 0.5915 0.5893 0.5868
2371.203580 0.5843 0.5818 0.5803 0.5793 0.5780
2377.952736 0.5765 0.5746 0.5726 0.5717 0.5712
2384.701892 0.5703 0.5693 0.5680 0.5665 0.5643
2391.451048 0.5618 0.5597 0.5577 0.5563 0.5554
2398.200204 0.5547 0.5542 0.5527 0.5507 0.5481
2404.949360 0.5450 0.5433 0.5423 0.5407 0.5387
2411.698516 0.5364 0.5339 0.5311 0.5281 0.5257
2418.447672 0.5237 0.5208 0.5173 0.5151 0.5136
2425.196828 0.5121 0.5106 0.5085 0.5060 0.5028
2431.945984 0.4993 0.4951 0.4906 0.4881 0.4866
2438.695140 0.4851 0.4836 0.4811 0.4781 0.4755
2445.444296 0.4730 0.4717 0.4712 0.4695 0.4670
2452.193452 0.4648 0.4628 0.4617 0.4612 0.4592
2458.942608 0.4562 0.4541 0.4526 0.4514 0.4504
2465.691764 0.4500 0.4500 0.4482 0.4452 0.4434
2472.440920 0.4424 0.4414 0.4404 0.4377 0.4337
2479.190076 0.4271 0.4186 0.4144 0.4134 0.4136
2485.939232 0.4146 0.4171 0.4206 0.4244 0.4283
2492.688388 0.4291 0.4276 0.4256 0.4231 0.4203
2499.437544 0.4173 0.4151 0.4137 0.4116 0.4091
2506.186700 0.4080 0.4080 0.4072 0.4057 0.4050
2512.935856 0.4050 0.4044 0.4034 0.4024 0.4014
2519.685012 0.4007 0.4002 0.4000 0.4000 0.3994
2526.434168 0.3985 0.3975 0.3965 0.3955 0.3945
2533.183324 0.3940 0.3940 0.3940 0.3940 0.3945
2539.932480 0.3955 0.3965 0.3975 0.3980 0.3980
2546.681636 0.3980 0.3980 0.3985 0.3995 0.4000
2553.430792 0.4000 0.4000 0.4000 0.3995 0.3985
2560.179948 0.3980 0.3980 0.3980 0.3980 0.3975
2566.929104 0.3965 0.3955 0.3945 0.3932 0.3917
2573.678260 0.3910 0.3910 0.3905 0.3895 0.3887
2580.427416 0.3882 0.3870 0.3850 0.3838 0.3833
2587.176572 0.3820 0.3800 0.3785 0.3775 0.3770
2593.925728 0.3770 0.3767 0.3763 0.3755 0.3745
2600.674884 0.3735 0.3725 0.3718 0.3713 0.3705
2607.424040 0.3695 0.3685 0.3675 0.3668 0.3663
2614.173196 0.3655 0.3645 0.3635 0.3625 0.3618
2620.922352 0.3613 0.3605 0.3595 0.3585 0.3575
2627.671508 0.3565 0.3555 0.3548 0.3543 0.3540
2634.420664 0.3540 0.3542 0.3547 0.3554 0.3564
2641.169820 0.3574 0.3584 0.3590 0.3590 0.3594
2647.918976 0.3605 0.3610 0.3610 0.3610 0.3610
2654.668132 0.3610 0.3610 0.3610 0.3610 0.3612
2661.417288 0.3617 0.3620 0.3620 0.3620 0.3620
2668.166444 0.3620 0.3620 0.3620 0.3620 0.3624
2674.915600 0.3634 0.3644 0.3654 0.3660 0.3660
2681.664756 0.3660 0.3660 0.3660 0.3660 0.3656
2688.413912 0.3646 0.3640 0.3640 0.3640 0.3640
2695.163068 0.3640 0.3640 0.3636 0.3626 0.3618
2701.912224 0.3613 0.3610 0.3610 0.3606 0.3596
2708.661380 0.3586 0.3576 0.3566 0.3556 0.3548
2715.410536 0.3543 0.3540 0.3540 0.3536 0.3526
2722.159692 0.3520 0.3520 0.3516 0.3506 0.3494
2728.908848 0.3479 0.3466 0.3456 0.3448 0.3443
2735.658004 0.3429 0.3399 0.3378 0.3373 0.3363
2742.407160 0.3343 0.3325 0.3310 0.3295 0.3280
2749.156316 0.3263 0.3243 0.3221 0.3196 0.3168
2755.905472 0.3132 0.3108 0.3103 0.3093 0.3073
2762.654628 0.3055 0.3040 0.3026 0.3016 0.2996
2769.403784 0.2956 0.2923 0.2903 0.2888 0.2883
2776.152940 0.2872 0.2847 0.2823 0.2804 0.2787
2782.902096 0.2777 0.2765 0.2750 0.2731 0.2707
2789.651252 0.2682 0.2657 0.2637 0.2627 0.2615
2796.400408 0.2600 0.2584 0.2564 0.2545 0.2530
2803.149564 0.2515 0.2500 0.2490 0.2490 0.2473
2809.898720 0.2418 0.2375 0.2360 0.2347 0.2337
2816.647876 0.2330 0.2330 0.2328 0.2323 0.2317
2823.397032 0.2307 0.2296 0.2281 0.2263 0.2238
2830.146188 0.2220 0.2220 0.2214 0.2194 0.2176
2836.895344 0.2161 0.2147 0.2137 0.2127 0.2117
2843.644500 0.2106 0.2091 0.2076 0.2061 0.2047
2850.393656 0.2037 0.2027 0.2017 0.2009 0.2004
2857.142812 0.1997 0.1987 0.1977 0.1967 0.1957
2863.891968 0.1947 0.1939 0.1934 0.1927 0.1917
2870.641124 0.1907 0.1897 0.1886 0.1871 0.1860
2877.390280 0.1860 0.1856 0.1841 0.1825 0.1805
2884.139436 0.1788 0.1778 0.1769 0.1764 0.1758
2890.888592 0.1748 0.1737 0.1727 0.1720 0.1720
2897.637748 0.1719 0.1714 0.1708 0.1698 0.1686
2904.386904 0.1672 0.1655 0.1635 0.1617 0.1602
2911.136060 0.1586 0.1566 0.1549 0.1544 0.1536
2917.885216 0.1516 0.1499 0.1494 0.1484 0.1459
2924.634372 0.1438 0.1428 0.1420 0.1420 0.1420
2931.383528 0.1420 0.1422 0.1432 0.1440 0.1440
2938.132684 0.1441 0.1446 0.1450 0.1450 0.1449
2944.881840 0.1444 0.1438 0.1428 0.1420 0.1420
2951.630996 0.1420 0.1420 0.1420 0.1420 0.1420
2958.380152 0.1420 0.1420 0.1420 0.1420 0.1420
2965.129308 0.1418 0.1408 0.1400 0.1400 0.1397
2971.878464 0.1382 0.1370 0.1370 0.1368 0.1358
2978.627620 0.1350 0.1350 0.1350 0.1350 0.1348
2985.376776 0.1338 0.1330 0.1330 0.1330 0.1330
2992.125932 0.1330 0.1330 0.1330 0.1330 0.1330
2998.875088 0.1330 0.1329 0.1324 0.1318 0.1308
3005.624244 0.1300 0.1300 0.1300 0.1300 0.1300
3012.373400 0.1300 0.1300 0.1300 0.1300 0.1300
3019.122556 0.1299 0.1289 0.1280 0.1280 0.1280
3025.871712 0.1280 0.1280 0.1280 0.1280 0.1280
3032.620868 0.1280 0.1280 0.1280 0.1280 0.1280
3039.370024 0.1280 0.1280 0.1280 0.1279 0.1274
3046.119180 0.1270 0.1270 0.1270 0.1270 0.1270
3052.868336 0.1270 0.1270 0.1270 0.1270 0.1270
