##TITLE=ACETONE OXIME
##JCAMP-DX=4.24
$$ By DXEDIT 1.05 (RS McDonald)
##DATA TYPE=INFRARED SPECTRUM
##CLASS=COBLENTZ II
##ORIGIN=DOW CHEMICAL COMPANY
##OWNER=COBLENTZ SOC.
Collection (C) 2018 copyright by the U.S. Secretary of Commerce
on behalf of the United States of America. All rights reserved.
##DATE=1965/07/07
##CAS REGISTRY NO=127-06-0
##MOLFORM=C3 H7 N O
##SOURCE REFERENCE=COBLENTZ NO. 05690
##$NIST SOURCE=COBLENTZ
##$NIST IMAGE=cob5690
##SPECTROMETER/DATA SYSTEM=DOW KBr FOREPRISM-GRATING
##INSTRUMENT PARAMETERS=BLAZED AT 3.5, 12.0, 20.0 MICRON AND CHANGED AT 5.0, 7.5, 14.9 MICRON
##STATE=SOLUTION (10% CCl4 FOR 3800-1340, 10% CS2 FOR 1340-400) VS SOLVENT
##PATH LENGTH=0.011 CM, 0.011 CM
##SAMPLING PROCEDURE=TRANSMISSION
##RESOLUTION=2
##DATA PROCESSING=DIGITIZED BY COBLENTZ SOCIETY (BATCH I) FROM HARD COPY
##XUNITS=1/CM
##YUNITS=TRANSMITTANCE
##XLABEL=Wavenumbers (cm-1)
##YLABEL=% Transmission
##XFACTOR=1
##YFACTOR=1
##DELTAX=1
##FIRSTX=3816
##LASTX=385
##FIRSTY=0.871
##MAXX=3816
##MINX=385
##MAXY=0.9065
##MINY=0.021
##NPOINTS=3432
##XYDATA=(X++(Y..Y))
3816.000000 0.8710 0.8710 0.8711 0.8711 0.8711
3811.000000 0.8711 0.8711 0.8711 0.8712 0.8712
3806.000000 0.8712 0.8712 0.8712 0.8712 0.8713
3801.000000 0.8713 0.8713 0.8713 0.8713 0.8713
3796.000000 0.8714 0.8714 0.8714 0.8714 0.8715
3791.000000 0.8715 0.8715 0.8715 0.8715 0.8715
3786.000000 0.8716 0.8716 0.8716 0.8716 0.8716
3781.000000 0.8716 0.8717 0.8717 0.8717 0.8717
3776.000000 0.8718 0.8718 0.8718 0.8718 0.8718
3771.000000 0.8718 0.8718 0.8718 0.8718 0.8718
3766.000000 0.8720 0.8720 0.8720 0.8720 0.8720
3761.000000 0.8720 0.8720 0.8720 0.8720 0.8720
3756.000000 0.8720 0.8720 0.8720 0.8718 0.8718
3751.000000 0.8718 0.8718 0.8718 0.8718 0.8718
3746.000000 0.8718 0.8718 0.8718 0.8718 0.8718
3741.000000 0.8717 0.8717 0.8717 0.8717 0.8716
3736.000000 0.8715 0.8714 0.8713 0.8712 0.8711
3731.000000 0.8710 0.8709 0.8707 0.8706 0.8705
3726.000000 0.8704 0.8703 0.8702 0.8701 0.8700
3721.000000 0.8699 0.8698 0.8697 0.8696 0.8694
3716.000000 0.8692 0.8690 0.8689 0.8687 0.8685
3711.000000 0.8683 0.8681 0.8678 0.8677 0.8675
3706.000000 0.8673 0.8671 0.8668 0.8667 0.8665
3701.000000 0.8663 0.8662 0.8660 0.8658 0.8656
3696.000000 0.8655 0.8653 0.8651 0.8649 0.8648
3691.000000 0.8646 0.8645 0.8643 0.8642 0.8640
3686.000000 0.8639 0.8637 0.8636 0.8634 0.8633
3681.000000 0.8631 0.8628 0.8627 0.8625 0.8624
3676.000000 0.8623 0.8620 0.8618 0.8616 0.8614
3671.000000 0.8612 0.8610 0.8608 0.8592 0.8604
3666.000000 0.8602 0.8599 0.8597 0.8595 0.8593
3661.000000 0.8588 0.8584 0.8578 0.8574 0.8568
3656.000000 0.8563 0.8558 0.8553 0.8548 0.8543
3651.000000 0.8537 0.8532 0.8523 0.8515 0.8502
3646.000000 0.8490 0.8477 0.8465 0.8452 0.8440
3641.000000 0.8301 0.8162 0.7951 0.7740 0.7528
3636.000000 0.7315 0.7104 0.6892 0.6680 0.6468
3631.000000 0.6257 0.6045 0.5833 0.5621 0.5562
3626.000000 0.5484 0.5521 0.5536 0.5632 0.5728
3621.000000 0.5824 0.5920 0.6016 0.6112 0.6208
3616.000000 0.6304 0.6400 0.6497 0.6593 0.6689
3611.000000 0.6785 0.6881 0.6976 0.7072 0.7167
3606.000000 0.7261 0.7289 0.7317 0.7339 0.7361
3601.000000 0.7375 0.7392 0.7408 0.7424 0.7437
3596.000000 0.7451 0.7458 0.7468 0.7475 0.7484
3591.000000 0.7492 0.7501 0.7503 0.7503 0.7503
3586.000000 0.7501 0.7498 0.7475 0.7493 0.7491
3581.000000 0.7489 0.7487 0.7484 0.7481 0.7475
3576.000000 0.7468 0.7462 0.7457 0.7444 0.7432
3571.000000 0.7417 0.7403 0.7388 0.7372 0.7357
3566.000000 0.7342 0.7325 0.7311 0.7296 0.7281
3561.000000 0.7257 0.7233 0.7175 0.7117 0.7091
3556.000000 0.7065 0.7040 0.7015 0.6982 0.6949
3551.000000 0.6912 0.6876 0.6838 0.6800 0.6757
3546.000000 0.6715 0.6671 0.6630 0.6587 0.6544
3541.000000 0.6491 0.6438 0.6382 0.6327 0.6271
3536.000000 0.6215 0.6162 0.6110 0.6080 0.6049
3531.000000 0.6017 0.5986 0.5955 0.5924 0.5892
3526.000000 0.5860 0.5829 0.5798 0.5767 0.5736
3521.000000 0.5701 0.5667 0.5608 0.5549 0.5490
3516.000000 0.5431 0.5372 0.5312 0.5254 0.5195
3511.000000 0.5136 0.5077 0.5017 0.4958 0.4898
3506.000000 0.4839 0.4779 0.4720 0.4669 0.4619
3501.000000 0.4588 0.4558 0.4528 0.4498 0.4467
3496.000000 0.4437 0.4406 0.4376 0.4346 0.4316
3491.000000 0.4285 0.4255 0.4225 0.4196 0.4167
3486.000000 0.4139 0.4110 0.4082 0.4055 0.4027
3481.000000 0.3998 0.3970 0.3942 0.3914 0.3886
3476.000000 0.3858 0.3830 0.3802 0.3773 0.3745
3471.000000 0.3712 0.3679 0.3643 0.3608 0.3572
3466.000000 0.3536 0.3500 0.3464 0.3429 0.3393
3461.000000 0.3355 0.3318 0.3280 0.3245 0.3209
3456.000000 0.3174 0.3138 0.3103 0.3068 0.3034
3451.000000 0.3003 0.2972 0.2941 0.2910 0.2874
3446.000000 0.2838 0.2795 0.2752 0.2709 0.2666
3441.000000 0.2622 0.2579 0.2554 0.2529 0.2503
3436.000000 0.2478 0.2452 0.2427 0.2402 0.2377
3431.000000 0.2351 0.2326 0.2300 0.2275 0.2249
3426.000000 0.2223 0.2197 0.2171 0.2145 0.2119
3421.000000 0.2092 0.2066 0.2040 0.2014 0.1986
3416.000000 0.1961 0.1933 0.1904 0.1874 0.1843
3411.000000 0.1812 0.1781 0.1750 0.1720 0.1689
3406.000000 0.1658 0.1622 0.1586 0.1545 0.1504
3401.000000 0.1476 0.1448 0.1420 0.1392 0.1365
3396.000000 0.1338 0.1311 0.1284 0.1258 0.1232
3391.000000 0.1206 0.1180 0.1154 0.1129 0.1103
3386.000000 0.1077 0.1057 0.1037 0.1018 0.0999
3381.000000 0.0979 0.0960 0.0941 0.0922 0.0911
3376.000000 0.0901 0.0889 0.0880 0.0870 0.0860
3371.000000 0.0850 0.0839 0.0830 0.0820 0.0809
3366.000000 0.0799 0.0789 0.0779 0.0769 0.0759
3361.000000 0.0749 0.0739 0.0729 0.0719 0.0708
3356.000000 0.0698 0.0688 0.0678 0.0668 0.0658
3351.000000 0.0648 0.0638 0.0629 0.0621 0.0612
3346.000000 0.0604 0.0595 0.0587 0.0578 0.0570
3341.000000 0.0562 0.0554 0.0549 0.0545 0.0541
3336.000000 0.0537 0.0533 0.0529 0.0525 0.0521
3331.000000 0.0517 0.0513 0.0508 0.0504 0.0500
3326.000000 0.0496 0.0492 0.0488 0.0484 0.0480
3321.000000 0.0475 0.0471 0.0467 0.0463 0.0459
3316.000000 0.0455 0.0450 0.0446 0.0442 0.0438
3311.000000 0.0433 0.0429 0.0425 0.0421 0.0416
3306.000000 0.0412 0.0408 0.0404 0.0399 0.0395
3301.000000 0.0391 0.0387 0.0382 0.0378 0.0374
3296.000000 0.0370 0.0365 0.0361 0.0357 0.0353
3291.000000 0.0348 0.0344 0.0340 0.0336 0.0332
3286.000000 0.0328 0.0323 0.0318 0.0315 0.0312
3281.000000 0.0309 0.0306 0.0302 0.0299 0.0296
3276.000000 0.0293 0.0290 0.0287 0.0283 0.0280
3271.000000 0.0277 0.0274 0.0271 0.0267 0.0265
3266.000000 0.0262 0.0258 0.0255 0.0252 0.0249
3261.000000 0.0247 0.0245 0.0243 0.0242 0.0240
3256.000000 0.0238 0.0236 0.0234 0.0233 0.0232
3251.000000 0.0230 0.0229 0.0227 0.0226 0.0224
3246.000000 0.0223 0.0221 0.0220 0.0217 0.0216
3241.000000 0.0214 0.0213 0.0211 0.0210 0.0210
3236.000000 0.0210 0.0211 0.0212 0.0212 0.0235
3231.000000 0.0214 0.0215 0.0215 0.0216 0.0217
3226.000000 0.0218 0.0218 0.0220 0.0222 0.0225
3221.000000 0.0228 0.0231 0.0233 0.0236 0.0238
3216.000000 0.0242 0.0245 0.0248 0.0251 0.0254
3211.000000 0.0256 0.0259 0.0263 0.0266 0.0275
3206.000000 0.0284 0.0293 0.0302 0.0311 0.0320
3201.000000 0.0329 0.0338 0.0347 0.0356 0.0365
3196.000000 0.0374 0.0384 0.0394 0.0404 0.0414
3191.000000 0.0423 0.0435 0.0445 0.0455 0.0465
3186.000000 0.0475 0.0486 0.0496 0.0509 0.0522
3181.000000 0.0535 0.0549 0.0561 0.0573 0.0583
3176.000000 0.0593 0.0603 0.0614 0.0624 0.0635
3171.000000 0.0640 0.0646 0.0645 0.0645 0.0644
3166.000000 0.0643 0.0642 0.0641 0.0640 0.0640
3161.000000 0.0638 0.0636 0.0634 0.0633 0.0631
3156.000000 0.0629 0.0627 0.0626 0.0624 0.0622
3151.000000 0.0620 0.0619 0.0618 0.0618 0.0618
3146.000000 0.0618 0.0618 0.0618 0.0618 0.0618
3141.000000 0.0618 0.0618 0.0623 0.0628 0.0636
3136.000000 0.0644 0.0652 0.0661 0.0669 0.0677
3131.000000 0.0685 0.0693 0.0701 0.0710 0.0718
3126.000000 0.0726 0.0734 0.0743 0.0751 0.0759
3121.000000 0.0775 0.0791 0.0807 0.0822 0.0839
3116.000000 0.0855 0.0871 0.0888 0.0904 0.0920
3111.000000 0.0936 0.0952 0.0965 0.0979 0.0991
3106.000000 0.1003 0.1015 0.1027 0.1039 0.1051
3101.000000 0.1063 0.1076 0.1088 0.1100 0.1112
3096.000000 0.1124 0.1136 0.1148 0.1160 0.1172
3091.000000 0.1184 0.1196 0.1210 0.1224 0.1237
3086.000000 0.1250 0.1263 0.1277 0.1290 0.1304
3081.000000 0.1317 0.1330 0.1342 0.1357 0.1370
3076.000000 0.1383 0.1396 0.1410 0.1423 0.1437
3071.000000 0.1450 0.1463 0.1474 0.1486 0.1496
3066.000000 0.1509 0.1520 0.1532 0.1542 0.1555
3061.000000 0.1566 0.1577 0.1588 0.1600 0.1611
3056.000000 0.1623 0.1634 0.1645 0.1658 0.1670
3051.000000 0.1681 0.1693 0.1704 0.1717 0.1729
3046.000000 0.1741 0.1752 0.1764 0.1776 0.1787
3041.000000 0.1800 0.1812 0.1820 0.1829 0.1831
3036.000000 0.1834 0.1836 0.1840 0.1842 0.1844
3031.000000 0.1846 0.1850 0.1852 0.1854 0.1854
3026.000000 0.1857 0.1858 0.1860 0.1861 0.1862
3021.000000 0.1862 0.1861 0.1860 0.1859 0.1858
3016.000000 0.1857 0.1844 0.1832 0.1804 0.1779
3011.000000 0.1639 0.1499 0.1446 0.1394 0.1348
3006.000000 0.1302 0.1268 0.1234 0.1223 0.1212
3001.000000 0.1213 0.1181 0.1215 0.1217 0.1229
2996.000000 0.1241 0.1278 0.1315 0.1344 0.1373
2991.000000 0.1392 0.1411 0.1428 0.1445 0.1446
2986.000000 0.1450 0.1453 0.1456 0.1459 0.1491
2981.000000 0.1465 0.1468 0.1469 0.1470 0.1459
2976.000000 0.1448 0.1437 0.1426 0.1377 0.1328
2971.000000 0.1262 0.1196 0.1152 0.1108 0.1073
2966.000000 0.1039 0.1006 0.0974 0.0939 0.0904
2961.000000 0.0856 0.0808 0.0800 0.0783 0.0784
2956.000000 0.0785 0.0785 0.0793 0.0803 0.0814
2951.000000 0.0842 0.0872 0.0913 0.0954 0.0968
2946.000000 0.0983 0.0985 0.0987 0.0982 0.0976
2941.000000 0.0972 0.0968 0.0907 0.0846 0.0805
2936.000000 0.0764 0.0706 0.0648 0.0593 0.0538
2931.000000 0.0496 0.0454 0.0431 0.0360 0.0399
2926.000000 0.0390 0.0381 0.0373 0.0370 0.0366
2921.000000 0.0386 0.0406 0.0427 0.0450 0.0471
2916.000000 0.0493 0.0515 0.0538 0.0561 0.0585
2911.000000 0.0609 0.0633 0.0657 0.0681 0.0705
2906.000000 0.0729 0.0752 0.0775 0.0794 0.0813
2901.000000 0.0832 0.0851 0.0870 0.0889 0.0908
2896.000000 0.0928 0.0946 0.0966 0.0985 0.1004
2891.000000 0.1022 0.1042 0.1062 0.1082 0.1101
2886.000000 0.1120 0.1139 0.1159 0.1178 0.1198
2881.000000 0.1217 0.1236 0.1255 0.1275 0.1294
2876.000000 0.1313 0.1332 0.1352 0.1371 0.1390
2871.000000 0.1409 0.1429 0.1448 0.1467 0.1480
2866.000000 0.1492 0.1503 0.1514 0.1524 0.1535
2861.000000 0.1549 0.1564 0.1582 0.1600 0.1618
2856.000000 0.1635 0.1666 0.1695 0.1726 0.1757
2851.000000 0.1787 0.1819 0.1852 0.1885 0.1920
2846.000000 0.1954 0.1989 0.2024 0.2058 0.2093
2841.000000 0.2127 0.2161 0.2211 0.2261 0.2311
2836.000000 0.2362 0.2412 0.2463 0.2513 0.2564
2831.000000 0.2614 0.2664 0.2712 0.2761 0.2809
2826.000000 0.2858 0.2907 0.2956 0.3004 0.3053
2821.000000 0.3101 0.3150 0.3199 0.3249 0.3298
2816.000000 0.3347 0.3396 0.3445 0.3494 0.3544
2811.000000 0.3587 0.3630 0.3664 0.3697 0.3730
2806.000000 0.3764 0.3797 0.3830 0.3862 0.3897
2801.000000 0.3930 0.3962 0.3996 0.4030 0.4062
2796.000000 0.4096 0.4116 0.4137 0.4156 0.4176
2791.000000 0.4195 0.4214 0.4233 0.4253 0.4272
2786.000000 0.4292 0.4310 0.4331 0.4350 0.4370
2781.000000 0.4389 0.4408 0.4433 0.4458 0.4488
2776.000000 0.4518 0.4548 0.4579 0.4598 0.4618
2771.000000 0.4635 0.4653 0.4671 0.4689 0.4695
2766.000000 0.4702 0.4708 0.4714 0.4719 0.4725
2761.000000 0.4731 0.4737 0.4743 0.4749 0.4752
2756.000000 0.4756 0.4758 0.4760 0.4762 0.4764
2751.000000 0.4766 0.4769 0.4771 0.4772 0.4772
2746.000000 0.4772 0.4770 0.4769 0.4768 0.4767
2741.000000 0.4765 0.4764 0.4762 0.4760 0.4755
2736.000000 0.4750 0.4752 0.4754 0.4756 0.4759
2731.000000 0.4760 0.4764 0.4766 0.4769 0.4907
2726.000000 0.5046 0.5103 0.5160 0.5217 0.5274
2721.000000 0.5331 0.5388 0.5439 0.5491 0.5542
2716.000000 0.5594 0.5645 0.5697 0.5748 0.5799
2711.000000 0.5822 0.5845 0.5867 0.5889 0.5910
2706.000000 0.5934 0.5956 0.5978 0.6000 0.6022
2701.000000 0.6044 0.6066 0.6088 0.6110 0.6132
2696.000000 0.6154 0.6170 0.6186 0.6202 0.6219
2691.000000 0.6235 0.6252 0.6268 0.6284 0.6300
2686.000000 0.6317 0.6333 0.6350 0.6366 0.6382
2681.000000 0.6398 0.6415 0.6430 0.6446 0.6461
2676.000000 0.6478 0.6493 0.6508 0.6524 0.6540
2671.000000 0.6556 0.6571 0.6587 0.6603 0.6618
2666.000000 0.6634 0.6651 0.6669 0.6696 0.6721
2661.000000 0.6747 0.6772 0.6796 0.6818 0.6835
2656.000000 0.6851 0.6867 0.6884 0.6900 0.6917
2651.000000 0.6933 0.6949 0.6965 0.6982 0.6991
2646.000000 0.7000 0.7001 0.7003 0.7004 0.7006
2641.000000 0.7007 0.7008 0.7010 0.7011 0.7019
2636.000000 0.7028 0.7038 0.7048 0.7058 0.7068
2631.000000 0.7078 0.7088 0.7098 0.7108 0.7124
2626.000000 0.7141 0.7157 0.7174 0.7190 0.7207
2621.000000 0.7222 0.7239 0.7255 0.7271 0.7288
2616.000000 0.7305 0.7318 0.7334 0.7348 0.7361
2611.000000 0.7375 0.7390 0.7403 0.7417 0.7431
2606.000000 0.7445 0.7457 0.7469 0.7476 0.7484
2601.000000 0.7491 0.7498 0.7505 0.7511 0.7515
2596.000000 0.7518 0.7521 0.7522 0.7525 0.7528
2591.000000 0.7530 0.7532 0.7534 0.7537 0.7539
2586.000000 0.7541 0.7543 0.7546 0.7548 0.7550
2581.000000 0.7551 0.7555 0.7557 0.7558 0.7561
2576.000000 0.7564 0.7565 0.7568 0.7569 0.7572
2571.000000 0.7575 0.7576 0.7578 0.7582 0.7583
2566.000000 0.7585 0.7586 0.7588 0.7589 0.7591
2561.000000 0.7595 0.7599 0.7603 0.7607 0.7611
2556.000000 0.7615 0.7619 0.7624 0.7628 0.7633
2551.000000 0.7637 0.7641 0.7645 0.7649 0.7653
2546.000000 0.7658 0.7661 0.7665 0.7669 0.7675
2541.000000 0.7678 0.7683 0.7688 0.7694 0.7699
2536.000000 0.7704 0.7708 0.7714 0.7718 0.7724
2531.000000 0.7728 0.7735 0.7740 0.7745 0.7750
2526.000000 0.7755 0.7760 0.7765 0.7771 0.7775
2521.000000 0.7781 0.7786 0.7789 0.7793 0.7796
2516.000000 0.7799 0.7801 0.7805 0.7808 0.7811
2511.000000 0.7814 0.7817 0.7818 0.7821 0.7825
2506.000000 0.7828 0.7833 0.7838 0.7845 0.7851
2501.000000 0.7858 0.7865 0.7872 0.7880 0.7886
2496.000000 0.7893 0.7900 0.7907 0.7914 0.7921
2491.000000 0.7928 0.7935 0.7941 0.7948 0.7954
2486.000000 0.7961 0.7967 0.7972 0.7978 0.7986
2481.000000 0.7992 0.7998 0.8004 0.8011 0.8017
2476.000000 0.8022 0.8028 0.8036 0.8042 0.8049
2471.000000 0.8054 0.8058 0.8064 0.8069 0.8075
2466.000000 0.8080 0.8085 0.8090 0.8095 0.8101
2461.000000 0.8106 0.8111 0.8111 0.8111 0.8112
2456.000000 0.8111 0.8110 0.8108 0.8108 0.8107
2451.000000 0.8105 0.8104 0.8103 0.8101 0.8100
2446.000000 0.8099 0.8098 0.8097 0.8095 0.8094
2441.000000 0.8093 0.8092 0.8092 0.8093 0.8097
2436.000000 0.8101 0.8106 0.8111 0.8115 0.8118
2431.000000 0.8125 0.8131 0.8138 0.8145 0.8151
2426.000000 0.8158 0.8164 0.8171 0.8178 0.8185
2421.000000 0.8191 0.8198 0.8204 0.8211 0.8218
2416.000000 0.8225 0.8225 0.8225 0.8225 0.8227
2411.000000 0.8227 0.8228 0.8228 0.8228 0.8228
2406.000000 0.8230 0.8230 0.8231 0.8232 0.8233
2401.000000 0.8233 0.8234 0.8234 0.8235 0.8235
2396.000000 0.8236 0.8237 0.8238 0.8238 0.8239
2391.000000 0.8239 0.8240 0.8240 0.8241 0.8245
2386.000000 0.8250 0.8264 0.8278 0.8287 0.8296
2381.000000 0.8298 0.8301 0.8303 0.8306 0.8308
2376.000000 0.8311 0.8313 0.8316 0.8317 0.8318
2371.000000 0.8318 0.8318 0.8318 0.8318 0.8318
2366.000000 0.8318 0.8318 0.8318 0.8318 0.8318
2361.000000 0.8318 0.8318 0.8318 0.8318 0.8318
2356.000000 0.8318 0.8318 0.8318 0.8318 0.8318
2351.000000 0.8317 0.8317 0.8316 0.8316 0.8316
2346.000000 0.8316 0.8315 0.8315 0.8314 0.8314
2341.000000 0.8313 0.8313 0.8313 0.8313 0.8312
2336.000000 0.8312 0.8310 0.8309 0.8304 0.8299
2331.000000 0.8294 0.8289 0.8284 0.8280 0.8270
2326.000000 0.8260 0.8250 0.8240 0.8239 0.8239
2321.000000 0.8239 0.8241 0.8243 0.8245 0.8246
2316.000000 0.8248 0.8250 0.8253 0.8255 0.8258
2311.000000 0.8260 0.8262 0.8264 0.8267 0.8268
2306.000000 0.8271 0.8274 0.8277 0.8278 0.8281
2301.000000 0.8283 0.8286 0.8288 0.8290 0.8292
2296.000000 0.8294 0.8296 0.8298 0.8300 0.8302
2291.000000 0.8304 0.8306 0.8308 0.8310 0.8312
2286.000000 0.8314 0.8316 0.8318 0.8320 0.8321
2281.000000 0.8323 0.8325 0.8327 0.8328 0.8331
2276.000000 0.8333 0.8335 0.8337 0.8339 0.8341
2271.000000 0.8342 0.8344 0.8345 0.8346 0.8346
2266.000000 0.8347 0.8348 0.8349 0.8349 0.8350
2261.000000 0.8351 0.8352 0.8352 0.8353 0.8354
2256.000000 0.8355 0.8356 0.8357 0.8357 0.8358
2251.000000 0.8358 0.8359 0.8359 0.8360 0.8360
2246.000000 0.8361 0.8362 0.8363 0.8363 0.8364
2241.000000 0.8364 0.8365 0.8365 0.8366 0.8366
2236.000000 0.8367 0.8367 0.8368 0.8368 0.8370
2231.000000 0.8370 0.8371 0.8371 0.8371 0.8371
2226.000000 0.8371 0.8371 0.8373 0.8373 0.8373
2221.000000 0.8373 0.8373 0.8373 0.8374 0.8374
2216.000000 0.8374 0.8374 0.8375 0.8375 0.8375
2211.000000 0.8375 0.8375 0.8371 0.8367 0.8361
2206.000000 0.8355 0.8347 0.8339 0.8331 0.8323
2201.000000 0.8315 0.8307 0.8301 0.8296 0.8291
2196.000000 0.8287 0.8282 0.8278 0.8273 0.8268
2191.000000 0.8268 0.8268 0.8268 0.8268 0.8270
2186.000000 0.8271 0.8273 0.8275 0.8278 0.8280
2181.000000 0.8282 0.8284 0.8287 0.8291 0.8298
2176.000000 0.8306 0.8313 0.8320 0.8327 0.8335
2171.000000 0.8341 0.8347 0.8349 0.8352 0.8354
2166.000000 0.8357 0.8359 0.8361 0.8363 0.8366
2161.000000 0.8368 0.8371 0.8373 0.8375 0.8377
2156.000000 0.8380 0.8382 0.8385 0.8387 0.8390
2151.000000 0.8392 0.8394 0.8395 0.8397 0.8398
2146.000000 0.8399 0.8399 0.8400 0.8400 0.8401
2141.000000 0.8401 0.8402 0.8402 0.8403 0.8404
2136.000000 0.8405 0.8405 0.8406 0.8406 0.8406
2131.000000 0.8406 0.8406 0.8405 0.8404 0.8403
2126.000000 0.8403 0.8402 0.8401 0.8400 0.8399
2121.000000 0.8398 0.8398 0.8397 0.8396 0.8395
2116.000000 0.8394 0.8393 0.8393 0.8392 0.8391
2111.000000 0.8390 0.8389 0.8387 0.8385 0.8382
2106.000000 0.8380 0.8377 0.8374 0.8371 0.8368
2101.000000 0.8366 0.8364 0.8361 0.8359 0.8357
2096.000000 0.8355 0.8354 0.8354 0.8353 0.8352
2091.000000 0.8351 0.8351 0.8350 0.8349 0.8348
2086.000000 0.8348 0.8347 0.8346 0.8345 0.8345
2081.000000 0.8344 0.8343 0.8342 0.8342 0.8341
2076.000000 0.8340 0.8339 0.8339 0.8338 0.8337
2071.000000 0.8336 0.8335 0.8334 0.8334 0.8333
2066.000000 0.8332 0.8331 0.8331 0.8330 0.8330
2061.000000 0.8330 0.8330 0.8330 0.8330 0.8330
2056.000000 0.8330 0.8330 0.8330 0.8330 0.8330
2051.000000 0.8330 0.8330 0.8330 0.8330 0.8330
2046.000000 0.8330 0.8330 0.8330 0.8330 0.8330
2041.000000 0.8330 0.8330 0.8330 0.8330 0.8330
2036.000000 0.8330 0.8330 0.8330 0.8330 0.8330
2031.000000 0.8328 0.8328 0.8327 0.8325 0.8324
2026.000000 0.8323 0.8321 0.8318 0.8317 0.8316
2021.000000 0.8314 0.8313 0.8312 0.8311 0.8311
2016.000000 0.8311 0.8311 0.8311 0.8311 0.8311
2011.000000 0.8311 0.8312 0.8314 0.8317 0.8320
2006.000000 0.8323 0.8325 0.8328 0.8330 0.8333
2001.000000 0.8341 0.8350 0.8359 0.8368 0.8378
1996.000000 0.8388 0.8392 0.8393 0.8394 0.8395
1991.000000 0.8395 0.8396 0.8397 0.8398 0.8399
1986.000000 0.8400 0.8401 0.8402 0.8403 0.8404
1981.000000 0.8405 0.8406 0.8406 0.8407 0.8408
1976.000000 0.8409 0.8410 0.8411 0.8412 0.8413
1971.000000 0.8414 0.8415 0.8416 0.8417 0.8418
1966.000000 0.8418 0.8420 0.8421 0.8421 0.8423
1961.000000 0.8424 0.8425 0.8425 0.8427 0.8428
1956.000000 0.8428 0.8430 0.8431 0.8432 0.8433
1951.000000 0.8434 0.8434 0.8434 0.8434 0.8434
1946.000000 0.8434 0.8434 0.8434 0.8434 0.8434
1941.000000 0.8434 0.8434 0.8434 0.8434 0.8434
1936.000000 0.8433 0.8432 0.8431 0.8430 0.8428
1931.000000 0.8428 0.8428 0.8427 0.8425 0.8425
1926.000000 0.8424 0.8423 0.8423 0.8418 0.8412
1921.000000 0.8407 0.8401 0.8396 0.8390 0.8385
1916.000000 0.8378 0.8374 0.8368 0.8363 0.8358
1911.000000 0.8353 0.8348 0.8343 0.8338 0.8333
1906.000000 0.8328 0.8321 0.8312 0.8303 0.8296
1901.000000 0.8289 0.8282 0.8275 0.8268 0.8261
1896.000000 0.8254 0.8247 0.8240 0.8235 0.8234
1891.000000 0.8233 0.8232 0.8231 0.8230 0.8228
1886.000000 0.8227 0.8225 0.8225 0.8224 0.8223
1881.000000 0.8221 0.8220 0.8218 0.8218 0.8217
1876.000000 0.8216 0.8215 0.8215 0.8215 0.8216
1871.000000 0.8217 0.8218 0.8220 0.8221 0.8223
1866.000000 0.8224 0.8225 0.8227 0.8228 0.8228
1861.000000 0.8231 0.8232 0.8233 0.8233 0.8234
1856.000000 0.8233 0.8233 0.8232 0.8231 0.8230
1851.000000 0.8228 0.8228 0.8225 0.8224 0.8221
1846.000000 0.8218 0.8217 0.8214 0.8212 0.8209
1841.000000 0.8207 0.8204 0.8202 0.8199 0.8198
1836.000000 0.8198 0.8197 0.8197 0.8196 0.8196
1831.000000 0.8196 0.8195 0.8195 0.8194 0.8194
1826.000000 0.8194 0.8193 0.8193 0.8192 0.8192
1821.000000 0.8192 0.8191 0.8191 0.8190 0.8190
1816.000000 0.8189 0.8188 0.8187 0.8186 0.8185
1811.000000 0.8184 0.8183 0.8182 0.8181 0.8178
