##TITLE=1-Amino-2-butanol
##JCAMP-DX=4.24
##DATA TYPE=INFRARED SPECTRUM
##ORIGIN=EPA-IR VAPOR PHASE LIBRARY
##OWNER=SRD/NIST
Collection (C) 2018 copyright by the U.S. Secretary of Commerce
on behalf of the United States of America. All rights reserved.
##CAS REGISTRY NO=13552-21-1
##MOLFORM=C 4 H 11 N O
##$NIST SOURCE=MSDC-IR
##STATE=gas
##XUNITS=1/CM
##YUNITS=ABSORBANCE
##XFACTOR=1.
##YFACTOR=0.001
##DELTAX=3.85796
##FIRSTX=551.7
##LASTX=4000.7
##FIRSTY=5.53
##MAXX=4000.7
##MINX=551.688
##MAXY=0.02479
##MINY=0.0013
##NPOINTS=895
##XYDATA=(X++(Y..Y))
551.688 5.53 5.51 5.5 5.44 5.37 5.34 5.33 5.26 5.33 5.37
590.268 5.33 5.42 5.5 5.54 5.55 5.59 5.57 5.46 5.48 5.64
628.847 5.73 5.78 5.76 5.61 5.54 5.63 5.67 5.67 5.64 5.69
667.427 5.86 5.88 5.81 5.89 6.12 6.26 6.26 6.36 6.65 6.89
706.006 6.94 7.11 7.48 7.7 7.87 8.19 8.58 8.82 9.14 9.63
744.586 10.01 10.4 10.89 11.35 11.71 12.12 12.42 12.54 12.71 12.79
783.165 12.69 12.51 12.2 11.7 11.19 10.7 10.21 9.71 9.24 8.9
821.745 8.72 8.58 8.44 8.39 8.38 8.36 8.32 8.25 8.16 7.99
860.324 7.83 7.65 7.45 7.36 7.3 7.26 7.25 7.28 7.35 7.47
898.904 7.54 7.58 7.62 7.63 7.63 7.58 7.53 7.49 7.45 7.44
937.484 7.5 7.64 7.8 8.04 8.43 8.85 9.27 9.71 10.09 10.35
976.063 10.54 10.69 10.68 10.5 10.26 9.96 9.69 9.44 9.13 8.96
1014.643 8.9 8.82 8.77 8.82 8.93 9.1 9.32 9.56 9.95 10.44
1053.222 10.77 11.05 11.22 11.23 11.19 10.98 10.61 10.14 9.76 9.37
1091.802 8.96 8.56 8.21 7.95 7.75 7.54 7.42 7.33 7.11 6.94
1130.381 6.7 6.47 6.28 6.06 5.81 5.55 5.38 5.37 5.34 5.27
1168.961 5.18 5.14 5.22 5.27 5.32 5.39 5.43 5.52 5.72 5.87
1207.540 6 6.21 6.39 6.61 6.81 6.96 7.17 7.34 7.48 7.57
1246.120 7.56 7.5 7.44 7.4 7.36 7.31 7.2 7.07 7.04 7.13
1284.699 7.17 7.08 7.01 6.98 6.95 6.93 6.82 6.66 6.55 6.47
1323.279 6.37 6.26 6.22 6.24 6.32 6.41 6.52 6.7 6.91 7.11
1361.859 7.26 7.43 7.62 7.75 7.79 7.81 7.8 7.66 7.48 7.27
1400.438 7.02 6.72 6.4 6.13 5.92 5.72 5.54 5.46 5.47 5.51
1439.018 5.63 5.89 6.19 6.47 6.71 6.85 6.85 6.75 6.59 6.25
1477.597 5.84 5.45 5.06 4.68 4.39 4.18 4 3.88 3.79 3.71
1516.177 3.64 3.56 3.49 3.44 3.39 3.37 3.36 3.34 3.35 3.37
1554.756 3.38 3.39 3.42 3.48 3.54 3.59 3.68 3.81 3.95 4.12
1593.336 4.33 4.57 4.85 5.18 5.55 5.84 6.06 6.19 6.19 6.1
1631.915 5.89 5.58 5.19 4.79 4.43 4.13 3.86 3.66 3.51 3.42
1670.495 3.33 3.25 3.2 3.16 3.11 3.08 3.06 3.03 3.02 3.03
1709.075 3.03 3.02 3.02 3.02 3.03 3.04 3.03 3.04 3.03 3.01
1747.654 2.99 2.97 2.95 2.93 2.93 2.96 2.96 2.96 2.96 2.94
1786.234 2.92 2.89 2.85 2.81 2.77 2.73 2.73 2.72 2.7 2.69
1824.813 2.68 2.67 2.68 2.68 2.69 2.69 2.7 2.71 2.69 2.66
1863.393 2.63 2.62 2.6 2.59 2.57 2.55 2.51 2.49 2.48 2.47
1901.972 2.44 2.41 2.4 2.39 2.36 2.33 2.31 2.3 2.28 2.28
1940.552 2.27 2.26 2.25 2.24 2.24 2.23 2.22 2.21 2.19 2.19
1979.131 2.19 2.18 2.16 2.13 2.12 2.12 2.11 2.09 2.06 2.03
2017.711 2.02 2 1.98 1.96 1.94 1.92 1.88 1.86 1.83 1.79
2056.291 1.76 1.73 1.71 1.68 1.65 1.63 1.6 1.57 1.56 1.54
2094.870 1.51 1.5 1.48 1.48 1.48 1.47 1.45 1.46 1.45 1.45
2133.450 1.45 1.45 1.44 1.42 1.42 1.43 1.42 1.42 1.42 1.43
2172.029 1.44 1.42 1.42 1.42 1.42 1.43 1.45 1.47 1.47 1.46
2210.609 1.47 1.47 1.46 1.45 1.45 1.46 1.43 1.41 1.41 1.42
2249.188 1.42 1.42 1.41 1.41 1.43 1.43 1.41 1.42 1.43 1.43
2287.768 1.42 1.43 1.45 1.45 1.44 1.46 1.46 1.46 1.45 1.45
2326.347 1.46 1.46 1.45 1.46 1.45 1.44 1.45 1.46 1.44 1.42
2364.927 1.44 1.44 1.44 1.44 1.45 1.46 1.44 1.44 1.46 1.46
2403.507 1.46 1.48 1.49 1.49 1.5 1.51 1.53 1.54 1.53 1.49
2442.086 1.49 1.51 1.51 1.52 1.53 1.55 1.52 1.49 1.5 1.49
2480.666 1.47 1.49 1.49 1.48 1.49 1.48 1.46 1.47 1.5 1.49
2519.245 1.47 1.49 1.5 1.49 1.5 1.5 1.51 1.51 1.5 1.52
2557.825 1.53 1.55 1.59 1.6 1.61 1.61 1.61 1.62 1.66 1.7
2596.404 1.72 1.72 1.74 1.75 1.77 1.8 1.82 1.82 1.84 1.87
2634.984 1.89 1.91 1.93 1.94 1.95 1.96 1.98 2.03 2.06 2.06
2673.563 2.06 2.08 2.13 2.16 2.17 2.18 2.18 2.23 2.25 2.24
2712.143 2.3 2.37 2.39 2.38 2.4 2.46 2.52 2.56 2.6 2.66
2750.722 2.7 2.75 2.79 2.84 2.88 2.94 3.02 3.09 3.18 3.27
2789.302 3.38 3.53 3.7 3.85 3.99 4.19 4.41 4.66 5 5.41
2827.882 5.9 6.49 7.19 7.94 8.81 9.77 10.78 11.79 12.73 13.57
2866.461 14.35 15.12 15.81 16.28 16.41 16.37 16.33 16.31 16.39 16.59
2905.041 16.96 17.6 18.56 19.77 21.11 22.45 23.64 24.49 24.79 24.48
2943.620 23.84 23.04 22.11 21.35 20.83 20.38 20.12 19.73 18.51 16.94
2982.200 15.36 13.52 11.47 9.4 7.57 6.16 5.16 4.43 3.91 3.55
3020.779 3.33 3.2 3.12 3.04 2.96 2.92 2.88 2.8 2.76 2.74
3059.359 2.73 2.73 2.69 2.62 2.57 2.5 2.44 2.42 2.38 2.37
3097.938 2.32 2.24 2.2 2.15 2.06 1.96 1.94 1.92 1.89 1.88
3136.518 1.84 1.81 1.81 1.79 1.76 1.73 1.71 1.7 1.72 1.72
3175.098 1.67 1.66 1.66 1.62 1.61 1.59 1.6 1.62 1.58 1.55
3213.677 1.55 1.53 1.51 1.53 1.55 1.55 1.53 1.52 1.53 1.52
3252.257 1.52 1.5 1.47 1.44 1.4 1.42 1.46 1.45 1.46 1.47
3290.836 1.48 1.44 1.46 1.47 1.44 1.48 1.49 1.51 1.53 1.56
3329.416 1.6 1.62 1.63 1.64 1.63 1.64 1.68 1.68 1.7 1.74
3367.995 1.7 1.66 1.66 1.65 1.66 1.68 1.76 1.84 1.88 1.91
3406.575 1.98 2.06 2.13 2.21 2.27 2.27 2.27 2.28 2.26 2.25
3445.154 2.22 2.13 2.1 2.13 2.13 2.12 2.14 2.1 2.1 2.14
3483.734 2.15 2.12 2.1 2.11 2.09 2.05 2.09 2.17 2.27 2.4
3522.314 2.56 2.76 3.08 3.47 3.77 3.95 4.14 4.31 4.37 4.28
3560.893 4.1 3.92 3.74 3.52 3.33 3.19 3.02 2.92 2.84 2.73
3599.473 2.66 2.59 2.54 2.52 2.54 2.53 2.56 2.62 2.68 2.82
3638.052 2.93 3.02 3.08 3.13 3.15 3.16 3.12 3.01 2.9 2.72
3676.632 2.57 2.4 2.29 2.17 2 1.9 1.81 1.75 1.72 1.69
3715.211 1.64 1.59 1.52 1.53 1.54 1.51 1.5 1.48 1.42 1.43
3753.791 1.48 1.43 1.41 1.44 1.47 1.44 1.39 1.4 1.4 1.42
3792.370 1.42 1.41 1.41 1.4 1.42 1.44 1.44 1.45 1.45 1.41
3830.950 1.39 1.42 1.43 1.4 1.35 1.31 1.35 1.39 1.41 1.41
3869.530 1.4 1.36 1.34 1.37 1.4 1.37 1.36 1.39 1.39 1.34
3908.109 1.31 1.34 1.37 1.35 1.31 1.32 1.32 1.3 1.32 1.35
3946.689 1.39 1.36 1.37 1.4 1.38 1.4 1.41 1.37 1.35 1.36
3985.268 1.36 1.39 1.43 1.46 1.43
##END=
