##TITLE=CYCLOPROPANECARBOXALDEHYDE
##JCAMP-DX=4.24
##DATA TYPE=INFRARED SPECTRUM
##CLASS=COBLENTZ III
##ORIGIN=DOW CHEMICAL COMPANY
##OWNER=COBLENTZ SOCIETY
Collection (C) 2018 copyright by the U.S. Secretary of Commerce
on behalf of the United States of America. All rights reserved.
##DATE=1960/08/12
##NAMES=cyclopropanecarbaldehyde
##CAS REGISTRY NO=1489-69-6
##MOLFORM=C4 H6 O
##SOURCE REFERENCE=COBLENTZ NO. 10192
##$NIST SOURCE=COBLENTZ
##$NIST IMAGE=cob10192
##SPECTROMETER/DATA SYSTEM=PERKIN-ELMER 225
##STATE=SOLUTION (10% IN CCl4 FOR 3800-1333, 10% IN CS2 FOR 1333-450, AND 10% IN C6H12 FOR 450-200 CM^-^1)
##PATH LENGTH=0.011, 0.011, 0.010 CM
$$SPECTRAL CONTAMINATION DUE TO CCl4 AROUND 1546 CM^-^1
##SAMPLING PROCEDURE=TRANSMISSION
##RESOLUTION=4
##DATA PROCESSING=DIGITIZED BY NIST FROM HARD COPY (FROM TWO SEGMENTS)
##XUNITS=1/CM
##YUNITS=TRANSMITTANCE
##XFACTOR=1.000000
##YFACTOR=1
##DELTAX=0.914287
##FIRSTX=204.343
##LASTX=3796.58
##FIRSTY=0.508
##MAXX=3796.58
##MINX=204.343
##MAXY=1.004
##MINY=0.01
##NPOINTS=3930
##XYDATA=(X++(Y..Y))
204.343000 0.5080 0.5080 0.5080 0.5100 0.5150
208.914433 0.5210 0.5529 0.5670 0.5750 0.5830
213.485867 0.5880 0.5910 0.5980 0.6060 0.6140
218.057300 0.6210 0.6280 0.6370 0.6440 0.6510
222.628733 0.6540 0.6710 0.6830 0.6890 0.6930
227.200167 0.6940 0.6960 0.6990 0.7020 0.7020
231.771600 0.7030 0.7040 0.7040 0.7060 0.7070
236.343033 0.7090 0.7090 0.7070 0.7070 0.7060
240.914467 0.7060 0.7040 0.7040 0.7040 0.7040
245.485900 0.7060 0.7070 0.7090 0.7100 0.7120
250.057333 0.7130 0.7160 0.7200 0.7220 0.7230
254.628766 0.7260 0.7270 0.7330 0.7390 0.7400
259.200200 0.7420 0.7430 0.7440 0.7460 0.7460
263.771633 0.7470 0.7500 0.7560 0.7600 0.7650
268.343066 0.7660 0.7660 0.7690 0.7700 0.7670
272.914500 0.7660 0.7620 0.7600 0.7590 0.7590
277.485933 0.7590 0.7600 0.7620 0.7620 0.7630
282.057366 0.7630 0.7650 0.7650 0.7630 0.7600
286.628800 0.7560 0.7520 0.7490 0.7430 0.7340
291.200233 0.7230 0.7140 0.7060 0.6990 0.6910
295.771666 0.6860 0.6790 0.6710 0.6690 0.6700
300.343100 0.6760 0.6790 0.6830 0.6890 0.6940
304.914533 0.7020 0.7060 0.7120 0.7170 0.7240
309.485966 0.7320 0.7370 0.7470 0.7550 0.7660
314.057400 0.7730 0.7790 0.7820 0.7830 0.7860
318.628833 0.7870 0.7890 0.7900 0.7930 0.7930
323.200266 0.7950 0.7950 0.7960 0.7960 0.7970
327.771699 0.7970 0.7970 0.7990 0.7990 0.7990
332.343133 0.7970 0.7950 0.7930 0.7930 0.7950
336.914566 0.7960 0.7970 0.7990 0.8000 0.8020
341.485999 0.8050 0.8080 0.8090 0.8100 0.8100
346.057433 0.8120 0.8120 0.8150 0.8160 0.8180
350.628866 0.8180 0.8190 0.8220 0.8230 0.8250
355.200299 0.8260 0.8260 0.8290 0.8290 0.8300
359.771733 0.8300 0.8320 0.8330 0.8330 0.8330
364.343166 0.8350 0.8360 0.8380 0.8390 0.8400
368.914599 0.8400 0.8400 0.8400 0.8390 0.8380
373.486033 0.8380 0.8360 0.8360 0.8360 0.8380
378.057466 0.8390 0.8420 0.8420 0.8420 0.8400
382.628899 0.8400 0.8390 0.8380 0.8380 0.8360
387.200333 0.8360 0.8350 0.8350 0.8350 0.8320
391.771766 0.8300 0.8290 0.8280 0.8230 0.8220
396.343199 0.8190 0.8190 0.8180 0.8180 0.8180
400.914633 0.8190 0.8220 0.8250 0.8260 0.8280
405.486066 0.8290 0.8320 0.8350 0.8360 0.8390
410.057499 0.8400 0.8420 0.8430 0.8450 0.8450
414.628932 0.8460 0.8460 0.8450 0.8450 0.8430
419.200366 0.8430 0.8430 0.8430 0.8430 0.8430
423.771799 0.8420 0.8420 0.8400 0.8400 0.8390
428.343232 0.8390 0.8390 0.8380 0.8380 0.8360
432.914666 0.8360 0.8360 0.8360 0.8350 0.8350
437.486099 0.8350 0.8350 0.8350 0.8350 0.8330
442.057532 0.8320 0.8320 0.8300 0.8300 0.8300
446.628966 0.8320 0.8320 0.8330 0.8360 0.8380
451.200399 0.8430 0.8510 0.8630 0.8650 0.8690
455.771832 0.8710 0.8720 0.8730 0.8750 0.8780
460.343266 0.8810 0.8820 0.8850 0.8880 0.8890
464.914699 0.8920 0.8980 0.9010 0.9020 0.9040
469.486132 0.9040 0.9050 0.9050 0.9040 0.9020
474.057566 0.8990 0.8990 0.8990 0.8980 0.8960
478.628999 0.8950 0.8950 0.8920 0.8910 0.8860
483.200432 0.8850 0.8850 0.8860 0.8890 0.8890
487.771865 0.8890 0.8910 0.8910 0.8890 0.8820
492.343299 0.8780 0.8750 0.8720 0.8660 0.8521
496.914732 0.8350 0.8230 0.7990 0.7670 0.7290
501.486165 0.6891 0.6431 0.5872 0.5601 0.5321
506.057599 0.4980 0.4890 0.4890 0.5110 0.5969
510.629032 0.6459 0.6859 0.7299 0.7569 0.7889
515.200465 0.8080 0.8320 0.8510 0.8630 0.8750
519.771899 0.8850 0.8920 0.9010 0.9090 0.9190
524.343332 0.9310 0.9410 0.9450 0.9540 0.9580
528.914765 0.9620 0.9650 0.9690 0.9750 0.9790
533.486199 0.9810 0.9840 0.9850 0.9870 0.9870
538.057632 0.9870 0.9880 0.9880 0.9880 0.9880
542.629065 0.9880 0.9880 0.9880 0.9880 0.9870
547.200499 0.9850 0.9850 0.9850 0.9850 0.9850
551.771932 0.9850 0.9850 0.9850 0.9850 0.9850
556.343365 0.9850 0.9850 0.9850 0.9850 0.9850
560.914799 0.9850 0.9850 0.9840 0.9840 0.9840
565.486232 0.9820 0.9810 0.9780 0.9780 0.9780
570.057665 0.9770 0.9770 0.9750 0.9750 0.9750
574.629098 0.9750 0.9740 0.9740 0.9740 0.9740
579.200532 0.9720 0.9720 0.9720 0.9720 0.9710
583.771965 0.9710 0.9710 0.9710 0.9690 0.9680
588.343398 0.9680 0.9680 0.9670 0.9670 0.9670
592.914832 0.9670 0.9670 0.9650 0.9650 0.9640
597.486265 0.9640 0.9640 0.9640 0.9620 0.9620
602.057698 0.9620 0.9620 0.9620 0.9610 0.9610
606.629132 0.9610 0.9610 0.9590 0.9580 0.9570
611.200565 0.9540 0.9490 0.9480 0.9420 0.9410
615.771998 0.9380 0.9320 0.9280 0.9250 0.9240
620.343432 0.9220 0.9220 0.9240 0.9290 0.9290
624.914865 0.9310 0.9340 0.9380 0.9390 0.9390
629.486298 0.9410 0.9410 0.9410 0.9390 0.9350
634.057732 0.9320 0.9310 0.9250 0.9220 0.9150
638.629165 0.9110 0.9050 0.8890 0.8790 0.8611
643.200598 0.8530 0.8480 0.8380 0.8330 0.8360
647.772032 0.8420 0.8510 0.8520 0.8530 0.8530
652.343465 0.8530 0.8530 0.8530 0.8530 0.8520
656.914898 0.8520 0.8510 0.8510 0.8430 0.8360
661.486331 0.8260 0.8060 0.8000 0.7950 0.7950
666.057765 0.8030 0.8060 0.8100 0.8120 0.8299
670.629198 0.8480 0.8680 0.8850 0.8890 0.9010
675.200631 0.9090 0.9150 0.9210 0.9320 0.9350
679.772065 0.9410 0.9450 0.9490 0.9510 0.9520
684.343498 0.9540 0.9540 0.9540 0.9540 0.9540
688.914931 0.9540 0.9540 0.9540 0.9540 0.9540
693.486365 0.9540 0.9540 0.9540 0.9540 0.9540
698.057798 0.9540 0.9540 0.9520 0.9520 0.9520
702.629231 0.9540 0.9540 0.9550 0.9550 0.9570
707.200665 0.9570 0.9570 0.9570 0.9570 0.9570
711.772098 0.9570 0.9570 0.9570 0.9570 0.9570
716.343531 0.9570 0.9570 0.9570 0.9570 0.9570
720.914965 0.9550 0.9570 0.9580 0.9590 0.9590
725.486398 0.9610 0.9610 0.9610 0.9610 0.9610
730.057831 0.9620 0.9620 0.9620 0.9620 0.9610
734.629264 0.9590 0.9590 0.9610 0.9610 0.9610
739.200698 0.9610 0.9590 0.9570 0.9570 0.9540
743.772131 0.9520 0.9520 0.9520 0.9510 0.9490
748.343564 0.9480 0.9480 0.9480 0.9460 0.9450
752.914998 0.9450 0.9450 0.9440 0.9420 0.9390
757.486431 0.9360 0.9340 0.9320 0.9280 0.9220
762.057864 0.9190 0.9150 0.9110 0.9020 0.8910
766.629298 0.8890 0.8790 0.8760 0.8730 0.8720
771.200731 0.8710 0.8690 0.8680 0.8680 0.8660
775.772164 0.8660 0.8680 0.8710 0.8720 0.8750
780.343598 0.8760 0.8780 0.8790 0.8790 0.8810
784.915031 0.8810 0.8790 0.8780 0.8750 0.8720
789.486464 0.8710 0.8660 0.8590 0.8520 0.8480
794.057898 0.8390 0.8350 0.8300 0.8180 0.8100
798.629331 0.8060 0.7870 0.7690 0.7490 0.7320
803.200764 0.7140 0.6960 0.6801 0.6730 0.6670
807.772198 0.6660 0.6670 0.6690 0.6740 0.6900
812.343631 0.7070 0.7160 0.7230 0.7240 0.7260
816.915064 0.7240 0.7240 0.7230 0.7230 0.7240
821.486497 0.7270 0.7300 0.7300 0.7320 0.7300
826.057931 0.7300 0.7260 0.7220 0.7130 0.7030
830.629364 0.6930 0.6840 0.6800 0.6790 0.6790
835.200797 0.6800 0.6890 0.6940 0.7060 0.7170
839.772231 0.7220 0.7220 0.7230 0.7230 0.7220
844.343664 0.7220 0.7160 0.7120 0.7070 0.7060
848.915097 0.7030 0.6990 0.6930 0.6900 0.6900
853.486531 0.6890 0.6870 0.6840 0.6830 0.6810
858.057964 0.6760 0.6740 0.6670 0.6590 0.6480
862.629397 0.6340 0.6280 0.6140 0.6000 0.5770
867.200831 0.5630 0.5480 0.5251 0.5071 0.4692
871.772264 0.4420 0.4360 0.4360 0.4420 0.4480
876.343697 0.4670 0.4890 0.5110 0.5728 0.6208
880.915131 0.6570 0.6670 0.6760 0.6790 0.6800
885.486564 0.6810 0.6810 0.6800 0.6770 0.6770
890.057997 0.6730 0.6670 0.6630 0.6570 0.6460
894.629430 0.6370 0.6310 0.6280 0.6170 0.6140
899.200864 0.6080 0.6010 0.5930 0.5840 0.5740
903.772297 0.5630 0.5550 0.5480 0.5281 0.5101
908.343730 0.4780 0.4510 0.4180 0.3830 0.3401
912.915164 0.2921 0.2591 0.2241 0.1692 0.1142
917.486597 0.0970 0.0780 0.0600 0.0400 0.0370
922.058030 0.0370 0.0380 0.0480 0.0669 0.1208
926.629464 0.1530 0.1810 0.2070 0.2300 0.2520
931.200897 0.2789 0.2999 0.3259 0.3390 0.3619
935.772330 0.3880 0.4050 0.4090 0.4110 0.4120
940.343764 0.4110 0.4080 0.4020 0.3930 0.3810
944.915197 0.3710 0.3550 0.3360 0.3130 0.2960
949.486630 0.2730 0.2490 0.2201 0.1941 0.1810
954.058064 0.1710 0.1600 0.1560 0.1540 0.1560
958.629497 0.1600 0.1770 0.1940 0.2219 0.2519
963.200930 0.2770 0.3150 0.3530 0.3830 0.4180
967.772364 0.4619 0.4939 0.5529 0.5909 0.6229
972.343797 0.6530 0.6730 0.6930 0.7100 0.7230
976.915230 0.7440 0.7660 0.7800 0.7920 0.7970
981.486663 0.8100 0.8260 0.8300 0.8390 0.8450
986.058097 0.8510 0.8550 0.8580 0.8590 0.8650
990.629530 0.8660 0.8680 0.8690 0.8710 0.8720
995.200963 0.8720 0.8730 0.8730 0.8730 0.8730
999.772397 0.8730 0.8710 0.8650 0.8620 0.8550
1004.343830 0.8490 0.8400 0.8320 0.8260 0.8230
1008.915263 0.8220 0.8190 0.8130 0.8120 0.8100
1013.486697 0.8050 0.7960 0.7920 0.7760 0.7521
1018.058130 0.7330 0.7140 0.6790 0.6340 0.5850
1022.629563 0.5610 0.5350 0.4871 0.4361 0.3882
1027.200997 0.3079 0.2490 0.2400 0.2400 0.2490
1031.772430 0.2919 0.3299 0.3729 0.4159 0.4668
1036.343863 0.6000 0.6440 0.6730 0.6930 0.7140
1040.915297 0.7320 0.7420 0.7500 0.7520 0.7530
1045.486730 0.7530 0.7500 0.7420 0.7390 0.7230
1050.058163 0.7070 0.6860 0.6611 0.6311 0.6011
1054.629596 0.5610 0.5420 0.5240 0.4880 0.4610
1059.201030 0.4460 0.4440 0.4410 0.4410 0.4440
1063.772463 0.4550 0.4780 0.5020 0.5750 0.6030
1068.343896 0.6310 0.6370 0.6570 0.6789 0.7129
1072.915330 0.7260 0.7390 0.7420 0.7440 0.7460
1077.486763 0.7460 0.7430 0.7430 0.7400 0.7390
1082.058196 0.7340 0.7290 0.7230 0.7130 0.7040
1086.629630 0.6930 0.6890 0.6810 0.6800 0.6830
1091.201063 0.6930 0.7060 0.7140 0.7230 0.7300
1095.772496 0.7420 0.7560 0.7660 0.7849 0.7960
1100.343930 0.8120 0.8260 0.8350 0.8460 0.8530
1104.915363 0.8580 0.8660 0.8690 0.8710 0.8720
1109.486796 0.8720 0.8730 0.8750 0.8780 0.8780
1114.058230 0.8780 0.8760 0.8730 0.8710 0.8690
1118.629663 0.8630 0.8630 0.8580 0.8560 0.8530
1123.201096 0.8520 0.8510 0.8490 0.8490 0.8460
1127.772530 0.8430 0.8400 0.8390 0.8300 0.8280
1132.343963 0.8250 0.8200 0.8150 0.8060 0.7970
1136.915396 0.7930 0.7830 0.7770 0.7760 0.7670
1141.486829 0.7620 0.7570 0.7560 0.7520 0.7470
1146.058263 0.7430 0.7400 0.7320 0.7300 0.7200
1150.629696 0.7090 0.6990 0.6910 0.6810 0.6641
1155.201129 0.6440 0.6280 0.6030 0.5810 0.5630
1159.772563 0.5470 0.5310 0.5011 0.4721 0.4620
1164.343996 0.4580 0.4570 0.4580 0.4650 0.4690
1168.915429 0.4770 0.4770 0.4780 0.4770 0.4740
1173.486863 0.4680 0.4670 0.4650 0.4620 0.4590
1178.058296 0.4570 0.4550 0.4540 0.4490 0.4450
1182.629729 0.4350 0.4250 0.4090 0.3910 0.3630
1187.201163 0.3360 0.3200 0.3160 0.2891 0.2890
1191.772596 0.3081 0.3521 0.4080 0.4690 0.5730
1196.344029 0.6010 0.6310 0.6599 0.6790 0.6960
1200.915463 0.7160 0.7320 0.7500 0.7590 0.7670
1205.486896 0.7750 0.7770 0.7800 0.7850 0.7860
1210.058329 0.7860 0.7860 0.7850 0.7830 0.7830
1214.629762 0.7790 0.7760 0.7670 0.7590 0.7570
1219.201196 0.7460 0.7360 0.7230 0.7100 0.6960
1223.772629 0.6800 0.6590 0.6301 0.6031 0.5741
1228.344062 0.5580 0.5420 0.5040 0.4680 0.4440
1232.915496 0.4160 0.4150 0.4160 0.4190 0.4459
1237.486929 0.4781 0.5670 0.6030 0.6760 0.7090
1242.058362 0.7659 0.7790 0.7960 0.8189 0.8349
1246.629796 0.8490 0.8550 0.8690 0.8710 0.8780
1251.201229 0.8850 0.8920 0.8920 0.8930 0.8990
1255.772662 0.9020 0.9040 0.9050 0.9060 0.9110
1260.344096 0.9110 0.9140 0.9150 0.9160 0.9180
1264.915529 0.9190 0.9190 0.9190 0.9180 0.9160
1269.486962 0.9150 0.9140 0.9110 0.9040 0.9020
1274.058396 0.8960 0.8930 0.8920 0.8910 0.8850
1278.629829 0.8790 0.8780 0.8690 0.8530 0.8420
1283.201262 0.8330 0.8230 0.8160 0.8120 0.8000
1287.772696 0.7920 0.7850 0.7770 0.7760 0.7760
1292.344129 0.7770 0.7800 0.7850 0.7960 0.8060
1296.915562 0.8220 0.8330 0.8450 0.8560 0.8650
1301.486995 0.8720 0.8730 0.8710 0.8650 0.8580
1306.058429 0.8460 0.8300 0.7572 0.7101 0.6343
1310.629862 0.5980 0.5980 0.6710 0.7020 0.7290
1315.201295 0.7689 0.8349 0.8530 0.8690 0.8720
1319.772729 0.8780 0.8810 0.8860 0.8910 0.8920
1324.344162 0.8920 0.8930 0.8930 0.8950 0.8950
1328.915595 0.8950 0.8930 0.8930 0.8910 0.8910
1333.487029 0.8850 0.8820 0.8760 0.8650 0.8560
1338.058462 0.8490 0.8400 0.8380 0.8300 0.8230
1342.629895 0.8190 0.8180 0.8120 0.8080 0.8000
1347.201329 0.7950 0.7850 0.7720 0.7550 0.7320
1351.772762 0.7000 0.6541 0.6161 0.5781 0.5411
1356.344195 0.4680 0.4590 0.4110 0.4110 0.4720
1360.915629 0.4870 0.6038 0.6599 0.6939 0.7319
1365.487062 0.7670 0.7950 0.8100 0.8230 0.8320
1370.058495 0.8390 0.8430 0.8450 0.8460 0.8460
1374.629928 0.8480 0.8490 0.8490 0.8450 0.8420
1379.201362 0.8390 0.8350 0.8320 0.8290 0.8220
1383.772795 0.8130 0.7960 0.7750 0.7520 0.7260
1388.344228 0.6960 0.6481 0.6011 0.5581 0.5351
1392.915662 0.5110 0.5080 0.5111 0.5780 0.6140
1397.487095 0.6410 0.6630 0.6840 0.7060 0.7259
1402.058528 0.7440 0.7620 0.7620 0.7630 0.7630
1406.629962 0.7600 0.7570 0.7520 0.7490 0.7430
1411.201395 0.7340 0.7260 0.7220 0.7070 0.6910
1415.772828 0.6640 0.6400 0.6310 0.6310 0.6360
1420.344262 0.6440 0.6470 0.6480 0.6470 0.6440
1424.915695 0.6370 0.6210 0.5951 0.5731 0.5710
1429.487128 0.5730 0.5740 0.5750 0.5750 0.5630
1434.058562 0.5550 0.5470 0.5440 0.5540 0.5799
1438.629995 0.6040 0.6400 0.6730 0.6840 0.6940
1443.201428 0.6940 0.6910 0.6900 0.6790 0.6740
1447.772862 0.6670 0.6570 0.6430 0.6280 0.6140
1452.344295 0.5980 0.5950 0.5950 0.5980 0.6100
1456.915728 0.6300 0.6540 0.6760 0.6870 0.7270
1461.487161 0.7560 0.7850 0.7930 0.8020 0.8120
1466.058595 0.8180 0.8260 0.8300 0.8330 0.8360
1470.630028 0.8400 0.8480 0.8530 0.8560 0.8580
1475.201461 0.8620 0.8690 0.8710 0.8720 0.8730
1479.772895 0.8750 0.8750 0.8750 0.8750 0.8750
1484.344328 0.8750 0.8730 0.8720 0.8720 0.8710
1488.915761 0.8690 0.8650 0.8610 0.8560 0.8520
1493.487195 0.8490 0.8480 0.8450 0.8430 0.8420
1498.058628 0.8390 0.8380 0.8350 0.8250 0.8160
1502.630061 0.8100 0.8050 0.8030 0.8020 0.7970
1507.201495 0.7930 0.7920 0.7850 0.7770 0.7700
1511.772928 0.7600 0.7570 0.7530 0.7500 0.7460
1516.344361 0.7430 0.7390 0.7340 0.7330 0.7330
1520.915795 0.7270 0.7240 0.7230 0.7160 0.7100
1525.487228 0.7070 0.7060 0.6970 0.6930 0.6870
1530.058661 0.6760 0.6540 0.6460 0.6410 0.6300
1534.630094 0.6140 0.6010 0.5900 0.5870 0.5770
1539.201528 0.5740 0.5670 0.5550 0.5510 0.5500
1543.772961 0.5480 0.5440 0.5420 0.5410 0.5410
1548.344394 0.5410 0.5420 0.5500 0.5570 0.5630
1552.915828 0.5650 0.5770 0.5880 0.5950 0.6000
1557.487261 0.6040 0.6060 0.6130 0.6300 0.6430
1562.058694 0.6440 0.6470 0.6590 0.6660 0.6740
1566.630128 0.6790 0.6800 0.6810 0.6860 0.6870
1571.201561 0.6910 0.6930 0.6930 0.6930 0.6940
1575.772994 0.6940 0.6960 0.6960 0.6970 0.6990
1580.344428 0.7020 0.7030 0.7060 0.7070 0.7100
1584.915861 0.7140 0.7190 0.7220 0.7260 0.7330
1589.487294 0.7390 0.7470 0.7630 0.7750 0.7760
1594.058728 0.7820 0.7930 0.7970 0.8030 0.8100
1598.630161 0.8130 0.8190 0.8300 0.8380 0.8450
1603.201594 0.8520 0.8550 0.8580 0.8610 0.8650
1607.773028 0.8680 0.8690 0.8710 0.8710 0.8730
1612.344461 0.8750 0.8760 0.8790 0.8790 0.8810
1616.915894 0.8830 0.8850 0.8860 0.8860 0.8890
1621.487327 0.8910 0.8910 0.8920 0.8920 0.8920
1626.058761 0.8920 0.8920 0.8920 0.8910 0.8910
1630.630194 0.8910 0.8890 0.8860 0.8830 0.8830
1635.201627 0.8820 0.8790 0.8780 0.8760 0.8750
1639.773061 0.8720 0.8630 0.8530 0.8510 0.8490
1644.344494 0.8460 0.8430 0.8420 0.8400 0.8400
1648.915927 0.8390 0.8380 0.8350 0.8350 0.8330
1653.487361 0.8330 0.8320 0.8300 0.8280 0.8250
1658.058794 0.8220 0.8200 0.8160 0.8120 0.8030
1662.630227 0.7950 0.7930 0.7760 0.7590 0.7470
1667.201661 0.7320 0.7140 0.7070 0.6970 0.6860
1671.773094 0.6740 0.6590 0.6281 0.6140 0.6030
1676.344527 0.5870 0.5640 0.5570 0.5480 0.5410
1680.915961 0.5240 0.5110 0.4741 0.4540 0.4341
1685.487394 0.4180 0.4010 0.3780 0.3330 0.3050
1690.058827 0.2620 0.2271 0.1941 0.1611 0.1181
1694.630261 0.0910 0.0630 0.0500 0.0380 0.0310
1699.201694 0.0220 0.0180 0.0150 0.0140 0.0120
1703.773127 0.0120 0.0120 0.0120 0.0140 0.0150
1708.344560 0.0150 0.0150 0.0140 0.0110 0.0110
1712.915994 0.0100 0.0100 0.0100 0.0100 0.0100
1717.487427 0.0100 0.0100 0.0100 0.0100 0.0100
1722.058860 0.0110 0.0110 0.0120 0.0150 0.0180
1726.630294 0.0200 0.0370 0.0550 0.1029 0.1269
1731.201727 0.1611 0.1910 0.2030 0.2220 0.2320
1735.773160 0.2500 0.2660 0.2800 0.3030 0.3150
1740.344594 0.3330 0.3480 0.3660 0.3710 0.3820
1744.916027 0.3960 0.4090 0.4160 0.4260 0.4360
1749.487460 0.4480 0.4570 0.4670 0.4840 0.5080
1754.058894 0.5240 0.5649 0.5900 0.6030 0.6170
1758.630327 0.6340 0.6480 0.6610 0.6700 0.6790
1763.201760 0.6800 0.6900 0.6960 0.7070 0.7100
1767.773194 0.7120 0.7170 0.7240 0.7270 0.7300
1772.344627 0.7320 0.7320 0.7330 0.7340 0.7340
1776.916060 0.7340 0.7400 0.7430 0.7470 0.7590
1781.487493 0.7800 0.7920 0.7950 0.8020 0.8120
1786.058927 0.8200 0.8260 0.8280 0.8290 0.8290
1790.630360 0.8260 0.8250 0.8230 0.8190 0.8130
1795.201793 0.8100 0.8060 0.7990 0.7960 0.7960
1799.773227 0.7960 0.7970 0.7990 0.8020 0.8050
1804.344660 0.8060 0.8080 0.8100 0.8120 0.8130
1808.916093 0.8130 0.8150 0.8160 0.8220 0.8260
1813.487527 0.8300 0.8320 0.8330 0.8400 0.8430
1818.058960 0.8430 0.8450 0.8480 0.8550 0.8610
1822.630393 0.8630 0.8710 0.8730 0.8790 0.8830
1827.201827 0.8860 0.8890 0.8910 0.8920 0.8920
1831.773260 0.8910 0.8910 0.8890 0.8890 0.8860
1836.344693 0.8810 0.8760 0.8750 0.8730 0.8720
1840.916127 0.8710 0.8710 0.8710 0.8720 0.8730
1845.487560 0.8760 0.8820 0.8850 0.8910 0.8930
1850.058993 0.8990 0.9050 0.9090 0.9120 0.9140
1854.630427 0.9190 0.9220 0.9260 0.9280 0.9310
1859.201860 0.9340 0.9350 0.9380 0.9420 0.9420
1863.773293 0.9450 0.9480 0.9490 0.9510 0.9520
1868.344726 0.9540 0.9540 0.9550 0.9570 0.9570
1872.916160 0.9570 0.9570 0.9580 0.9620 0.9640
1877.487593 0.9650 0.9650 0.9670 0.9670 0.9650
1882.059026 0.9640 0.9640 0.9640 0.9640 0.9650
1886.630460 0.9650 0.9640 0.9640 0.9640 0.9640
1891.201893 0.9620 0.9610 0.9610 0.9580 0.9570
1895.773326 0.9550 0.9540 0.9520 0.9520 0.9510
1900.344760 0.9490 0.9480 0.9460 0.9460 0.9460
1904.916193 0.9460 0.9460 0.9460 0.9460 0.9480
1909.487626 0.9480 0.9480 0.9490 0.9520 0.9520
1914.059060 0.9550 0.9550 0.9570 0.9580 0.9610
1918.630493 0.9620 0.9620 0.9620 0.9620 0.9640
1923.201926 0.9650 0.9670 0.9680 0.9690 0.9710
1927.773360 0.9720 0.9740 0.9750 0.9750 0.9750
1932.344793 0.9750 0.9750 0.9750 0.9750 0.9750
1936.916226 0.9750 0.9750 0.9750 0.9750 0.9770
1941.487659 0.9770 0.9770 0.9770 0.9770 0.9780
1946.059093 0.9780 0.9780 0.9790 0.9810 0.9810
1950.630526 0.9820 0.9820 0.9820 0.9820 0.9820
1955.201959 0.9840 0.9840 0.9840 0.9840 0.9850
1959.773393 0.9850 0.9850 0.9850 0.9850 0.9850
1964.344826 0.9850 0.9850 0.9850 0.9850 0.9850
1968.916259 0.9840 0.9840 0.9840 0.9840 0.9840
1973.487693 0.9850 0.9850 0.9850 0.9850 0.9850
1978.059126 0.9850 0.9850 0.9850 0.9850 0.9840
1982.630559 0.9820 0.9820 0.9810 0.9820 0.9840
1987.201993 0.9840 0.9820 0.9810 0.9810 0.9790
1991.773426 0.9790 0.9780 0.9770 0.9690 0.9540
1996.344859 0.9541 0.9920 0.9950 0.9950 0.9940
2000.916293 0.9940 0.9940 0.9930 0.9920 0.9915
2005.487726 0.9910 0.9890 0.9870 0.9870 0.9870
2010.059159 0.9855 0.9840 0.9806 0.9771 0.9760
2014.630593 0.9750 0.9750 0.9750 0.9760 0.9770
2019.202026 0.9804 0.9839 0.9854 0.9869 0.9879
2023.773459 0.9889 0.9899 0.9909 0.9910 0.9910
2028.344892 0.9910 0.9910 0.9910 0.9910 0.9901
2032.916326 0.9891 0.9890 0.9890 0.9890 0.9890
2037.487759 0.9890 0.9890 0.9890 0.9890 0.9899
2042.059192 0.9909 0.9915 0.9920 0.9929 0.9939
2046.630626 0.9940 0.9940 0.9940 0.9940 0.9940
2051.202059 0.9940 0.9940 0.9940 0.9940 0.9940
2055.773492 0.9940 0.9940 0.9940 0.9940 0.9940
