##TITLE=Ethylenimine
##JCAMP-DX=4.24
##DATA TYPE=INFRARED SPECTRUM
##CLASS=COBLENTZ
##ORIGIN=DOW CHEMICAL COMPANY
##OWNER=Copyright (C) 1987 by the Coblentz Society
Collection (C) 2018 copyright by the U.S. Secretary of Commerce
on behalf of the United States of America. All rights reserved.
##DATE=1964
##NAMES=aziridine
AZIRIDINE
##CAS REGISTRY NO=151-56-4
##MOLFORM=C2 H5 N
##SOURCE REFERENCE=COBLENTZ NO. 8810
##$NIST SOURCE=COBLENTZ
##$NIST IMAGE=cob8810
##SPECTROMETER/DATA SYSTEM=DOW KBr FOREPRISM-GRATING
##INSTRUMENT PARAMETERS=GRATING CHANGED AT 5.0, 7.5, 15.0 MICRON
##STATE=GAS (80 mmHg, N2 ADDED, TOTAL PRESSURE 600 mmHg)
##PATH LENGTH=5 CM
##SAMPLING PROCEDURE=TRANSMISSION
##RESOLUTION=2
##DATA PROCESSING=DIGITIZED BY COBLENTZ SOCIETY (BATCH II) FROM HARD COPY
##XUNITS=1/CM
##YUNITS=TRANSMITTANCE
##XFACTOR=1.0
##YFACTOR=1
##FIRSTX=458
##LASTX=3794
##FIRSTY=0.9324
##MAXX=3794
##MINX=458
##MAXY=0.9294
##MINY=0.0671
##NPOINTS=3337
##XYDATA=(X++(Y..Y))
458.000000 0.9324 0.9313 0.9303 0.9294 0.9284
463.000000 0.9275 0.9266 0.9256 0.9247 0.9238
468.000000 0.9231 0.9224 0.9216 0.9209 0.9201
473.000000 0.9194 0.9186 0.9179 0.9172 0.9168
478.000000 0.9164 0.9160 0.9156 0.9152 0.9148
483.000000 0.9144 0.9140 0.9136 0.9132 0.9128
488.000000 0.9125 0.9121 0.9117 0.9113 0.9109
493.000000 0.9105 0.9101 0.9098 0.9094 0.9091
498.000000 0.9087 0.9084 0.9081 0.9077 0.9074
503.000000 0.9070 0.9067 0.9063 0.9060 0.9057
508.000000 0.9053 0.9050 0.9049 0.9048 0.9048
513.000000 0.9047 0.9046 0.9046 0.9045 0.9044
518.000000 0.9043 0.9043 0.9042 0.9041 0.9040
523.000000 0.9040 0.9039 0.9041 0.9044 0.9046
528.000000 0.9048 0.9050 0.9052 0.9054 0.9056
533.000000 0.9058 0.9060 0.9062 0.9064 0.9066
538.000000 0.9068 0.9070 0.9072 0.9074 0.9077
543.000000 0.9079 0.9082 0.9084 0.9087 0.9089
548.000000 0.9092 0.9094 0.9097 0.9099 0.9102
553.000000 0.9104 0.9107 0.9109 0.9112 0.9114
558.000000 0.9116 0.9118 0.9120 0.9121 0.9123
563.000000 0.9125 0.9127 0.9128 0.9130 0.9132
568.000000 0.9133 0.9135 0.9136 0.9137 0.9139
573.000000 0.9140 0.9142 0.9143 0.9145 0.9146
578.000000 0.9148 0.9149 0.9151 0.9152 0.9153
583.000000 0.9155 0.9156 0.9157 0.9158 0.9159
588.000000 0.9160 0.9161 0.9162 0.9163 0.9165
593.000000 0.9166 0.9167 0.9168 0.9169 0.9170
598.000000 0.9171 0.9172 0.9173 0.9174 0.9175
603.000000 0.9176 0.9176 0.9177 0.9178 0.9178
608.000000 0.9179 0.9179 0.9180 0.9180 0.9181
613.000000 0.9181 0.9182 0.9182 0.9183 0.9184
618.000000 0.9192 0.9187 0.9189 0.9192 0.9194
623.000000 0.9196 0.9199 0.9201 0.9204 0.9206
628.000000 0.9208 0.9211 0.9214 0.9217 0.9220
633.000000 0.9223 0.9226 0.9229 0.9232 0.9236
638.000000 0.9237 0.9238 0.9240 0.9241 0.9242
643.000000 0.9244 0.9245 0.9247 0.9247 0.9246
648.000000 0.9245 0.9243 0.9242 0.9241 0.9240
653.000000 0.9239 0.9237 0.9236 0.9236 0.9235
658.000000 0.9234 0.9233 0.9233 0.9232 0.9231
663.000000 0.9230 0.9230 0.9234 0.9244 0.9254
668.000000 0.9264 0.9274 0.9288 0.9294 0.9261
673.000000 0.9234 0.9218 0.9218 0.9220 0.9222
678.000000 0.9222 0.9222 0.9222 0.9223 0.9223
683.000000 0.9222 0.9220 0.9218 0.9216 0.9214
688.000000 0.9212 0.9209 0.9207 0.9205 0.9200
693.000000 0.9191 0.9183 0.9174 0.9165 0.9156
698.000000 0.9148 0.9139 0.9128 0.9115 0.9102
703.000000 0.9089 0.9076 0.9061 0.9035 0.9009
708.000000 0.8983 0.8954 0.8922 0.8889 0.8857
713.000000 0.8825 0.8783 0.8741 0.8699 0.8656
718.000000 0.8591 0.8512 0.8434 0.8356 0.8278
723.000000 0.8200 0.8122 0.7942 0.7715 0.7469
728.000000 0.7369 0.7275 0.7181 0.7083 0.6972
733.000000 0.6861 0.6759 0.6662 0.6566 0.6469
738.000000 0.6372 0.6274 0.6177 0.6044 0.5889
743.000000 0.5732 0.5572 0.5412 0.5307 0.5211
748.000000 0.5115 0.5019 0.4912 0.4797 0.4719
753.000000 0.4682 0.4644 0.4625 0.4608 0.4591
758.000000 0.4565 0.4532 0.4499 0.4436 0.4361
763.000000 0.4257 0.4073 0.3807 0.3542 0.3276
768.000000 0.2915 0.2898 0.3750 0.4930 0.6111
773.000000 0.6527 0.2184 0.2309 0.2587 0.2865
778.000000 0.3142 0.3420 0.3698 0.3975 0.4278
783.000000 0.4273 0.4153 0.3924 0.3695 0.3466
788.000000 0.3236 0.3077 0.3057 0.3063 0.3063
793.000000 0.3117 0.3187 0.3261 0.3348 0.3455
798.000000 0.3620 0.3857 0.4173 0.4485 0.4796
803.000000 0.5108 0.5358 0.5583 0.5709 0.5926
808.000000 0.6100 0.6153 0.6164 0.6165 0.6152
813.000000 0.6138 0.6093 0.6046 0.5939 0.5802
818.000000 0.5601 0.5400 0.5199 0.4998 0.4797
823.000000 0.4596 0.4395 0.3893 0.3638 0.2986
828.000000 0.2426 0.2255 0.2120 0.1995 0.1888
833.000000 0.1790 0.1712 0.1673 0.1647 0.1657
838.000000 0.1663 0.1686 0.1808 0.2129 0.2449
843.000000 0.2548 0.2545 0.2529 0.2222 0.1875
848.000000 0.1528 0.1181 0.0834 0.0671 0.0869
853.000000 0.2504 0.4140 0.4941 0.4952 0.1190
858.000000 0.1190 0.1505 0.1890 0.2276 0.2646
863.000000 0.2626 0.2606 0.2584 0.2562 0.2531
868.000000 0.2496 0.2455 0.2414 0.2373 0.2332
873.000000 0.2284 0.2238 0.2210 0.2203 0.2205
878.000000 0.2221 0.2226 0.2248 0.2306 0.2396
883.000000 0.2489 0.2591 0.2691 0.2790 0.2890
888.000000 0.2986 0.3081 0.3176 0.3285 0.3397
893.000000 0.3778 0.3827 0.3862 0.3905 0.3973
898.000000 0.4152 0.4177 0.3176 0.2554 0.1933
903.000000 0.1723 0.5726 0.5892 0.6025 0.6186
908.000000 0.6281 0.6319 0.6347 0.6356 0.6364
913.000000 0.6304 0.6251 0.6179 0.6101 0.6027
918.000000 0.5961 0.5894 0.5798 0.5707 0.5625
923.000000 0.5543 0.5489 0.5435 0.5388 0.5343
928.000000 0.5332 0.5320 0.5323 0.5305 0.5544
933.000000 0.5805 0.6066 0.6327 0.6582 0.6752
938.000000 0.6838 0.6925 0.7088 0.7228 0.7333
943.000000 0.7522 0.7762 0.7963 0.8121 0.8179
948.000000 0.8212 0.8202 0.8153 0.8155 0.8377
953.000000 0.8436 0.8453 0.8480 0.8449 0.8437
958.000000 0.8419 0.8376 0.8263 0.8116 0.8004
963.000000 0.7614 0.7016 0.7009 0.7167 0.7014
968.000000 0.7797 0.7786 0.7773 0.7749 0.7726
973.000000 0.7702 0.7687 0.7675 0.7667 0.7665
978.000000 0.7669 0.7675 0.7680 0.7680 0.7680
983.000000 0.7680 0.7673 0.7667 0.7647 0.7618
988.000000 0.7582 0.7529 0.7317 0.6807 0.6473
993.000000 0.6865 0.7366 0.7868 0.8191 0.8196
998.000000 0.7418 0.6271 0.5686 0.5679 0.6050
1003.000000 0.6514 0.6978 0.7284 0.7296 0.7314
1008.000000 0.7341 0.7253 0.7166 0.7110 0.7072
1013.000000 0.7060 0.7049 0.7040 0.7031 0.7026
1018.000000 0.7028 0.7044 0.7197 0.7375 0.7502
1023.000000 0.7605 0.7702 0.7772 0.8080 0.8156
1028.000000 0.8192 0.8204 0.8205 0.8204 0.8212
1033.000000 0.8648 0.8724 0.8764 0.8795 0.8811
1038.000000 0.8826 0.8830 0.8823 0.8837 0.8611
1043.000000 0.8505 0.8400 0.8416 0.8512 0.8608
1048.000000 0.8570 0.8525 0.8470 0.8329 0.8187
1053.000000 0.8073 0.8048 0.7974 0.7900 0.7827
1058.000000 0.7753 0.7679 0.7605 0.7531 0.7439
1063.000000 0.7248 0.7212 0.7223 0.7231 0.7236
1068.000000 0.7208 0.7175 0.7136 0.7116 0.7104
1073.000000 0.7112 0.7125 0.7135 0.7135 0.7081
1078.000000 0.7034 0.6987 0.6940 0.6597 0.6189
1083.000000 0.5781 0.5760 0.5736 0.6402 0.6723
1088.000000 0.7044 0.7393 0.5388 0.5461 0.5821
1093.000000 0.6182 0.6165 0.5028 0.5365 0.5754
1098.000000 0.6144 0.6533 0.6592 0.6470 0.6191
1103.000000 0.6083 0.6025 0.5969 0.5918 0.5872
1108.000000 0.5841 0.5869 0.5871 0.5955 0.6039
1113.000000 0.6123 0.6208 0.6292 0.6376 0.6460
1118.000000 0.6544 0.6645 0.6770 0.6920 0.7164
1123.000000 0.7346 0.7408 0.7446 0.7528 0.7616
1128.000000 0.7720 0.6903 0.6012 0.5652 0.7865
1133.000000 0.5638 0.7953 0.7990 0.8027 0.8064
1138.000000 0.8115 0.8180 0.8245 0.8313 0.8378
1143.000000 0.8436 0.8492 0.8534 0.8576 0.8607
1148.000000 0.8632 0.8657 0.8672 0.8683 0.8650
1153.000000 0.8668 0.8641 0.8614 0.8608 0.8601
1158.000000 0.8596 0.8595 0.8593 0.8572 0.8541
1163.000000 0.8492 0.8430 0.8369 0.8308 0.8242
1168.000000 0.8171 0.8028 0.7954 0.7902 0.7850
1173.000000 0.7798 0.7682 0.7607 0.7549 0.7491
1178.000000 0.7413 0.7320 0.7223 0.7125 0.7029
1183.000000 0.6939 0.6848 0.6777 0.6707 0.6636
1188.000000 0.6564 0.6493 0.6406 0.6315 0.6235
1193.000000 0.6155 0.6059 0.5940 0.5826 0.5728
1198.000000 0.5633 0.5532 0.5400 0.5111 0.4820
1203.000000 0.4528 0.4296 0.4257 0.4249 0.4772
1208.000000 0.5290 0.5634 0.5635 0.5046 0.3727
1213.000000 0.3849 0.4242 0.4636 0.4873 0.4931
1218.000000 0.4950 0.4970 0.4917 0.4559 0.4423
1223.000000 0.4343 0.4258 0.4164 0.4058 0.3905
1228.000000 0.3813 0.3747 0.3697 0.3654 0.3616
1233.000000 0.3315 0.2986 0.3620 0.2329 0.2273
1238.000000 0.2374 0.3156 0.3731 0.3832 0.3882
1243.000000 0.3937 0.4006 0.4107 0.4243 0.4379
1248.000000 0.4514 0.4650 0.4786 0.4922 0.5058
1253.000000 0.5193 0.5329 0.5465 0.5601 0.5736
1258.000000 0.5872 0.6008 0.6127 0.6190 0.6200
1263.000000 0.6195 0.6172 0.6153 0.6134 0.5853
1268.000000 0.5497 0.5141 0.4889 0.4895 0.5585
1273.000000 0.6188 0.6613 0.6778 0.6983 0.7203
1278.000000 0.7475 0.7653 0.7723 0.7794 0.7864
1283.000000 0.7911 0.7957 0.8000 0.8040 0.8079
1288.000000 0.8119 0.8152 0.8183 0.8215 0.8246
1293.000000 0.8278 0.8306 0.8331 0.8357 0.8383
1298.000000 0.8408 0.8437 0.8474 0.8511 0.8548
1303.000000 0.8584 0.8621 0.8655 0.8687 0.8719
1308.000000 0.8752 0.8784 0.8813 0.8838 0.8862
1313.000000 0.8887 0.8911 0.8936 0.8960 0.8984
1318.000000 0.8998 0.9013 0.9028 0.9043 0.9058
1323.000000 0.9073 0.9087 0.9094 0.9101 0.9109
1328.000000 0.9116 0.9123 0.9130 0.9137 0.9144
1333.000000 0.9152 0.9158 0.9161 0.9165 0.9169
1338.000000 0.9172 0.9176 0.9180 0.9184 0.9187
1343.000000 0.9188 0.9188 0.9188 0.9187 0.9186
1348.000000 0.9185 0.9180 0.9192 0.9198 0.9208
1353.000000 0.9222 0.9235 0.9242 0.9249 0.9254
1358.000000 0.9251 0.9243 0.9233 0.9224 0.9213
1363.000000 0.9199 0.9184 0.9169 0.9155 0.9142
1368.000000 0.9128 0.9114 0.9101 0.9091 0.9081
1373.000000 0.9072 0.9062 0.9053 0.9045 0.9040
1378.000000 0.9036 0.9032 0.9031 0.9031 0.9031
1383.000000 0.9032 0.9032 0.9035 0.9038 0.9042
1388.000000 0.9045 0.9048 0.9051 0.9056 0.9061
1393.000000 0.9066 0.9071 0.9075 0.9080 0.9085
1398.000000 0.9086 0.9086 0.9085 0.9085 0.9084
1403.000000 0.9084 0.9083 0.9082 0.9080 0.9077
1408.000000 0.9075 0.9073 0.9070 0.9068 0.9066
1413.000000 0.9062 0.9057 0.9053 0.9048 0.9043
1418.000000 0.9038 0.9034 0.9028 0.9022 0.9015
1423.000000 0.9009 0.9003 0.8996 0.8988 0.8979
1428.000000 0.8971 0.8963 0.8954 0.8946 0.8937
1433.000000 0.8929 0.8920 0.8909 0.8896 0.8883
1438.000000 0.8870 0.8857 0.8844 0.8830 0.8817
1443.000000 0.8803 0.8810 0.8818 0.8825 0.8830
1448.000000 0.8831 0.8832 0.8833 0.8832 0.8813
1453.000000 0.8794 0.8775 0.8758 0.8742 0.8759
1458.000000 0.8795 0.8803 0.8716 0.8629 0.8541
1463.000000 0.8494 0.8525 0.8615 0.8704 0.8788
1468.000000 0.8785 0.8787 0.8789 0.8791 0.8793
1473.000000 0.8805 0.8817 0.8823 0.8830 0.8821
1478.000000 0.8807 0.8785 0.8757 0.8243 0.7618
1483.000000 0.7005 0.7108 0.7661 0.8215 0.8768
1488.000000 0.8886 0.8900 0.8914 0.8914 0.8913
1493.000000 0.8910 0.8907 0.8902 0.8896 0.8891
1498.000000 0.8885 0.8879 0.8872 0.8862 0.8852
1503.000000 0.8842 0.8827 0.8793 0.8777 0.8781
1508.000000 0.8785 0.8792 0.8803 0.8814 0.8829
1513.000000 0.8848 0.8851 0.8852 0.8853 0.8849
1518.000000 0.8845 0.8841 0.8835 0.8829 0.8839
1523.000000 0.8856 0.8872 0.8885 0.8898 0.8910
1528.000000 0.8912 0.8912 0.8912 0.8913 0.8913
1533.000000 0.8913 0.8913 0.8913 0.8913 0.8913
1538.000000 0.8910 0.8906 0.8901 0.8897 0.8892
1543.000000 0.8882 0.8872 0.8863 0.8853 0.8843
1548.000000 0.8840 0.8853 0.8866 0.8878 0.8885
1553.000000 0.8882 0.8878 0.8875 0.8869 0.8852
1558.000000 0.8834 0.8817 0.8804 0.8816 0.8828
1563.000000 0.8847 0.8866 0.8885 0.8904 0.8923
1568.000000 0.8941 0.8944 0.8942 0.8939 0.8937
1573.000000 0.8935 0.8919 0.8897 0.8876 0.8885
1578.000000 0.8898 0.8912 0.8926 0.8940 0.8951
1583.000000 0.8953 0.8955 0.8957 0.8956 0.8952
1588.000000 0.8948 0.8944 0.8939 0.8933 0.8927
1593.000000 0.8920 0.8914 0.8908 0.8901 0.8892
1598.000000 0.8884 0.8876 0.8867 0.8859 0.8850
1603.000000 0.8842 0.8834 0.8825 0.8817 0.8808
1608.000000 0.8800 0.8791 0.8782 0.8773 0.8764
1613.000000 0.8755 0.8746 0.8737 0.8728 0.8719
1618.000000 0.8715 0.8713 0.8710 0.8703 0.8686
1623.000000 0.8668 0.8651 0.8634 0.8621 0.8609
1628.000000 0.8615 0.8620 0.8625 0.8626 0.8627
1633.000000 0.8628 0.8627 0.8625 0.8625 0.8627
1638.000000 0.8628 0.8626 0.8622 0.8618 0.8614
1643.000000 0.8598 0.8581 0.8557 0.8413 0.8161
1648.000000 0.7928 0.7925 0.8542 0.8478 0.8567
1653.000000 0.8467 0.8468 0.8481 0.8499 0.8520
1658.000000 0.8540 0.8560 0.8580 0.8600 0.8626
1663.000000 0.8657 0.8687 0.8715 0.8743 0.8769
1668.000000 0.8794 0.8804 0.8814 0.8825 0.8830
1673.000000 0.8833 0.8835 0.8852 0.8866 0.8864
1678.000000 0.8862 0.8860 0.8857 0.8853 0.8849
1683.000000 0.8867 0.8893 0.8923 0.8965 0.8986
1688.000000 0.8991 0.8995 0.8997 0.8987 0.8976
1693.000000 0.8970 0.8967 0.8963 0.8961 0.8961
1698.000000 0.8961 0.8961 0.8964 0.8970 0.8976
1703.000000 0.8987 0.8999 0.9012 0.9017 0.9018
1708.000000 0.9020 0.9022 0.9024 0.9015 0.9006
1713.000000 0.8997 0.8988 0.8986 0.8987 0.8988
1718.000000 0.8989 0.8991 0.8997 0.8993 0.8995
1723.000000 0.8998 0.9000 0.9003 0.9005 0.9000
1728.000000 0.8996 0.8992 0.8988 0.8983 0.8977
1733.000000 0.8972 0.8967 0.8962 0.8956 0.8951
1738.000000 0.8946 0.8941 0.8935 0.8931 0.8929
1743.000000 0.8927 0.8925 0.8922 0.8920 0.8918
1748.000000 0.8915 0.8912 0.8908 0.8904 0.8900
1753.000000 0.8896 0.8892 0.8874 0.8848 0.8823
1758.000000 0.8798 0.8760 0.8717 0.8674 0.8624
1763.000000 0.8568 0.8510 0.8449 0.8430 0.8504
1768.000000 0.8611 0.8717 0.8824 0.8923 0.8920
1773.000000 0.8916 0.8911 0.8905 0.8899 0.8893
1778.000000 0.8889 0.8886 0.8883 0.8880 0.8876
1783.000000 0.8873 0.8869 0.8866 0.8862 0.8854
1788.000000 0.8846 0.8840 0.8837 0.8833 0.8829
1793.000000 0.8828 0.8831 0.8833 0.8836 0.8838
1798.000000 0.8840 0.8843 0.8840 0.8837 0.8834
1803.000000 0.8831 0.8828 0.8791 0.8746 0.8686
1808.000000 0.8624 0.8566 0.8571 0.8579 0.8817
1813.000000 0.8868 0.8878 0.8887 0.8892 0.8896
1818.000000 0.8900 0.8905 0.8907 0.8909 0.8910
1823.000000 0.8912 0.8914 0.8915 0.8916 0.8917
1828.000000 0.8918 0.8916 0.8914 0.8913 0.8911
1833.000000 0.8909 0.8908 0.8906 0.8905 0.8904
1838.000000 0.8903 0.8901 0.8900 0.8898 0.8893
1843.000000 0.8889 0.8886 0.8884 0.8881 0.8879
1848.000000 0.8876 0.8873 0.8871 0.8867 0.8860
1853.000000 0.8853 0.8842 0.8829 0.8815 0.8801
1858.000000 0.8801 0.8819 0.8849 0.8868 0.8888
1863.000000 0.8908 0.8912 0.8910 0.8909 0.8908
1868.000000 0.8907 0.8906 0.8905 0.8904 0.8903
1873.000000 0.8902 0.8900 0.8898 0.8895 0.8893
1878.000000 0.8891 0.8888 0.8886 0.8883 0.8880
1883.000000 0.8877 0.8873 0.8869 0.8866 0.8862
1888.000000 0.8859 0.8855 0.8849 0.8838 0.8826
1893.000000 0.8814 0.8803 0.8791 0.8789 0.8794
1898.000000 0.8798 0.8802 0.8806 0.8810 0.8807
1903.000000 0.8804 0.8801 0.8798 0.8795 0.8795
1908.000000 0.8795 0.8796 0.8798 0.8799 0.8801
1913.000000 0.8803 0.8805 0.8807 0.8798 0.8788
1918.000000 0.8777 0.8769 0.8761 0.8753 0.8746
1923.000000 0.8738 0.8732 0.8725 0.8719 0.8712
1928.000000 0.8706 0.8699 0.8691 0.8684 0.8684
1933.000000 0.8691 0.8697 0.8704 0.8711 0.8719
1938.000000 0.8731 0.8744 0.8757 0.8753 0.8736
1943.000000 0.8712 0.8674 0.8636 0.8627 0.8638
1948.000000 0.8655 0.8674 0.8695 0.8705 0.8710
1953.000000 0.8716 0.8721 0.8719 0.8717 0.8716
1958.000000 0.8714 0.8712 0.8709 0.8705 0.8701
1963.000000 0.8698 0.8691 0.8685 0.8678 0.8672
1968.000000 0.8666 0.8658 0.8651 0.8643 0.8669
1973.000000 0.8713 0.8728 0.8743 0.8758 0.8739
1978.000000 0.8713 0.8687 0.8654 0.8622 0.8589
1983.000000 0.8556 0.8501 0.8446 0.8391 0.8326
1988.000000 0.8272 0.8269 0.8285 0.8470 0.8652
1993.000000 0.8697 0.8704 0.8704 0.8704 0.8696
1998.000000 0.8683 0.8669 0.8661 0.8691 0.8722
2003.000000 0.8716 0.8710 0.8700 0.8690 0.8675
2008.000000 0.8661 0.8646 0.8632 0.8618 0.8605
2013.000000 0.8591 0.8578 0.8570 0.8562 0.8556
2018.000000 0.8551 0.8545 0.8540 0.8533 0.8527
2023.000000 0.8520 0.8513 0.8494 0.8475 0.8428
2028.000000 0.8382 0.8335 0.8289 0.8243 0.8197
2033.000000 0.8150 0.8104 0.8057 0.8011 0.7989
2038.000000 0.7968 0.8008 0.8446 0.8108 0.8168
2043.000000 0.8228 0.8288 0.8340 0.8393 0.8396
2048.000000 0.8399 0.8400 0.8401 0.8402 0.8404
2053.000000 0.8405 0.8406 0.8407 0.8408 0.8409
2058.000000 0.8411 0.8412 0.8414 0.8417 0.8420
2063.000000 0.8424 0.8429 0.8433 0.8438 0.8442
2068.000000 0.8447 0.8451 0.8455 0.8458 0.8462
2073.000000 0.8465 0.8469 0.8472 0.8476 0.8479
2078.000000 0.8483 0.8486 0.8490 0.8493 0.8497
2083.000000 0.8500 0.8503 0.8506 0.8510 0.8492
2088.000000 0.8474 0.8440 0.8407 0.8373 0.8339
2093.000000 0.8303 0.8267 0.8264 0.8262 0.8271
2098.000000 0.8280 0.8326 0.8372 0.8418 0.8464
2103.000000 0.8487 0.8511 0.8509 0.8507 0.8506
2108.000000 0.8506 0.8506 0.8506 0.8506 0.8506
2113.000000 0.8518 0.8530 0.8552 0.8574 0.8594
2118.000000 0.8615 0.8628 0.8642 0.8655 0.8669
2123.000000 0.8682 0.8696 0.8707 0.8719 0.8726
2128.000000 0.8733 0.8728 0.8724 0.8711 0.8699
2133.000000 0.8688 0.8677 0.8666 0.8656 0.8657
2138.000000 0.8659 0.8682 0.8706 0.8748 0.8791
2143.000000 0.8794 0.8798 0.8790 0.8783 0.8771
2148.000000 0.8759 0.8747 0.8735 0.8721 0.8708
2153.000000 0.8695 0.8682 0.8671 0.8660 0.8650
2158.000000 0.8641 0.8632 0.8624 0.8620 0.8616
2163.000000 0.8617 0.8618 0.8626 0.8635 0.8642
2168.000000 0.8649 0.8656 0.8663 0.8660 0.8658
2173.000000 0.8651 0.8645 0.8623 0.8602 0.8579
2178.000000 0.8557 0.8534 0.8512 0.8483 0.8455
2183.000000 0.8450 0.8497 0.8452 0.8459 0.8466
2188.000000 0.8473 0.8481 0.8489 0.8498 0.8508
2193.000000 0.8517 0.8526 0.8533 0.8540 0.8547
2198.000000 0.8554 0.8561 0.8568 0.8574 0.8581
2203.000000 0.8587 0.8594 0.8600 0.8607 0.8613
2208.000000 0.8620 0.8626 0.8632 0.8637 0.8642
2213.000000 0.8647 0.8653 0.8658 0.8663 0.8667
2218.000000 0.8671 0.8674 0.8678 0.8682 0.8686
2223.000000 0.8690 0.8695 0.8701 0.8707 0.8713
2228.000000 0.8719 0.8732 0.8745 0.8755 0.8765
2233.000000 0.8770 0.8776 0.8781 0.8787 0.8790
2238.000000 0.8793 0.8795 0.8798 0.8799 0.8800
2243.000000 0.8800 0.8800 0.8800 0.8800 0.8792
2248.000000 0.8784 0.8746 0.8708 0.8670 0.8632
2253.000000 0.8594 0.8556 0.8546 0.8536 0.8541
2258.000000 0.8546 0.8640 0.8734 0.8791 0.8849
2263.000000 0.8862 0.8875 0.8881 0.8887 0.8893
2268.000000 0.8899 0.8903 0.8907 0.8910 0.8913
2273.000000 0.8916 0.8919 0.8920 0.8922 0.8923
2278.000000 0.8924 0.8924 0.8925 0.8926 0.8927
2283.000000 0.8927 0.8928 0.8929 0.8930 0.8931
2288.000000 0.8932 0.8933 0.8934 0.8935 0.8936
2293.000000 0.8937 0.8938 0.8939 0.8941 0.8942
2298.000000 0.8943 0.8945 0.8948 0.8952 0.8956
2303.000000 0.8960 0.8964 0.8968 0.8972 0.8973
2308.000000 0.8974 0.8971 0.8968 0.8965 0.8962
2313.000000 0.8959 0.8956 0.8953 0.8950 0.8951
2318.000000 0.8952 0.8956 0.8961 0.8965 0.8969
2323.000000 0.8971 0.8974 0.8975 0.8977 0.8978
2328.000000 0.8980 0.8981 0.8983 0.8985 0.8988
2333.000000 0.8990 0.8993 0.8995 0.8998 0.9000
2338.000000 0.9003 0.9004 0.9006 0.9007 0.9008
2343.000000 0.9009 0.9010 0.9011 0.9012 0.9013
2348.000000 0.9014 0.9015 0.9017 0.9018 0.9019
2353.000000 0.9020 0.9022 0.9024 0.9026 0.9028
2358.000000 0.9031 0.9033 0.9036 0.9043 0.9050
2363.000000 0.9054 0.9059 0.9059 0.9059 0.9059
2368.000000 0.9059 0.9058 0.9058 0.9057 0.9056
2373.000000 0.9052 0.9048 0.9043 0.9038 0.9034
2378.000000 0.9031 0.9027 0.9024 0.9022 0.9020
2383.000000 0.9018 0.9016 0.9014 0.9013 0.9013
2388.000000 0.9013 0.9012 0.9012 0.9011 0.9011
2393.000000 0.9010 0.9010 0.9010 0.9011 0.9011
2398.000000 0.9012 0.9012 0.9013 0.9013 0.9013
2403.000000 0.9012 0.9012 0.9011 0.9011 0.9011
2408.000000 0.9012 0.9014 0.9016 0.9018 0.9020
2413.000000 0.9020 0.9021 0.9019 0.9018 0.9017
2418.000000 0.9016 0.9014 0.9013 0.9008 0.9003
2423.000000 0.8998 0.8993 0.8988 0.8983 0.8978
2428.000000 0.8973 0.8968 0.8963 0.8958 0.8953
2433.000000 0.8946 0.8939 0.8931 0.8924 0.8917
2438.000000 0.8910 0.8910 0.8910 0.8910 0.8910
2443.000000 0.8910 0.8910 0.8909 0.8909 0.8908
2448.000000 0.8908 0.8907 0.8907 0.8904 0.8902
2453.000000 0.8897 0.8893 0.8888 0.8883 0.8877
2458.000000 0.8871 0.8864 0.8858 0.8851 0.8845
2463.000000 0.8837 0.8829 0.8827 0.8825 0.8829
2468.000000 0.8833 0.8844 0.8856 0.8869 0.8882
2473.000000 0.8891 0.8900 0.8901 0.8902 0.8903
2478.000000 0.8904 0.8904 0.8904 0.8904 0.8904
2483.000000 0.8904 0.8904 0.8904 0.8904 0.8904
2488.000000 0.8904 0.8904 0.8904 0.8905 0.8906
