##TITLE=Methane, bromodifluoro-
##JCAMP-DX=4.24
##DATA TYPE=INFRARED SPECTRUM
##CLASS=COBLENTZ
##ORIGIN=DOW CHEMICAL COMPANY
##OWNER=Copyright (C) 1987 by the Coblentz Society
Collection (C) 2018 copyright by the U.S. Secretary of Commerce
on behalf of the United States of America. All rights reserved.
##DATE=1964
##NAMES=bromo(difluoro)methane
##CAS REGISTRY NO=1511-62-2
##MOLFORM=C H Br F2
##SOURCE REFERENCE=COBLENTZ NO. 8818
##$NIST SOURCE=COBLENTZ
##$NIST IMAGE=cob8818
##SPECTROMETER/DATA SYSTEM=DOW KBr FOREPRISM-GRATING
##INSTRUMENT PARAMETERS=GRATING CHANGED AT 5.0, 7.5, 15.0 MICRON
##STATE=GAS (100 mmHg, N2 ADDED, TOTAL PRESSURE 600 mmHg)
##PATH LENGTH=5 CM
##SAMPLING PROCEDURE=TRANSMISSION
##RESOLUTION=2
##DATA PROCESSING=DIGITIZED BY COBLENTZ SOCIETY (BATCH II) FROM HARD COPY
##XUNITS=1/CM
##YUNITS=TRANSMITTANCE
##XFACTOR=1.0
##YFACTOR=1
##FIRSTX=466
##LASTX=3792
##FIRSTY=0.8647
##MAXX=3792
##MINX=466
##MAXY=0.9254
##MINY=0
##NPOINTS=3327
##XYDATA=(X++(Y..Y))
466.000000 0.8647 0.8651 0.8656 0.8659 0.8660
471.000000 0.8660 0.8661 0.8661 0.8662 0.8663
476.000000 0.8665 0.8666 0.8668 0.8670 0.8671
481.000000 0.8673 0.8673 0.8672 0.8670 0.8669
486.000000 0.8668 0.8667 0.8666 0.8664 0.8663
491.000000 0.8662 0.8661 0.8659 0.8658 0.8656
496.000000 0.8655 0.8654 0.8652 0.8651 0.8649
501.000000 0.8646 0.8642 0.8638 0.8634 0.8630
506.000000 0.8626 0.8622 0.8618 0.8613 0.8608
511.000000 0.8604 0.8599 0.8595 0.8590 0.8586
516.000000 0.8581 0.8577 0.8574 0.8572 0.8571
521.000000 0.8569 0.8567 0.8566 0.8564 0.8564
526.000000 0.8567 0.8570 0.8574 0.8577 0.8581
531.000000 0.8584 0.8585 0.8585 0.8584 0.8584
536.000000 0.8583 0.8583 0.8582 0.8582 0.8579
541.000000 0.8574 0.8569 0.8564 0.8559 0.8554
546.000000 0.8549 0.8542 0.8533 0.8525 0.8516
551.000000 0.8507 0.8498 0.8487 0.8471 0.8455
556.000000 0.8438 0.8413 0.8386 0.8360 0.8324
561.000000 0.8287 0.8231 0.8143 0.8071 0.7998
566.000000 0.7817 0.7610 0.7402 0.7195 0.6987
571.000000 0.6780 0.6572 0.6414 0.6304 0.6191
576.000000 0.6081 0.6031 0.6034 0.6132 0.6234
581.000000 0.6363 0.6362 0.5008 0.3877 0.3872
586.000000 0.5097 0.6819 0.6795 0.6278 0.5464
591.000000 0.5352 0.5368 0.5555 0.5763 0.5970
596.000000 0.6178 0.6384 0.6548 0.6704 0.6869
601.000000 0.7105 0.7266 0.7361 0.7445 0.7521
606.000000 0.7647 0.7788 0.7940 0.8118 0.8223
611.000000 0.8314 0.8368 0.8422 0.8460 0.8491
616.000000 0.8503 0.8510 0.8518 0.8506 0.8499
621.000000 0.8484 0.8468 0.8448 0.8418 0.8381
626.000000 0.8350 0.8319 0.8289 0.8257 0.8224
631.000000 0.8189 0.8148 0.8107 0.8034 0.7950
636.000000 0.7837 0.7678 0.7505 0.7443 0.7381
641.000000 0.7325 0.7265 0.7232 0.7221 0.7225
646.000000 0.7233 0.7251 0.7273 0.7305 0.7341
651.000000 0.7384 0.7434 0.7511 0.7623 0.7763
656.000000 0.7849 0.7933 0.8008 0.8082 0.8143
661.000000 0.8202 0.8266 0.8347 0.8416 0.8468
666.000000 0.8496 0.8512 0.8511 0.8504 0.8480
671.000000 0.8455 0.8440 0.8449 0.8426 0.8538
676.000000 0.8558 0.8554 0.8570 0.8560 0.8530
681.000000 0.8474 0.8398 0.8330 0.8257 0.8181
686.000000 0.8073 0.7927 0.7764 0.7606 0.7448
691.000000 0.7245 0.7034 0.6905 0.6794 0.6588
696.000000 0.6171 0.5754 0.5337 0.4920 0.4503
701.000000 0.0923 0.0681 0.0596 0.0509 0.0366
706.000000 0.0231 0.0061 0.0001 0.0001 0.0001
711.000000 0.0001 0.0001 0.0001 0.0001 0.0001
716.000000 0.0022 0.0047 0.0068 0.0084 0.0097
721.000000 0.0100 0.0078 0.0086 0.0066 0.0046
726.000000 0.0026 0.0006 0.0003 0.0002 0.0001
731.000000 0.0000 0.0045 0.0170 0.0609 0.1049
736.000000 0.1488 0.1927 0.2366 0.2805 0.4884
741.000000 0.5395 0.5909 0.6861 0.7123 0.7266
746.000000 0.7413 0.7586 0.7755 0.7873 0.7987
751.000000 0.8108 0.8211 0.8296 0.8362 0.8424
756.000000 0.8456 0.8487 0.8516 0.8537 0.8558
761.000000 0.8577 0.8595 0.8612 0.8624 0.8635
766.000000 0.8647 0.8680 0.8655 0.8658 0.8660
771.000000 0.8659 0.8658 0.8657 0.8656 0.8649
776.000000 0.8641 0.8634 0.8626 0.8621 0.8616
781.000000 0.8612 0.8607 0.8602 0.8603 0.8606
786.000000 0.8609 0.8618 0.8627 0.8641 0.8655
791.000000 0.8653 0.8652 0.8649 0.8645 0.8642
796.000000 0.8638 0.8634 0.8630 0.8625 0.8619
801.000000 0.8613 0.8607 0.8601 0.8593 0.8585
806.000000 0.8577 0.8562 0.8539 0.8502 0.8461
811.000000 0.8417 0.8366 0.8293 0.8218 0.8165
816.000000 0.8154 0.8158 0.8197 0.8237 0.8278
821.000000 0.8305 0.8286 0.8225 0.8155 0.8142
826.000000 0.8155 0.8181 0.8206 0.8232 0.8257
831.000000 0.8282 0.8329 0.8376 0.8430 0.8476
836.000000 0.8518 0.8545 0.8572 0.8600 0.8614
841.000000 0.8621 0.8627 0.8633 0.8634 0.8636
846.000000 0.8634 0.8667 0.8630 0.8624 0.8614
851.000000 0.8602 0.8584 0.8565 0.8543 0.8521
856.000000 0.8499 0.8464 0.8426 0.8388 0.8343
861.000000 0.8299 0.8255 0.8210 0.8164 0.8118
866.000000 0.8072 0.8026 0.7980 0.7938 0.7898
871.000000 0.7876 0.7864 0.7853 0.7814 0.7737
876.000000 0.7731 0.7756 0.7758 0.7785 0.7805
881.000000 0.7817 0.7827 0.7842 0.7876 0.7919
886.000000 0.7978 0.8042 0.8069 0.8095 0.8121
891.000000 0.8136 0.8138 0.8135 0.8132 0.8129
896.000000 0.8123 0.8137 0.8162 0.8199 0.8251
901.000000 0.8304 0.8361 0.8418 0.8467 0.8512
906.000000 0.8553 0.8588 0.8623 0.8663 0.8704
911.000000 0.8721 0.8735 0.8742 0.8750 0.8757
916.000000 0.8765 0.8772 0.8779 0.8785 0.8791
921.000000 0.8798 0.8803 0.8806 0.8809 0.8813
926.000000 0.8816 0.8819 0.8821 0.8823 0.8824
931.000000 0.8825 0.8832 0.8828 0.8830 0.8831
936.000000 0.8832 0.8834 0.8835 0.8835 0.8835
941.000000 0.8835 0.8835 0.8835 0.8835 0.8835
946.000000 0.8835 0.8829 0.8823 0.8817 0.8810
951.000000 0.8796 0.8782 0.8768 0.8754 0.8743
956.000000 0.8733 0.8723 0.8714 0.8704 0.8703
961.000000 0.8704 0.8705 0.8706 0.8702 0.8708
966.000000 0.8709 0.8710 0.8718 0.8726 0.8735
971.000000 0.8743 0.8765 0.8790 0.8813 0.8836
976.000000 0.8860 0.8881 0.8891 0.8901 0.8910
981.000000 0.8919 0.8928 0.8939 0.8949 0.8960
986.000000 0.8970 0.8978 0.8986 0.8994 0.9002
991.000000 0.9000 0.9002 0.8996 0.8994 0.8989
996.000000 0.8983 0.8978 0.8977 0.8976 0.8973
1001.000000 0.8965 0.8956 0.8946 0.8927 0.8908
1006.000000 0.8888 0.8860 0.8819 0.8778 0.8737
1011.000000 0.8696 0.8656 0.8615 0.8573 0.8530
1016.000000 0.8486 0.8443 0.8397 0.8349 0.8302
1021.000000 0.8265 0.8237 0.8219 0.8220 0.8225
1026.000000 0.8227 0.8227 0.8226 0.8219 0.8193
1031.000000 0.8095 0.7997 0.7899 0.7801 0.7692
1036.000000 0.7701 0.7737 0.7838 0.7939 0.8026
1041.000000 0.8085 0.8183 0.8333 0.8386 0.8420
1046.000000 0.8449 0.8478 0.8496 0.8513 0.8529
1051.000000 0.8546 0.8561 0.8576 0.8585 0.8604
1056.000000 0.8587 0.8583 0.8562 0.8525 0.8444
1061.000000 0.8384 0.8319 0.8220 0.8117 0.8008
1066.000000 0.7886 0.7758 0.7646 0.7502 0.7153
1071.000000 0.6854 0.6555 0.6256 0.5957 0.5657
1076.000000 0.4851 0.4648 0.4250 0.3963 0.3730
1081.000000 0.3109 0.2633 0.2253 0.0275 0.0177
1086.000000 0.0103 0.0055 0.0036 0.0025 0.0014
1091.000000 0.0003 0.0001 0.0001 0.0001 0.0001
1096.000000 0.0000 0.0000 0.0000 0.0000 0.0000
1101.000000 0.0000 0.0000 0.0000 0.0000 0.0000
1106.000000 0.0000 0.0000 0.0000 0.0000 0.0000
1111.000000 0.0000 0.0000 0.0000 0.0000 0.0000
1116.000000 0.0000 0.0000 0.0000 0.0000 0.0000
1121.000000 0.0000 0.0000 0.0000 0.0000 0.0000
1126.000000 0.0000 0.0000 0.0000 0.0001 0.0001
1131.000000 0.0001 0.0001 0.0001 0.0001 0.0001
1136.000000 0.0001 0.0001 0.0001 0.0001 0.0004
1141.000000 0.0011 0.0018 0.0026 0.0033 0.0040
1146.000000 0.0047 0.0055 0.0062 0.0079 0.0117
1151.000000 0.0190 0.0288 0.0385 0.0461 0.0558
1156.000000 0.0629 0.0717 0.0812 0.0895 0.1816
1161.000000 0.2176 0.2766 0.3009 0.3190 0.3379
1166.000000 0.3819 0.4259 0.4699 0.4932 0.5023
1171.000000 0.5215 0.5608 0.6750 0.7317 0.7921
1176.000000 0.8330 0.8418 0.8495 0.8571 0.8645
1181.000000 0.8717 0.8788 0.8858 0.8905 0.8951
1186.000000 0.8998 0.9028 0.9051 0.9073 0.9095
1191.000000 0.9110 0.9120 0.9130 0.9141 0.9151
1196.000000 0.9157 0.9163 0.9168 0.9174 0.9175
1201.000000 0.9175 0.9175 0.9175 0.9174 0.9173
1206.000000 0.9172 0.9171 0.9169 0.9164 0.9158
1211.000000 0.9152 0.9147 0.9136 0.9148 0.9155
1216.000000 0.9162 0.9169 0.9175 0.9182 0.9189
1221.000000 0.9196 0.9202 0.9209 0.9215 0.9221
1226.000000 0.9227 0.9233 0.9238 0.9244 0.9249
1231.000000 0.9254 0.9254 0.9254 0.9248 0.9242
1236.000000 0.9233 0.9223 0.9209 0.9185 0.9161
1241.000000 0.9136 0.9110 0.9083 0.9044 0.9000
1246.000000 0.8956 0.8910 0.8855 0.8800 0.8745
1251.000000 0.8679 0.8605 0.8531 0.8324 0.7709
1256.000000 0.7361 0.7014 0.6666 0.6319 0.5971
1261.000000 0.5629 0.5473 0.5371 0.4733 0.4021
1266.000000 0.3308 0.0715 0.0595 0.0387 0.0286
1271.000000 0.0203 0.0133 0.0084 0.0061 0.0055
1276.000000 0.0071 0.0066 0.0075 0.0089 0.0100
1281.000000 0.0112 0.0133 0.0197 0.0301 0.0405
1286.000000 0.0414 0.0426 0.0296 0.0170 0.0082
1291.000000 0.0056 0.0047 0.0052 0.0062 0.0080
1296.000000 0.0112 0.0359 0.0603 0.1384 0.2193
1301.000000 0.3002 0.3750 0.4337 0.4909 0.5529
1306.000000 0.6149 0.6769 0.7390 0.7648 0.7855
1311.000000 0.8095 0.8215 0.8292 0.8332 0.8367
1316.000000 0.8374 0.8367 0.8367 0.8361 0.8350
1321.000000 0.8320 0.8239 0.8101 0.7956 0.7810
1326.000000 0.7665 0.7520 0.7375 0.7230 0.7084
1331.000000 0.6939 0.6794 0.6651 0.6517 0.6392
1336.000000 0.6282 0.6174 0.5896 0.5499 0.5101
1341.000000 0.4704 0.4306 0.3818 0.3727 0.3680
1346.000000 0.3671 0.3705 0.3802 0.4220 0.4933
1351.000000 0.5645 0.6358 0.6412 0.6409 0.6447
1356.000000 0.5609 0.5133 0.4444 0.4443 0.4547
1361.000000 0.4786 0.5024 0.5263 0.5501 0.5740
1366.000000 0.5978 0.6375 0.6486 0.6574 0.6761
1371.000000 0.6863 0.6930 0.7018 0.7191 0.7437
1376.000000 0.7584 0.7729 0.7988 0.8140 0.8212
1381.000000 0.8285 0.8337 0.8382 0.8427 0.8454
1386.000000 0.8478 0.8501 0.8524 0.8547 0.8570
1391.000000 0.8587 0.8604 0.8619 0.8629 0.8638
1396.000000 0.8648 0.8654 0.8656 0.8659 0.8657
1401.000000 0.8653 0.8649 0.8642 0.8634 0.8624
1406.000000 0.8608 0.8593 0.8573 0.8553 0.8533
1411.000000 0.8508 0.8483 0.8457 0.8430 0.8400
1416.000000 0.8369 0.8338 0.8298 0.8257 0.8217
1421.000000 0.8178 0.8138 0.8098 0.8062 0.8026
1426.000000 0.7990 0.7954 0.7918 0.7881 0.7848
1431.000000 0.7822 0.7795 0.7768 0.7740 0.7711
1436.000000 0.7681 0.7656 0.7637 0.7637 0.7732
1441.000000 0.7889 0.7913 0.7845 0.7770 0.7800
1446.000000 0.7853 0.7943 0.8162 0.8265 0.8346
1451.000000 0.8409 0.8468 0.8522 0.8564 0.8594
1456.000000 0.8612 0.8630 0.8641 0.8646 0.8650
1461.000000 0.8652 0.8654 0.8656 0.8659 0.8660
1466.000000 0.8661 0.8662 0.8663 0.8664 0.8665
1471.000000 0.8666 0.8666 0.8667 0.8669 0.8671
1476.000000 0.8673 0.8675 0.8676 0.8678 0.8680
1481.000000 0.8682 0.8684 0.8686 0.8688 0.8691
1486.000000 0.8693 0.8696 0.8698 0.8701 0.8703
1491.000000 0.8705 0.8706 0.8707 0.8709 0.8710
1496.000000 0.8711 0.8712 0.8713 0.8714 0.8715
1501.000000 0.8717 0.8718 0.8719 0.8719 0.8718
1506.000000 0.8717 0.8716 0.8708 0.8714 0.8713
1511.000000 0.8712 0.8711 0.8710 0.8708 0.8707
1516.000000 0.8705 0.8704 0.8702 0.8701 0.8699
1521.000000 0.8698 0.8696 0.8695 0.8694 0.8694
1526.000000 0.8693 0.8692 0.8691 0.8691 0.8690
1531.000000 0.8689 0.8688 0.8688 0.8687 0.8686
1536.000000 0.8686 0.8685 0.8684 0.8683 0.8683
1541.000000 0.8683 0.8683 0.8684 0.8684 0.8684
1546.000000 0.8685 0.8685 0.8686 0.8686 0.8686
1551.000000 0.8687 0.8687 0.8687 0.8688 0.8688
1556.000000 0.8688 0.8689 0.8689 0.8690 0.8690
1561.000000 0.8691 0.8691 0.8692 0.8692 0.8693
1566.000000 0.8693 0.8694 0.8694 0.8695 0.8695
1571.000000 0.8696 0.8696 0.8697 0.8697 0.8698
1576.000000 0.8698 0.8699 0.8699 0.8699 0.8700
1581.000000 0.8701 0.8702 0.8702 0.8703 0.8704
1586.000000 0.8704 0.8705 0.8706 0.8706 0.8708
1591.000000 0.8711 0.8713 0.8716 0.8718 0.8721
1596.000000 0.8724 0.8726 0.8729 0.8732 0.8734
1601.000000 0.8737 0.8739 0.8742 0.8744 0.8747
1606.000000 0.8749 0.8751 0.8754 0.8756 0.8759
1611.000000 0.8762 0.8764 0.8767 0.8767 0.8766
1616.000000 0.8766 0.8765 0.8765 0.8765 0.8764
1621.000000 0.8764 0.8763 0.8763 0.8763 0.8763
1626.000000 0.8763 0.8764 0.8764 0.8765 0.8765
1631.000000 0.8766 0.8766 0.8767 0.8767 0.8768
1636.000000 0.8768 0.8769 0.8769 0.8770 0.8771
1641.000000 0.8771 0.8772 0.8773 0.8774 0.8774
1646.000000 0.8775 0.8776 0.8776 0.8770 0.8763
1651.000000 0.8755 0.8748 0.8741 0.8728 0.8712
1656.000000 0.8696 0.8681 0.8661 0.8639 0.8618
1661.000000 0.8592 0.8565 0.8537 0.8500 0.8461
1666.000000 0.8416 0.8360 0.8305 0.8254 0.8225
1671.000000 0.8203 0.8187 0.8200 0.8210 0.8220
1676.000000 0.8231 0.8241 0.8251 0.8256 0.8268
1681.000000 0.8206 0.8147 0.8121 0.8124 0.8094
1686.000000 0.8139 0.8168 0.8201 0.8262 0.8328
1691.000000 0.8417 0.8516 0.8586 0.8640 0.8682
1696.000000 0.8692 0.8696 0.8696 0.8696 0.8696
1701.000000 0.8695 0.8693 0.8691 0.8689 0.8687
1706.000000 0.8687 0.8686 0.8685 0.8684 0.8683
1711.000000 0.8682 0.8681 0.8680 0.8679 0.8677
1716.000000 0.8674 0.8672 0.8670 0.8667 0.8665
1721.000000 0.8662 0.8660 0.8658 0.8655 0.8653
1726.000000 0.8650 0.8648 0.8645 0.8643 0.8642
1731.000000 0.8641 0.8640 0.8638 0.8637 0.8636
1736.000000 0.8635 0.8633 0.8632 0.8632 0.8633
1741.000000 0.8633 0.8634 0.8635 0.8635 0.8637
1746.000000 0.8639 0.8640 0.8642 0.8644 0.8645
1751.000000 0.8647 0.8649 0.8650 0.8653 0.8657
1756.000000 0.8660 0.8663 0.8666 0.8669 0.8672
1761.000000 0.8675 0.8678 0.8681 0.8684 0.8687
1766.000000 0.8690 0.8693 0.8696 0.8699 0.8701
1771.000000 0.8703 0.8704 0.8706 0.8708 0.8710
1776.000000 0.8712 0.8713 0.8715 0.8717 0.8719
1781.000000 0.8720 0.8722 0.8723 0.8723 0.8724
1786.000000 0.8724 0.8725 0.8725 0.8726 0.8727
1791.000000 0.8727 0.8728 0.8728 0.8729 0.8729
1796.000000 0.8730 0.8730 0.8731 0.8732 0.8732
1801.000000 0.8733 0.8734 0.8735 0.8736 0.8737
1806.000000 0.8738 0.8739 0.8740 0.8741 0.8742
1811.000000 0.8743 0.8744 0.8745 0.8746 0.8747
1816.000000 0.8746 0.8745 0.8744 0.8743 0.8742
1821.000000 0.8741 0.8739 0.8738 0.8737 0.8736
1826.000000 0.8735 0.8734 0.8733 0.8732 0.8731
1831.000000 0.8727 0.8722 0.8717 0.8712 0.8707
1836.000000 0.8702 0.8697 0.8692 0.8691 0.8690
1841.000000 0.8689 0.8689 0.8688 0.8688 0.8692
1846.000000 0.8696 0.8703 0.8710 0.8714 0.8715
1851.000000 0.8716 0.8717 0.8714 0.8707 0.8700
1856.000000 0.8693 0.8691 0.8692 0.8693 0.8697
1861.000000 0.8703 0.8709 0.8715 0.8721 0.8727
1866.000000 0.8734 0.8740 0.8746 0.8752 0.8758
1871.000000 0.8760 0.8760 0.8761 0.8762 0.8762
1876.000000 0.8761 0.8758 0.8756 0.8753 0.8750
1881.000000 0.8747 0.8744 0.8741 0.8738 0.8735
1886.000000 0.8732 0.8731 0.8730 0.8730 0.8729
1891.000000 0.8729 0.8728 0.8728 0.8727 0.8727
1896.000000 0.8727 0.8726 0.8726 0.8725 0.8725
1901.000000 0.8724 0.8724 0.8723 0.8723 0.8722
1906.000000 0.8753 0.8722 0.8723 0.8723 0.8723
1911.000000 0.8723 0.8723 0.8724 0.8724 0.8724
1916.000000 0.8724 0.8724 0.8725 0.8725 0.8725
1921.000000 0.8726 0.8728 0.8729 0.8731 0.8732
1926.000000 0.8734 0.8735 0.8737 0.8738 0.8739
1931.000000 0.8741 0.8742 0.8744 0.8745 0.8747
1936.000000 0.8748 0.8750 0.8751 0.8753 0.8754
1941.000000 0.8756 0.8757 0.8759 0.8760 0.8762
1946.000000 0.8763 0.8765 0.8766 0.8767 0.8767
1951.000000 0.8767 0.8768 0.8768 0.8769 0.8769
1956.000000 0.8770 0.8770 0.8771 0.8771 0.8772
1961.000000 0.8772 0.8773 0.8773 0.8774 0.8774
1966.000000 0.8775 0.8775 0.8775 0.8776 0.8776
1971.000000 0.8776 0.8776 0.8776 0.8776 0.8776
1976.000000 0.8776 0.8776 0.8776 0.8776 0.8776
1981.000000 0.8776 0.8775 0.8775 0.8775 0.8775
1986.000000 0.8775 0.8775 0.8775 0.8775 0.8775
1991.000000 0.8775 0.8775 0.8775 0.8775 0.8775
1996.000000 0.8775 0.8775 0.8774 0.8774 0.8774
2001.000000 0.8774 0.8774 0.8774 0.8774 0.8774
2006.000000 0.8774 0.8774 0.8774 0.8774 0.8774
2011.000000 0.8774 0.8774 0.8774 0.8774 0.8774
2016.000000 0.8774 0.8774 0.8774 0.8774 0.8774
2021.000000 0.8774 0.8774 0.8773 0.8773 0.8772
2026.000000 0.8772 0.8771 0.8771 0.8770 0.8770
2031.000000 0.8770 0.8770 0.8769 0.8769 0.8768
2036.000000 0.8768 0.8767 0.8767 0.8766 0.8766
2041.000000 0.8765 0.8765 0.8764 0.8764 0.8763
2046.000000 0.8763 0.8763 0.8763 0.8762 0.8762
2051.000000 0.8761 0.8761 0.8761 0.8761 0.8760
2056.000000 0.8760 0.8760 0.8760 0.8759 0.8759
2061.000000 0.8759 0.8759 0.8759 0.8759 0.8758
2066.000000 0.8758 0.8758 0.8758 0.8757 0.8757
2071.000000 0.8757 0.8757 0.8756 0.8756 0.8756
2076.000000 0.8756 0.8755 0.8755 0.8754 0.8754
2081.000000 0.8753 0.8753 0.8752 0.8752 0.8751
2086.000000 0.8751 0.8750 0.8750 0.8749 0.8749
2091.000000 0.8749 0.8749 0.8748 0.8748 0.8747
2096.000000 0.8747 0.8746 0.8746 0.8745 0.8745
2101.000000 0.8744 0.8744 0.8742 0.8740 0.8738
2106.000000 0.8736 0.8733 0.8731 0.8729 0.8727
2111.000000 0.8725 0.8723 0.8721 0.8719 0.8717
2116.000000 0.8715 0.8713 0.8711 0.8709 0.8707
2121.000000 0.8705 0.8703 0.8701 0.8699 0.8697
2126.000000 0.8695 0.8693 0.8691 0.8689 0.8687
2131.000000 0.8685 0.8683 0.8681 0.8679 0.8677
2136.000000 0.8675 0.8673 0.8671 0.8668 0.8665
2141.000000 0.8661 0.8658 0.8654 0.8651 0.8647
2146.000000 0.8644 0.8640 0.8637 0.8633 0.8630
2151.000000 0.8626 0.8622 0.8618 0.8614 0.8610
2156.000000 0.8606 0.8602 0.8598 0.8591 0.8584
2161.000000 0.8577 0.8571 0.8564 0.8558 0.8551
2166.000000 0.8544 0.8537 0.8531 0.8522 0.8514
2171.000000 0.8499 0.8485 0.8470 0.8456 0.8441
2176.000000 0.8427 0.8408 0.8390 0.8363 0.8337
2181.000000 0.8311 0.8285 0.8252 0.8219 0.8174
2186.000000 0.8129 0.8084 0.8039 0.7987 0.7936
2191.000000 0.7884 0.7832 0.7755 0.7679 0.7577
2196.000000 0.7475 0.7396 0.7318 0.7157 0.6997
2201.000000 0.6922 0.6848 0.6646 0.6445 0.6163
2206.000000 0.5882 0.5874 0.5867 0.5888 0.5840
2211.000000 0.5978 0.6047 0.6115 0.6184 0.6252
2216.000000 0.6320 0.6340 0.6361 0.6372 0.6383
2221.000000 0.6394 0.6405 0.6416 0.6427 0.6515
2226.000000 0.6603 0.6845 0.7088 0.7330 0.7576
2231.000000 0.7573 0.7575 0.7151 0.6727 0.6477
2236.000000 0.6192 0.6471 0.6714 0.7309 0.7904
2241.000000 0.7962 0.8020 0.8033 0.8047 0.8051
2246.000000 0.8055 0.8041 0.8027 0.8010 0.7994
2251.000000 0.7977 0.7960 0.7941 0.7922 0.7903
2256.000000 0.7884 0.7862 0.7840 0.7819 0.7799
2261.000000 0.7793 0.7788 0.7790 0.7793 0.7799
2266.000000 0.7805 0.7817 0.7829 0.7884 0.7940
2271.000000 0.8044 0.8149 0.8211 0.8273 0.8322
2276.000000 0.8372 0.8417 0.8462 0.8506 0.8550
2281.000000 0.8568 0.8586 0.8600 0.8615 0.8620
2286.000000 0.8625 0.8627 0.8629 0.8630 0.8632
2291.000000 0.8632 0.8653 0.8631 0.8630 0.8629
2296.000000 0.8628 0.8626 0.8624 0.8620 0.8616
2301.000000 0.8612 0.8609 0.8605 0.8601 0.8595
2306.000000 0.8589 0.8582 0.8575 0.8567 0.8560
2311.000000 0.8549 0.8539 0.8528 0.8517 0.8506
2316.000000 0.8495 0.8477 0.8459 0.8441 0.8424
2321.000000 0.8406 0.8388 0.8367 0.8347 0.8323
2326.000000 0.8299 0.8275 0.8251 0.8226 0.8201
2331.000000 0.8175 0.8149 0.8126 0.8104 0.8090
2336.000000 0.8076 0.8065 0.8055 0.8053 0.8052
2341.000000 0.8050 0.8049 0.8052 0.8060 0.8059
2346.000000 0.8064 0.8068 0.8072 0.8076 0.8081
2351.000000 0.8085 0.8089 0.8092 0.8095 0.8098
2356.000000 0.8101 0.8107 0.8114 0.8123 0.8132
2361.000000 0.8142 0.8153 0.8163 0.8174 0.8190
2366.000000 0.8207 0.8224 0.8241 0.8258 0.8276
2371.000000 0.8293 0.8310 0.8327 0.8344 0.8360
2376.000000 0.8377 0.8394 0.8411 0.8430 0.8450
2381.000000 0.8469 0.8489 0.8508 0.8528 0.8547
2386.000000 0.8567 0.8585 0.8603 0.8620 0.8638
2391.000000 0.8656 0.8674 0.8687 0.8700 0.8712
2396.000000 0.8724 0.8736 0.8749 0.8756 0.8764
2401.000000 0.8769 0.8775 0.8776 0.8777 0.8776
2406.000000 0.8776 0.8775 0.8775 0.8774 0.8774
2411.000000 0.8772 0.8771 0.8769 0.8768 0.8766
2416.000000 0.8764 0.8762 0.8760 0.8757 0.8754
2421.000000 0.8751 0.8749 0.8746 0.8743 0.8740
2426.000000 0.8737 0.8734 0.8732 0.8730 0.8728
2431.000000 0.8725 0.8723 0.8721 0.8719 0.8716
2436.000000 0.8714 0.8711 0.8709 0.8705 0.8702
2441.000000 0.8698 0.8695 0.8691 0.8688 0.8684
2446.000000 0.8680 0.8676 0.8673 0.8669 0.8666
2451.000000 0.8662 0.8659 0.8655 0.8652 0.8648
2456.000000 0.8645 0.8650 0.8655 0.8660 0.8666
2461.000000 0.8671 0.8677 0.8682 0.8688 0.8693
2466.000000 0.8699 0.8704 0.8709 0.8713 0.8718
2471.000000 0.8723 0.8728 0.8733 0.8738 0.8742
2476.000000 0.8747 0.8750 0.8754 0.8756 0.8759
2481.000000 0.8761 0.8764 0.8766 0.8768 0.8770
2486.000000 0.8773 0.8774 0.8776 0.8776 0.8777
2491.000000 0.8777 0.8778 0.8779 0.8780 0.8780
