##TITLE=ETHANE, 1,2-DICHLORO-1,1-DIFLUORO-
##JCAMP-DX=4.24
##DATA TYPE=INFRARED SPECTRUM
##CLASS=COBLENTZ III
##ORIGIN=DOW CHEMICAL COMPANY
##OWNER=COBLENTZ SOCIETY
Collection (C) 2018 copyright by the U.S. Secretary of Commerce
on behalf of the United States of America. All rights reserved.
##DATE=1964/04/27
##NAMES=1,2-dichloro-1,1-difluoroethane
##CAS REGISTRY NO=1649-08-7
##MOLFORM=C2 H2 Cl2 F2
##SOURCE REFERENCE=COBLENTZ NO. 10028
##$NIST SOURCE=COBLENTZ
##$NIST IMAGE=cob10028
##SPECTROMETER/DATA SYSTEM=DOW KBr FOREPRISM-GRATING
##INSTRUMENT PARAMETERS=BLAZED AT 3.5, 12.0, 20.0 MICRON, CHANGED AT 5.0, 7.5, 14.9 MICRON
##STATE=SOLUTION (10% IN CCl4 FOR 3800-1340 AND 10% IN CS2 FOR 1340-450 CM^-^1)
##PATH LENGTH=0.011, 0.011 CM
$$SPECTRAL CONTAMINATION DUE TO CCl4 AROUND 1550, AND CS2 AROUND 855 CM^-^1
##SAMPLING PROCEDURE=TRANSMISSION
##RESOLUTION=4
##DATA PROCESSING=DIGITIZED BY NIST FROM HARD COPY (FROM TWO SEGMENTS)
##XUNITS=1/CM
##YUNITS=TRANSMITTANCE
##XFACTOR=1.000000
##YFACTOR=1
##DELTAX=0.869062
##FIRSTX=452.202
##LASTX=3799.83
##FIRSTY=0.964
##MAXX=3799.83
##MINX=452.202
##MAXY=1.021
##MINY=0.009
##NPOINTS=3853
##XYDATA=(X++(Y..Y))
452.202000 0.9640 0.9640 0.9640 0.9640 0.9640
456.547308 0.9640 0.9660 0.9660 0.9670 0.9670
460.892615 0.9680 0.9700 0.9710 0.9710 0.9720
465.237923 0.9720 0.9740 0.9750 0.9750 0.9760
469.583230 0.9760 0.9780 0.9780 0.9780 0.9780
473.928538 0.9780 0.9780 0.9780 0.9780 0.9780
478.273845 0.9790 0.9790 0.9790 0.9800 0.9800
482.619153 0.9820 0.9830 0.9850 0.9860 0.9870
486.964460 0.9890 0.9890 0.9890 0.9890 0.9900
491.309768 0.9910 0.9910 0.9910 0.9910 0.9910
495.655076 0.9910 0.9910 0.9910 0.9930 0.9940
500.000383 0.9950 0.9950 0.9950 0.9970 0.9970
504.345691 0.9970 0.9970 0.9970 0.9970 0.9970
508.690998 0.9970 0.9970 0.9970 0.9970 0.9970
513.036306 0.9970 0.9970 0.9970 0.9970 0.9970
517.381613 0.9970 0.9970 0.9970 0.9950 0.9950
521.726921 0.9950 0.9950 0.9950 0.9950 0.9940
526.072228 0.9940 0.9940 0.9930 0.9900 0.9870
530.417536 0.9860 0.9830 0.9820 0.9800 0.9790
534.762843 0.9700 0.9550 0.9341 0.9320 0.9320
539.108151 0.9410 0.9550 0.9640 0.9680 0.9680
543.453459 0.9670 0.9660 0.9610 0.9560 0.9490
547.798766 0.9440 0.9260 0.9150 0.8750 0.8281
552.144074 0.8110 0.7472 0.7171 0.6861 0.6272
556.489381 0.5360 0.5270 0.5920 0.7198 0.7729
560.834689 0.8259 0.8729 0.8919 0.9030 0.9060
565.179996 0.9060 0.9030 0.8950 0.8880 0.8680
569.525304 0.8451 0.8201 0.7971 0.7741 0.7362
573.870611 0.6970 0.6560 0.6100 0.5461 0.5230
578.215919 0.4711 0.4710 0.7351 0.7958 0.8418
582.561227 0.8990 0.9230 0.9400 0.9520 0.9630
586.906534 0.9700 0.9760 0.9800 0.9830 0.9910
591.251842 0.9950 1.0010 1.0020 1.0040 1.0050
595.597149 1.0060 1.0080 1.0090 1.0120 1.0140
599.942457 1.0140 1.0140 1.0140 1.0140 1.0160
604.287764 1.0190 1.0200 1.0210 1.0210 1.0200
608.633072 1.0200 1.0200 1.0200 1.0190 1.0170
612.978379 1.0170 1.0170 1.0170 1.0170 1.0170
617.323687 1.0170 1.0160 1.0140 1.0130 1.0130
621.668994 1.0130 1.0120 1.0090 1.0080 1.0050
626.014302 1.0040 1.0040 1.0000 0.9980 0.9950
630.359610 0.9900 0.9870 0.9830 0.9800 0.9740
634.704917 0.9680 0.9630 0.9590 0.9560 0.9480
639.050225 0.9400 0.9270 0.9180 0.9110 0.9020
643.395532 0.8940 0.8830 0.8730 0.8540 0.8360
647.740840 0.8190 0.8010 0.7831 0.7641 0.7451
652.086147 0.7240 0.7010 0.6880 0.6750 0.6461
656.431455 0.6071 0.5651 0.5062 0.4572 0.4301
660.776762 0.4110 0.3910 0.2970 0.2970 0.4029
665.122070 0.4150 0.5018 0.6027 0.7236 0.8146
669.467378 0.8870 0.9040 0.9060 0.9080 0.9130
673.812685 0.9170 0.9180 0.9230 0.9330 0.9400
678.157993 0.9420 0.9490 0.9590 0.9610 0.9680
682.503300 0.9720 0.9780 0.9790 0.9800 0.9820
686.848608 0.9830 0.9830 0.9850 0.9860 0.9890
691.193915 0.9910 0.9930 0.9930 0.9930 0.9940
695.539223 0.9940 0.9950 0.9950 0.9950 0.9970
699.884530 0.9970 0.9970 0.9970 0.9970 0.9970
704.229838 0.9970 0.9950 0.9950 0.9940 0.9930
708.575146 0.9930 0.9930 0.9910 0.9910 0.9910
712.920453 0.9910 0.9900 0.9890 0.9860 0.9830
717.265761 0.9820 0.9820 0.9800 0.9760 0.9710
721.611068 0.9700 0.9660 0.9610 0.9560 0.9470
725.956376 0.9410 0.9400 0.9380 0.9360 0.9300
730.301683 0.9260 0.9250 0.9190 0.9170 0.9150
734.646991 0.9150 0.9110 0.8960 0.8880 0.8810
738.992298 0.8650 0.8530 0.8300 0.8090 0.7821
743.337606 0.7511 0.7161 0.6981 0.6791 0.6382
747.682913 0.5659 0.4970 0.4140 0.3850 0.3550
752.028221 0.2582 0.1293 0.1041 0.0781 0.0611
756.373529 0.0440 0.0320 0.0310 0.0310 0.0400
760.718836 0.1518 0.2597 0.2879 0.3318 0.4545
765.064144 0.5320 0.5720 0.6309 0.7199 0.7400
769.409451 0.7599 0.7630 0.7620 0.7600 0.7481
773.754759 0.7410 0.7280 0.7090 0.7030 0.7030
778.100066 0.7100 0.7250 0.7469 0.7729 0.7889
782.445374 0.7970 0.7980 0.7970 0.7940 0.7900
786.790681 0.7880 0.7880 0.7890 0.7900 0.8000
791.135989 0.8070 0.8130 0.8200 0.8280 0.8280
795.481297 0.8270 0.8240 0.8190 0.8001 0.7811
799.826604 0.7600 0.7390 0.7090 0.6910 0.6720
804.171912 0.6231 0.5612 0.4803 0.4182 0.3762
808.517219 0.3320 0.2970 0.2440 0.1971 0.1900
812.862527 0.1900 0.2179 0.2858 0.3686 0.4327
817.207834 0.5141 0.5670 0.6260 0.7469 0.8009
821.553142 0.8449 0.8600 0.8760 0.8949 0.9099
825.898449 0.9170 0.9250 0.9290 0.9330 0.9360
830.243757 0.9380 0.9380 0.9370 0.9370 0.9360
834.589064 0.9340 0.9340 0.9300 0.9270 0.9260
838.934372 0.9220 0.9170 0.9100 0.8990 0.8950
843.279680 0.8920 0.8770 0.8700 0.8580 0.8540
847.624987 0.8420 0.8340 0.8260 0.8160 0.8130
851.970295 0.8070 0.8020 0.7980 0.7970 0.7960
856.315602 0.7960 0.7940 0.7940 0.7960 0.7980
860.660910 0.8000 0.8040 0.8050 0.8070 0.8070
865.006217 0.8070 0.8050 0.8010 0.7980 0.7940
869.351525 0.7880 0.7740 0.7630 0.7560 0.7470
873.696832 0.7350 0.7141 0.7010 0.6871 0.6641
878.042140 0.6410 0.6050 0.5540 0.4751 0.4700
882.387448 0.4700 0.4899 0.5239 0.5768 0.6049
886.732755 0.6190 0.6200 0.6200 0.6200 0.6140
891.078063 0.6140 0.6190 0.6369 0.6490 0.6629
895.423370 0.6670 0.6690 0.6770 0.6990 0.7250
899.768678 0.7669 0.7790 0.8049 0.8428 0.8649
904.113985 0.8880 0.8960 0.9080 0.9180 0.9250
908.459293 0.9270 0.9290 0.9290 0.9290 0.9290
912.804600 0.9260 0.9220 0.9180 0.9140 0.9070
917.149908 0.9020 0.8960 0.8910 0.8830 0.8730
921.495216 0.8580 0.8390 0.8320 0.8160 0.7970
925.840523 0.7810 0.7730 0.7640 0.7590 0.7540
930.185831 0.7410 0.7390 0.7390 0.7400 0.7410
934.531138 0.7440 0.7450 0.7440 0.7430 0.7400
938.876446 0.7300 0.7250 0.7030 0.6880 0.6730
943.221753 0.6411 0.6051 0.5661 0.5142 0.4702
947.567061 0.4210 0.3700 0.3360 0.2162 0.1491
951.912368 0.1201 0.1110 0.1040 0.0921 0.0781
956.257676 0.0620 0.0400 0.0310 0.0230 0.0170
960.602983 0.0170 0.0210 0.0320 0.0400 0.0549
964.948291 0.1040 0.1340 0.1989 0.2479 0.3009
969.293599 0.3229 0.4636 0.4969 0.5398 0.5579
973.638906 0.5770 0.5840 0.5850 0.5850 0.5880
977.984214 0.5920 0.6050 0.6140 0.6140 0.6110
982.329521 0.5770 0.5760 0.5770 0.5840 0.6050
986.674829 0.6389 0.6749 0.7049 0.7140 0.7170
991.020136 0.7170 0.7170 0.7140 0.7110 0.7100
995.365444 0.7090 0.7020 0.6990 0.6950 0.6870
999.710751 0.6730 0.6500 0.6340 0.6190 0.6110
1004.056059 0.5950 0.5780 0.5461 0.5141 0.4752
1008.401367 0.4470 0.4180 0.3880 0.2662 0.1712
1012.746674 0.1301 0.1071 0.0801 0.0521 0.0361
1017.091982 0.0210 0.0100 0.0090 0.0090 0.0190
1021.437289 0.0330 0.1566 0.1939 0.2249 0.2698
1025.782597 0.3361 0.4250 0.4890 0.5230 0.5689
1030.127904 0.6179 0.6369 0.6729 0.7009 0.7289
1034.473212 0.7470 0.7580 0.7670 0.7770 0.7810
1038.818519 0.7940 0.8050 0.8170 0.8280 0.8340
1043.163827 0.8350 0.8340 0.8310 0.8270 0.8240
1047.509134 0.8190 0.8080 0.7960 0.7701 0.7401
1051.854442 0.7050 0.6910 0.6770 0.6760 0.6770
1056.199750 0.6860 0.6940 0.6970 0.6980 0.6920
1060.545057 0.6870 0.6730 0.6540 0.6460 0.6330
1064.890365 0.6081 0.5881 0.5591 0.5321 0.5161
1069.235672 0.4930 0.4660 0.4340 0.4020 0.3870
1073.580980 0.3700 0.3381 0.3091 0.2821 0.2292
1077.926287 0.2140 0.1870 0.1440 0.1150 0.0990
1082.271595 0.0820 0.0700 0.0570 0.0500 0.0420
1086.616902 0.0330 0.0310 0.0310 0.0290 0.0290
1090.962210 0.0310 0.0360 0.0470 0.0540 0.0540
1095.307518 0.0520 0.0510 0.0500 0.0480 0.0400
1099.652825 0.0310 0.0280 0.0250 0.0250 0.0250
1103.998133 0.0270 0.0290 0.0480 0.0630 0.1299
1108.343440 0.1450 0.1629 0.2367 0.2579 0.3306
1112.688748 0.4000 0.4170 0.4330 0.4790 0.5020
1117.034055 0.5379 0.5689 0.5889 0.6149 0.6369
1121.379363 0.6530 0.6690 0.6770 0.6860 0.7020
1125.724670 0.7130 0.7260 0.7390 0.7430 0.7549
1130.069978 0.7640 0.7740 0.7810 0.7880 0.7960
1134.415285 0.7970 0.8010 0.8130 0.8170 0.8220
1138.760593 0.8320 0.8340 0.8340 0.8320 0.8300
1143.105901 0.8270 0.8200 0.8120 0.7971 0.7811
1147.451208 0.7620 0.7480 0.7330 0.7030 0.6880
1151.796516 0.6720 0.6720 0.6760 0.7089 0.7319
1156.141823 0.7580 0.7790 0.7970 0.8090 0.8220
1160.487131 0.8320 0.8320 0.8350 0.8340 0.8280
1164.832438 0.8200 0.8150 0.8050 0.7960 0.7850
1169.177746 0.7640 0.7391 0.7061 0.6881 0.6711
1173.523053 0.6330 0.5910 0.5081 0.4421 0.3921
1177.868361 0.3411 0.2732 0.2202 0.1871 0.1542
1182.213669 0.1000 0.1010 0.1650 0.2140 0.2370
1186.558976 0.3128 0.4287 0.4978 0.5040 0.5508
1190.904284 0.5650 0.5660 0.5660 0.5650 0.5630
1195.249591 0.5570 0.5510 0.5440 0.5390 0.5310
1199.594899 0.5170 0.5020 0.4860 0.4720 0.4600
1203.940206 0.4470 0.4290 0.4170 0.3991 0.3870
1208.285514 0.3750 0.3510 0.3200 0.2960 0.2501
1212.630821 0.2101 0.1871 0.1521 0.1331 0.1201
1216.976129 0.1160 0.1070 0.1040 0.1050 0.1309
1221.321437 0.1480 0.1679 0.1750 0.1750 0.1730
1225.666744 0.1630 0.1450 0.1220 0.1050 0.1010
1230.012052 0.0970 0.0731 0.0630 0.0630 0.0700
1234.357359 0.1030 0.1270 0.1520 0.1750 0.2020
1238.702667 0.2140 0.2240 0.2290 0.2240 0.1921
1243.047974 0.1680 0.1560 0.1300 0.1150 0.0990
1247.393282 0.0970 0.0960 0.1100 0.1489 0.2217
1251.738589 0.2670 0.3340 0.4190 0.4680 0.5079
1256.083897 0.5759 0.6109 0.6499 0.6819 0.7059
1260.429204 0.7300 0.7520 0.7780 0.7880 0.7960
1264.774512 0.8020 0.8090 0.8190 0.8319 0.8380
1269.119820 0.8530 0.8680 0.8790 0.8910 0.8940
1273.465127 0.8950 0.8980 0.9000 0.9020 0.9030
1277.810435 0.9020 0.9020 0.8960 0.8940 0.8920
1282.155742 0.8870 0.8810 0.8760 0.8720 0.8601
1286.501050 0.8540 0.8450 0.8360 0.8160 0.7930
1290.846357 0.7671 0.7351 0.7101 0.6881 0.6651
1295.191665 0.6140 0.5670 0.5270 0.4481 0.4480
1299.536972 0.4680 0.5059 0.5329 0.5649 0.6008
1303.882280 0.6260 0.7020 0.7430 0.7590 0.7790
1308.227588 0.7940 0.8119 0.8220 0.8359 0.8489
1312.572895 0.8530 0.8550 0.8650 0.8750 0.8800
1316.918203 0.8880 0.8940 0.8960 0.9040 0.9130
1321.263510 0.9150 0.9180 0.9230 0.9260 0.9270
1325.608818 0.9340 0.9340 0.9360 0.9340 0.9340
1329.954125 0.9330 0.9320 0.9300 0.9290 0.9270
1334.299433 0.9290 0.9320 0.9340 0.9340 0.9360
1338.644740 0.9360 0.9370 0.9420 0.9490 0.9510
1342.990048 0.9510 0.9490 0.9480 0.9480 0.9480
1347.335355 0.9480 0.9470 0.9470 0.9450 0.9450
1351.680663 0.9470 0.9470 0.9480 0.9480 0.9480
1356.025971 0.9480 0.9490 0.9570 0.9600 0.9630
1360.371278 0.9640 0.9660 0.9660 0.9660 0.9660
1364.716586 0.9660 0.9630 0.9590 0.9560 0.9520
1369.061893 0.9510 0.9410 0.9370 0.9330 0.9260
1373.407201 0.9150 0.9030 0.8960 0.8940 0.8940
1377.752508 0.8940 0.8910 0.8870 0.8790 0.8750
1382.097816 0.8650 0.8540 0.8510 0.8510 0.8680
1386.443123 0.8840 0.9020 0.9150 0.9270 0.9340
1390.788431 0.9360 0.9360 0.9370 0.9370 0.9400
1395.133739 0.9420 0.9520 0.9560 0.9570 0.9570
1399.479046 0.9570 0.9570 0.9570 0.9550 0.9550
1403.824354 0.9550 0.9550 0.9530 0.9520 0.9510
1408.169661 0.9490 0.9490 0.9450 0.9410 0.9360
1412.514969 0.9340 0.9290 0.9270 0.9270 0.9260
1416.860276 0.9210 0.9070 0.8950 0.8850 0.8750
1421.205584 0.8421 0.8161 0.7931 0.7522 0.7182
1425.550891 0.6829 0.6039 0.4070 0.3730 0.3390
1429.896199 0.3170 0.4377 0.5477 0.6457 0.7476
1434.241507 0.7980 0.8340 0.8580 0.8770 0.8830
1438.586814 0.8880 0.8960 0.9169 0.9180 0.9190
1442.932122 0.9220 0.9270 0.9340 0.9370 0.9410
1447.277429 0.9450 0.9470 0.9490 0.9510 0.9550
1451.622737 0.9550 0.9560 0.9560 0.9560 0.9530
1455.968044 0.9520 0.9520 0.9520 0.9520 0.9520
1460.313352 0.9530 0.9550 0.9550 0.9560 0.9570
1464.658659 0.9600 0.9600 0.9570 0.9570 0.9560
1469.003967 0.9530 0.9510 0.9450 0.9420 0.9410
1473.349274 0.9410 0.9400 0.9380 0.9380 0.9360
1477.694582 0.9360 0.9360 0.9340 0.9340 0.9330
1482.039890 0.9330 0.9320 0.9300 0.9260 0.9250
1486.385197 0.9250 0.9220 0.9190 0.9180 0.9140
1490.730505 0.9080 0.9040 0.9020 0.8980 0.8950
1495.075812 0.8940 0.8850 0.8800 0.8760 0.8750
1499.421120 0.8690 0.8640 0.8570 0.8530 0.8450
1503.766427 0.8360 0.8340 0.8320 0.8260 0.8160
1508.111735 0.8090 0.8070 0.8000 0.7960 0.7831
1512.457042 0.7810 0.7780 0.7730 0.7640 0.7600
1516.802350 0.7540 0.7500 0.7470 0.7440 0.7410
1521.147658 0.7350 0.7290 0.7260 0.7250 0.7200
1525.492965 0.7160 0.7110 0.7090 0.6990 0.6950
1529.838273 0.6900 0.6830 0.6770 0.6690 0.6630
1534.183580 0.6570 0.6480 0.6380 0.6330 0.6181
1538.528888 0.6070 0.6010 0.5890 0.5760 0.5630
1542.874195 0.5520 0.5430 0.5380 0.5250 0.5190
1547.219503 0.5140 0.5130 0.5080 0.5040 0.5000
1551.564810 0.4980 0.5000 0.5000 0.5020 0.5050
1555.910118 0.5130 0.5160 0.5200 0.5270 0.5320
1560.255425 0.5400 0.5500 0.5630 0.5740 0.5770
1564.600733 0.5890 0.5960 0.6070 0.6180 0.6260
1568.946041 0.6340 0.6390 0.6460 0.6520 0.6600
1573.291348 0.6610 0.6650 0.6690 0.6760 0.6770
1577.636656 0.6790 0.6790 0.6800 0.6820 0.6830
1581.981963 0.6880 0.6920 0.6920 0.6950 0.6990
1586.327271 0.7090 0.7100 0.7160 0.7220 0.7280
1590.672578 0.7350 0.7450 0.7480 0.7590 0.7630
1595.017886 0.7770 0.7830 0.7960 0.8020 0.8120
1599.363193 0.8200 0.8340 0.8420 0.8500 0.8570
1603.708501 0.8620 0.8720 0.8790 0.8850 0.8940
1608.053809 0.8990 0.9040 0.9140 0.9170 0.9210
1612.399116 0.9250 0.9290 0.9340 0.9360 0.9370
1616.744424 0.9400 0.9420 0.9440 0.9450 0.9480
1621.089731 0.9510 0.9530 0.9560 0.9560 0.9570
1625.435039 0.9590 0.9590 0.9600 0.9610 0.9630
1629.780346 0.9630 0.9660 0.9670 0.9680 0.9700
1634.125654 0.9700 0.9700 0.9710 0.9710 0.9740
1638.470961 0.9740 0.9740 0.9750 0.9760 0.9780
1642.816269 0.9780 0.9760 0.9780 0.9780 0.9780
1647.161577 0.9780 0.9790 0.9790 0.9800 0.9820
1651.506884 0.9820 0.9800 0.9790 0.9790 0.9790
1655.852192 0.9790 0.9790 0.9790 0.9790 0.9790
1660.197499 0.9790 0.9790 0.9800 0.9800 0.9800
1664.542807 0.9800 0.9800 0.9800 0.9800 0.9790
1668.888114 0.9790 0.9790 0.9760 0.9740 0.9720
1673.233422 0.9710 0.9710 0.9710 0.9710 0.9710
1677.578729 0.9710 0.9710 0.9710 0.9710 0.9720
1681.924037 0.9740 0.9740 0.9750 0.9780 0.9790
1686.269344 0.9800 0.9820 0.9820 0.9820 0.9820
1690.614652 0.9820 0.9820 0.9820 0.9830 0.9830
1694.959960 0.9850 0.9860 0.9870 0.9870 0.9870
1699.305267 0.9870 0.9870 0.9870 0.9870 0.9890
1703.650575 0.9900 0.9900 0.9900 0.9900 0.9890
1707.995882 0.9890 0.9870 0.9870 0.9870 0.9870
1712.341190 0.9870 0.9870 0.9870 0.9870 0.9870
1716.686497 0.9860 0.9860 0.9860 0.9860 0.9850
1721.031805 0.9860 0.9860 0.9870 0.9870 0.9870
1725.377112 0.9870 0.9870 0.9870 0.9860 0.9860
1729.722420 0.9850 0.9830 0.9830 0.9820 0.9800
1734.067728 0.9800 0.9790 0.9780 0.9780 0.9780
1738.413035 0.9780 0.9780 0.9780 0.9780 0.9780
1742.758343 0.9780 0.9780 0.9780 0.9780 0.9790
1747.103650 0.9790 0.9800 0.9800 0.9800 0.9820
1751.448958 0.9820 0.9800 0.9800 0.9800 0.9800
1755.794265 0.9800 0.9800 0.9800 0.9800 0.9790
1760.139573 0.9790 0.9800 0.9800 0.9800 0.9800
1764.484880 0.9800 0.9820 0.9820 0.9830 0.9820
1768.830188 0.9800 0.9790 0.9780 0.9780 0.9780
1773.175495 0.9780 0.9790 0.9790 0.9790 0.9790
1777.520803 0.9800 0.9800 0.9800 0.9800 0.9790
1781.866111 0.9790 0.9790 0.9790 0.9790 0.9790
1786.211418 0.9790 0.9790 0.9790 0.9790 0.9780
1790.556726 0.9780 0.9780 0.9780 0.9760 0.9750
1794.902033 0.9750 0.9760 0.9780 0.9790 0.9790
1799.247341 0.9790 0.9790 0.9780 0.9750 0.9750
1803.592648 0.9750 0.9750 0.9750 0.9760 0.9780
1807.937956 0.9780 0.9780 0.9780 0.9780 0.9780
1812.283263 0.9780 0.9750 0.9750 0.9750 0.9760
1816.628571 0.9750 0.9750 0.9740 0.9740 0.9740
1820.973879 0.9740 0.9740 0.9740 0.9750 0.9750
1825.319186 0.9750 0.9750 0.9750 0.9750 0.9750
1829.664494 0.9750 0.9750 0.9740 0.9740 0.9740
1834.009801 0.9740 0.9720 0.9720 0.9710 0.9710
1838.355109 0.9710 0.9710 0.9700 0.9670 0.9660
1842.700416 0.9640 0.9640 0.9640 0.9660 0.9660
1847.045724 0.9670 0.9670 0.9680 0.9670 0.9670
1851.391031 0.9670 0.9670 0.9670 0.9670 0.9670
1855.736339 0.9670 0.9670 0.9670 0.9670 0.9660
1860.081647 0.9660 0.9660 0.9660 0.9660 0.9660
1864.426954 0.9660 0.9670 0.9680 0.9680 0.9680
1868.772262 0.9680 0.9700 0.9700 0.9710 0.9710
1873.117569 0.9710 0.9710 0.9720 0.9740 0.9740
1877.462877 0.9740 0.9740 0.9740 0.9740 0.9740
1881.808184 0.9740 0.9750 0.9750 0.9760 0.9760
1886.153492 0.9760 0.9760 0.9760 0.9760 0.9760
1890.498799 0.9760 0.9760 0.9780 0.9780 0.9780
1894.844107 0.9780 0.9780 0.9780 0.9780 0.9780
1899.189414 0.9780 0.9750 0.9740 0.9740 0.9740
1903.534722 0.9740 0.9740 0.9740 0.9740 0.9750
1907.880030 0.9750 0.9760 0.9750 0.9790 0.9790
1912.225337 0.9760 0.9760 0.9760 0.9760 0.9780
1916.570645 0.9780 0.9780 0.9790 0.9790 0.9790
1920.915952 0.9790 0.9790 0.9790 0.9800 0.9790
1925.261260 0.9790 0.9800 0.9800 0.9800 0.9790
1929.606567 0.9790 0.9790 0.9780 0.9750 0.9750
1933.951875 0.9750 0.9750 0.9750 0.9760 0.9760
1938.297182 0.9780 0.9780 0.9780 0.9780 0.9780
1942.642490 0.9780 0.9780 0.9780 0.9780 0.9780
1946.987798 0.9780 0.9760 0.9760 0.9760 0.9760
1951.333105 0.9760 0.9760 0.9760 0.9760 0.9760
1955.678413 0.9760 0.9760 0.9760 0.9760 0.9750
1960.023720 0.9750 0.9740 0.9740 0.9720 0.9710
1964.369028 0.9710 0.9710 0.9710 0.9710 0.9710
1968.714335 0.9710 0.9710 0.9700 0.9700 0.9700
1973.059643 0.9710 0.9700 0.9700 0.9680 0.9670
1977.404950 0.9670 0.9660 0.9640 0.9640 0.9630
1981.750258 0.9630 0.9610 0.9590 0.9570 0.9570
1986.095565 0.9570 0.9590 0.9590 0.9590 0.9600
1990.440873 0.9600 0.9600 0.9600 0.9570 0.9470
1994.786181 0.9210 0.9210 0.9399 0.9549 0.9590
1999.131488 0.9640 0.9680 0.9700 0.9720 0.9755
2003.476796 0.9790 0.9795 0.9800 0.9800 0.9800
2007.822103 0.9795 0.9790 0.9790 0.9790 0.9785
2012.167411 0.9780 0.9765 0.9750 0.9750 0.9750
2016.512718 0.9745 0.9740 0.9740 0.9740 0.9730
2020.858026 0.9720 0.9715 0.9710 0.9710 0.9710
2025.203333 0.9710 0.9710 0.9710 0.9710 0.9710
2029.548641 0.9710 0.9715 0.9720 0.9720 0.9720
2033.893949 0.9730 0.9740 0.9740 0.9740 0.9740
2038.239256 0.9740 0.9730 0.9720 0.9720 0.9720
2042.584564 0.9715 0.9710 0.9710 0.9710 0.9710
2046.929871 0.9710 0.9705 0.9700 0.9690 0.9681
2051.275179 0.9675 0.9670 0.9665 0.9660 0.9650
2055.620486 0.9640 0.9640 0.9640 0.9650 0.9660
2059.965794 0.9665 0.9670 0.9675 0.9680 0.9680
2064.311101 0.9680 0.9680 0.9680 0.9675 0.9670
2068.656409 0.9665 0.9660 0.9646 0.9631 0.9616
2073.001717 0.9601 0.9614 0.9629 0.9644 0.9659
2077.347024 0.9665 0.9670 0.9675 0.9680 0.9689
2081.692332 0.9699 0.9709 0.9719 0.9729 0.9739
2086.037639 0.9745 0.9750 0.9764 0.9779 0.9785
2090.382947 0.9790 0.9790 0.9790 0.9785 0.9780
2094.728254 0.9780 0.9780 0.9780 0.9780 0.9771
2099.073562 0.9761 0.9760 0.9760 0.9755 0.9750
2103.418869 0.9745 0.9740 0.9731 0.9721 0.9720
2107.764177 0.9720 0.9715 0.9710 0.9705 0.9700
2112.109484 0.9691 0.9681 0.9675 0.9670 0.9665
2116.454792 0.9660 0.9660 0.9660 0.9646 0.9631
2120.800100 0.9630 0.9630 0.9621 0.9611 0.9601
2125.145407 0.9591 0.9581 0.9571 0.9570 0.9570
2129.490715 0.9570 0.9570 0.9584 0.9599 0.9618
2133.836022 0.9638 0.9653 0.9668 0.9683 0.9698
2138.181330 0.9709 0.9719 0.9720 0.9720 0.9729
2142.526637 0.9739 0.9740 0.9740 0.9740 0.9740
2146.871945 0.9731 0.9721 0.9720 0.9720 0.9716
2151.217252 0.9711 0.9697 0.9682 0.9676 0.9671
2155.562560 0.9670 0.9670 0.9670 0.9670 0.9666
2159.907868 0.9661 0.9660 0.9660 0.9660 0.9660
2164.253175 0.9660 0.9660 0.9660 0.9660 0.9660
2168.598483 0.9660 0.9660 0.9660 0.9651 0.9641
2172.943790 0.9627 0.9612 0.9601 0.9591 0.9590
2177.289098 0.9590 0.9590 0.9590 0.9581 0.9571
2181.634405 0.9570 0.9570 0.9579 0.9589 0.9590
2185.979713 0.9590 0.9590 0.9590 0.9599 0.9609
2190.325020 0.9610 0.9610 0.9619 0.9629 0.9630
2194.670328 0.9630 0.9630 0.9630 0.9630 0.9630
2199.015635 0.9621 0.9611 0.9606 0.9601 0.9596
