##TITLE=SEMICARBAZIDE, 4-METHYL-
##JCAMP-DX=4.24
##DATA TYPE=INFRARED SPECTRUM
##CLASS=COBLENTZ III
##ORIGIN=SOUTHERN RESEARCH INST.
##OWNER=COBLENTZ SOCIETY
Collection (C) 2018 copyright by the U.S. Secretary of Commerce
on behalf of the United States of America. All rights reserved.
##DATE=1963/09/10
##NAMES=N-methylhydrazinecarboxamide
##CAS REGISTRY NO=17696-95-6
##MOLFORM=C2 H7 N3 O
##MP=109 C
##SOURCE REFERENCE=COBLENTZ NO. 9910
##$NIST SOURCE=COBLENTZ
##$NIST IMAGE=cob9910
##SPECTROMETER/DATA SYSTEM=PERKIN-ELMER 221 (GRATING)
##INSTRUMENT PARAMETERS=FILTER CHANGES AT 2490, 980 CM^-^1, GRATING FOR 4000-1428 CM^-^1, NaCl PRISM FOR 1428-650 CM^-^1
##STATE=SOLID (0.7 mg / 500 mg KBr DISC)
##SAMPLING PROCEDURE=TRANSMISSION
##RESOLUTION=4
##DATA PROCESSING=DIGITIZED BY NIST FROM HARD COPY
##XUNITS=1/CM
##YUNITS=TRANSMITTANCE
##XFACTOR=1.000000
##YFACTOR=1
##DELTAX=001.667625
##FIRSTX=606.613
##LASTX=4010.24
##FIRSTY=0.442
##MAXX=4010.24
##MINX=606.613
##MAXY=0.788
##MINY=0.123
##NPOINTS=2042
##XYDATA=(X++(Y..Y))
606.613000 0.4420 0.4420 0.4430 0.4430 0.4430
614.955213 0.4430 0.4440 0.4440 0.4460 0.4470
623.289000 0.4500 0.4540 0.4640 0.4640 0.4680
631.631213 0.4690 0.4730 0.4790 0.4840 0.4890
639.966000 0.4950 0.5000 0.5040 0.5080 0.5110
648.308213 0.5140 0.5150 0.5170 0.5170 0.5160
656.642000 0.5140 0.5110 0.5070 0.5030 0.4980
664.984213 0.4930 0.4870 0.4760 0.4680 0.4620
673.318000 0.4580 0.4560 0.4550 0.4550 0.4550
681.660213 0.4560 0.4560 0.4580 0.4590 0.4620
689.994000 0.4640 0.4660 0.4660 0.4680 0.4700
698.336213 0.4720 0.4850 0.4920 0.4970 0.5020
706.670000 0.5060 0.5110 0.5150 0.5190 0.5230
715.012213 0.5280 0.5330 0.5380 0.5540 0.5570
723.347000 0.5660 0.5680 0.5700 0.5720 0.5730
731.689213 0.5750 0.5750 0.5790 0.5840 0.5870
740.023000 0.5880 0.5890 0.5900 0.5900 0.5910
748.365213 0.5910 0.5910 0.5900 0.5900 0.5880
756.699000 0.5860 0.5840 0.5830 0.5790 0.5750
765.041213 0.5700 0.5670 0.5650 0.5650 0.5650
773.375000 0.5680 0.5780 0.5910 0.6030 0.6220
781.717213 0.6510 0.6710 0.6850 0.6920 0.6960
790.052000 0.6970 0.6980 0.7040 0.7080 0.7140
798.394213 0.7180 0.7210 0.7220 0.7230 0.7280
806.728000 0.7320 0.7370 0.7410 0.7450 0.7480
815.070213 0.7520 0.7560 0.7590 0.7620 0.7640
823.404000 0.7670 0.7680 0.7700 0.7720 0.7770
831.746213 0.7770 0.7790 0.7800 0.7820 0.7820
840.081000 0.7820 0.7830 0.7840 0.7850 0.7860
848.423213 0.7860 0.7870 0.7870 0.7880 0.7880
856.757000 0.7880 0.7880 0.7870 0.7870 0.7870
865.099213 0.7870 0.7870 0.7870 0.7860 0.7830
873.433000 0.7820 0.7820 0.7780 0.7750 0.7730
881.775213 0.7710 0.7670 0.7620 0.7610 0.7590
890.109000 0.7550 0.7480 0.7410 0.7340 0.7310
898.451213 0.7300 0.7300 0.7300 0.7300 0.7290
906.786000 0.7290 0.7290 0.7280 0.7280 0.7270
915.128213 0.7250 0.7230 0.7220 0.7190 0.7170
923.462000 0.7130 0.7100 0.7070 0.7020 0.6980
931.804213 0.6930 0.6890 0.6830 0.6780 0.6720
940.138000 0.6660 0.6600 0.6530 0.6460 0.6390
948.480213 0.6310 0.6230 0.6160 0.6060 0.6040
956.814000 0.5960 0.5890 0.5720 0.5600 0.5540
965.156213 0.5480 0.5300 0.5190 0.5050 0.5030
973.491000 0.5000 0.4980 0.4970 0.4970 0.4980
981.833213 0.4990 0.5010 0.5080 0.5160 0.5580
990.167000 0.5940 0.5950 0.5950 0.5950 0.5950
998.509213 0.5980 0.6130 0.6260 0.6410 0.6420
1006.843000 0.6440 0.6440 0.6440 0.6420 0.6410
1015.185213 0.6380 0.6360 0.6360 0.6220 0.6050
1023.519000 0.5840 0.5620 0.5500 0.5390 0.5150
1031.861213 0.4940 0.4760 0.4610 0.4380 0.4360
1040.196000 0.4380 0.4510 0.4680 0.4860 0.5050
1048.538213 0.5250 0.5670 0.5870 0.6060 0.6240
1056.872000 0.6410 0.6540 0.6650 0.6720 0.6790
1065.214213 0.6840 0.6850 0.6860 0.6860 0.6860
1073.548000 0.6850 0.6840 0.6840 0.6810 0.6790
1081.890213 0.6760 0.6740 0.6710 0.6660 0.6600
1090.224000 0.6540 0.6490 0.6430 0.6380 0.6200
1098.566213 0.6060 0.5910 0.5780 0.5560 0.5460
1106.901000 0.5350 0.5150 0.5040 0.4960 0.4940
1115.243213 0.4940 0.4950 0.5040 0.5110 0.5200
1123.577000 0.5640 0.5770 0.5790 0.5810 0.5800
1131.919213 0.5740 0.5660 0.5640 0.5590 0.5550
1140.253000 0.5500 0.5450 0.5300 0.5110 0.4910
1148.595213 0.4710 0.4540 0.4390 0.4290 0.4180
1156.929000 0.4150 0.4170 0.4200 0.4240 0.4270
1165.271213 0.4270 0.4180 0.4120 0.3990 0.3900
1173.605000 0.3800 0.3700 0.3640 0.3640 0.3670
1181.947213 0.3730 0.3810 0.3920 0.4070 0.4240
1190.282000 0.4430 0.4640 0.4850 0.5080 0.5510
1198.624213 0.5710 0.5900 0.6050 0.6280 0.6300
1206.958000 0.6340 0.6410 0.6480 0.6520 0.6550
1215.300213 0.6590 0.6630 0.6640 0.6640 0.6640
1223.634000 0.6640 0.6630 0.6630 0.6620 0.6610
1231.976213 0.6610 0.6610 0.6600 0.6590 0.6570
1240.311000 0.6560 0.6550 0.6540 0.6530 0.6510
1248.653213 0.6510 0.6470 0.6410 0.6350 0.6290
1256.987000 0.6240 0.6210 0.6210 0.6160 0.6100
1265.329213 0.6030 0.5970 0.5910 0.5850 0.5790
1273.663000 0.5730 0.5660 0.5610 0.5550 0.5500
1282.005213 0.5470 0.5450 0.5390 0.5340 0.5300
1290.339000 0.5250 0.5210 0.5180 0.5150 0.5110
1298.681213 0.5090 0.5050 0.5040 0.5010 0.4990
1307.016000 0.4970 0.4940 0.4790 0.4640 0.4490
1315.358213 0.4320 0.4140 0.3910 0.3640 0.3430
1323.692000 0.3230 0.3210 0.3210 0.3270 0.3330
1332.034213 0.3400 0.3460 0.3570 0.3760 0.3980
1340.368000 0.4230 0.4440 0.4590 0.4640 0.4710
1348.710213 0.4740 0.4740 0.4760 0.4760 0.4780
1357.044000 0.4780 0.4800 0.4830 0.4850 0.4880
1365.386213 0.4900 0.4920 0.4920 0.4910 0.4910
1373.721000 0.4890 0.4870 0.4830 0.4740 0.4610
1382.063213 0.4540 0.4480 0.4420 0.4350 0.4290
1390.397000 0.4120 0.4070 0.3880 0.3870 0.3660
1398.739213 0.3460 0.3290 0.3200 0.3100 0.2930
1407.073000 0.2920 0.2890 0.2870 0.2870 0.2870
1415.415213 0.2870 0.3550 0.4220 0.4490 0.4830
1423.749000 0.5160 0.5190 0.5200 0.5210 0.5210
1432.091213 0.5180 0.5170 0.5090 0.5000 0.4910
1440.426000 0.4760 0.4730 0.4660 0.4600 0.4530
1448.768213 0.4480 0.4440 0.4410 0.4440 0.4450
1457.102000 0.4460 0.4460 0.4460 0.4460 0.4440
1465.444213 0.4420 0.4380 0.4340 0.4290 0.4240
1473.778000 0.4190 0.4140 0.4090 0.4050 0.4020
1482.120213 0.3970 0.3920 0.3880 0.3830 0.3780
1490.454000 0.3740 0.3710 0.3670 0.3630 0.3600
1498.796213 0.3580 0.3550 0.3520 0.3490 0.3480
1507.130000 0.3470 0.3440 0.3430 0.3360 0.3330
1515.472213 0.3300 0.3270 0.3240 0.3210 0.3130
1523.807000 0.3030 0.2910 0.2810 0.2720 0.2630
1532.149213 0.2560 0.2470 0.2390 0.2300 0.2180
1540.483000 0.2050 0.1920 0.1910 0.1840 0.1760
1548.825213 0.1690 0.1620 0.1550 0.1470 0.1390
1557.159000 0.1350 0.1340 0.1310 0.1300 0.1290
1565.501213 0.1290 0.1300 0.1320 0.1340 0.1370
1573.836000 0.1410 0.1490 0.1560 0.1610 0.1810
1582.178213 0.1810 0.1930 0.2050 0.2170 0.2210
1590.512000 0.2250 0.2290 0.2340 0.2370 0.2420
1598.854213 0.2420 0.2420 0.2420 0.2420 0.2410
1607.188000 0.2400 0.2390 0.2360 0.2350 0.2280
1615.530213 0.2220 0.2170 0.2110 0.2050 0.1990
1623.864000 0.1920 0.1860 0.1780 0.1690 0.1660
1632.206213 0.1640 0.1620 0.1610 0.1620 0.1630
1640.541000 0.1640 0.1650 0.1660 0.1660 0.1650
1648.883213 0.1640 0.1630 0.1610 0.1600 0.1590
1657.217000 0.1500 0.1410 0.1340 0.1260 0.1240
1665.559213 0.1230 0.1230 0.1230 0.1240 0.1260
1673.893000 0.1300 0.1340 0.1380 0.1410 0.1480
1682.235213 0.1530 0.1590 0.1650 0.1710 0.1810
1690.569000 0.1900 0.2010 0.2120 0.2220 0.2320
1698.911213 0.2420 0.2510 0.2570 0.2620 0.2680
1707.245000 0.2740 0.2810 0.2880 0.2960 0.3040
1715.587213 0.3130 0.3300 0.3390 0.3480 0.3580
1723.922000 0.3670 0.3750 0.3830 0.3910 0.3980
1732.264213 0.4050 0.4110 0.4160 0.4200 0.4240
1740.598000 0.4270 0.4310 0.4360 0.4410 0.4470
1748.940213 0.4530 0.4590 0.4640 0.4690 0.4740
1757.274000 0.4770 0.4790 0.4840 0.4890 0.4940
1765.616213 0.4980 0.5010 0.5050 0.5080 0.5100
1773.951000 0.5130 0.5150 0.5180 0.5200 0.5220
1782.293213 0.5230 0.5270 0.5310 0.5350 0.5370
1790.627000 0.5400 0.5430 0.5450 0.5470 0.5480
1798.969213 0.5500 0.5530 0.5560 0.5610 0.5650
1807.303000 0.5700 0.5740 0.5760 0.5780 0.5800
1815.645213 0.5810 0.5830 0.5850 0.5860 0.5880
1823.979000 0.5900 0.5920 0.5940 0.5960 0.5980
1832.321213 0.6010 0.6030 0.6050 0.6060 0.6090
1840.656000 0.6110 0.6130 0.6150 0.6160 0.6180
1848.998213 0.6200 0.6210 0.6240 0.6260 0.6290
1857.332000 0.6310 0.6330 0.6360 0.6370 0.6390
1865.674213 0.6410 0.6420 0.6430 0.6450 0.6460
1874.008000 0.6460 0.6470 0.6490 0.6500 0.6510
1882.350213 0.6540 0.6560 0.6570 0.6590 0.6600
1890.684000 0.6600 0.6600 0.6610 0.6610 0.6610
1899.026213 0.6620 0.6630 0.6640 0.6640 0.6650
1907.361000 0.6660 0.6660 0.6670 0.6690 0.6700
1915.703213 0.6710 0.6710 0.6740 0.6750 0.6760
1924.037000 0.6780 0.6800 0.6810 0.6820 0.6840
1932.379213 0.6860 0.6860 0.6880 0.6900 0.6910
1940.713000 0.6910 0.6930 0.6940 0.6960 0.6960
1949.055213 0.6980 0.6990 0.7000 0.7010 0.7020
1957.389000 0.7020 0.7020 0.7050 0.7060 0.7070
1965.731213 0.7080 0.7090 0.7090 0.7100 0.7100
1974.066000 0.7110 0.7110 0.7120 0.7120 0.7120
1982.408213 0.7120 0.7120 0.7130 0.7130 0.7140
1990.742000 0.7140 0.7140 0.7140 0.7150 0.7150
1999.084213 0.7160 0.7160 0.7170 0.7170 0.7170
2007.418000 0.7180 0.7180 0.7190 0.7190 0.7200
2015.760213 0.7210 0.7220 0.7220 0.7220 0.7220
2024.094000 0.7220 0.7220 0.7230 0.7230 0.7240
2032.436213 0.7240 0.7250 0.7260 0.7260 0.7270
2040.771000 0.7270 0.7270 0.7270 0.7270 0.7270
2049.113213 0.7270 0.7270 0.7280 0.7290 0.7290
2057.447000 0.7290 0.7290 0.7290 0.7290 0.7290
2065.789213 0.7290 0.7300 0.7300 0.7320 0.7320
2074.123000 0.7330 0.7350 0.7370 0.7380 0.7390
2082.465213 0.7400 0.7410 0.7420 0.7420 0.7420
2090.799000 0.7430 0.7430 0.7440 0.7440 0.7450
2099.141213 0.7450 0.7450 0.7460 0.7460 0.7460
2107.476000 0.7460 0.7460 0.7460 0.7460 0.7460
2115.818213 0.7470 0.7470 0.7470 0.7470 0.7480
2124.152000 0.7480 0.7480 0.7480 0.7490 0.7490
2132.494213 0.7490 0.7500 0.7510 0.7520 0.7520
2140.828000 0.7530 0.7540 0.7550 0.7570 0.7570
2149.170213 0.7580 0.7590 0.7590 0.7590 0.7590
2157.504000 0.7590 0.7590 0.7600 0.7600 0.7610
2165.846213 0.7610 0.7610 0.7610 0.7610 0.7620
2174.181000 0.7620 0.7620 0.7620 0.7620 0.7620
2182.523213 0.7620 0.7620 0.7620 0.7620 0.7620
2190.857000 0.7620 0.7620 0.7620 0.7620 0.7620
2199.199213 0.7620 0.7620 0.7620 0.7620 0.7620
2207.533000 0.7620 0.7620 0.7620 0.7620 0.7620
2215.875213 0.7620 0.7620 0.7620 0.7620 0.7620
2224.209000 0.7620 0.7620 0.7620 0.7620 0.7620
2232.551213 0.7620 0.7620 0.7620 0.7620 0.7620
2240.885000 0.7620 0.7620 0.7620 0.7620 0.7620
2249.227213 0.7620 0.7620 0.7620 0.7620 0.7620
2257.562000 0.7620 0.7620 0.7620 0.7620 0.7620
2265.904213 0.7620 0.7620 0.7610 0.7610 0.7610
2274.238000 0.7610 0.7610 0.7610 0.7600 0.7600
2282.580213 0.7600 0.7600 0.7600 0.7590 0.7590
2290.914000 0.7590 0.7590 0.7590 0.7590 0.7590
2299.256213 0.7590 0.7580 0.7580 0.7580 0.7580
2307.591000 0.7580 0.7580 0.7580 0.7580 0.7580
2315.933213 0.7580 0.7570 0.7570 0.7570 0.7570
2324.267000 0.7570 0.7570 0.7560 0.7560 0.7560
2332.609213 0.7550 0.7550 0.7540 0.7540 0.7530
2340.943000 0.7530 0.7530 0.7530 0.7530 0.7530
2349.285213 0.7530 0.7540 0.7540 0.7550 0.7550
2357.619000 0.7560 0.7560 0.7560 0.7570 0.7570
2365.961213 0.7570 0.7570 0.7580 0.7590 0.7590
2374.296000 0.7590 0.7600 0.7600 0.7600 0.7610
2382.638213 0.7620 0.7630 0.7640 0.7650 0.7650
2390.972000 0.7660 0.7660 0.7660 0.7660 0.7660
2399.314213 0.7660 0.7660 0.7660 0.7650 0.7650
2407.648000 0.7650 0.7650 0.7640 0.7640 0.7640
2415.990213 0.7640 0.7630 0.7620 0.7620 0.7620
2424.324000 0.7620 0.7610 0.7610 0.7600 0.7590
2432.666213 0.7590 0.7590 0.7580 0.7570 0.7570
2441.000000 0.7570 0.7560 0.7560 0.7560 0.7560
2449.342213 0.7560 0.7560 0.7550 0.7550 0.7550
2457.677000 0.7550 0.7550 0.7550 0.7550 0.7550
2466.019213 0.7550 0.7550 0.7550 0.7550 0.7550
2474.353000 0.7550 0.7560 0.7560 0.7560 0.7560
2482.695213 0.7560 0.7560 0.7560 0.7560 0.7560
2491.029000 0.7570 0.7570 0.7570 0.7570 0.7570
2499.371213 0.7570 0.7570 0.7570 0.7570 0.7570
2507.706000 0.7570 0.7570 0.7570 0.7570 0.7570
2516.048213 0.7570 0.7570 0.7570 0.7570 0.7570
2524.382000 0.7570 0.7570 0.7570 0.7570 0.7570
2532.724213 0.7570 0.7570 0.7570 0.7560 0.7560
2541.058000 0.7560 0.7560 0.7560 0.7560 0.7560
2549.400213 0.7560 0.7560 0.7560 0.7560 0.7560
2557.734000 0.7560 0.7560 0.7560 0.7560 0.7560
2566.076213 0.7560 0.7550 0.7550 0.7550 0.7550
2574.411000 0.7550 0.7550 0.7550 0.7550 0.7550
2582.753213 0.7550 0.7550 0.7550 0.7550 0.7550
2591.087000 0.7550 0.7540 0.7540 0.7540 0.7540
2599.429213 0.7540 0.7540 0.7540 0.7540 0.7540
2607.763000 0.7540 0.7540 0.7540 0.7540 0.7540
2616.105213 0.7540 0.7540 0.7540 0.7540 0.7540
2624.439000 0.7540 0.7540 0.7540 0.7540 0.7540
2632.781213 0.7540 0.7530 0.7530 0.7530 0.7530
2641.115000 0.7520 0.7520 0.7520 0.7520 0.7520
2649.457213 0.7510 0.7500 0.7490 0.7470 0.7440
2657.792000 0.7420 0.7420 0.7410 0.7390 0.7380
2666.134213 0.7380 0.7370 0.7370 0.7360 0.7360
2674.468000 0.7350 0.7350 0.7340 0.7340 0.7330
2682.810213 0.7320 0.7320 0.7320 0.7310 0.7310
2691.144000 0.7300 0.7290 0.7290 0.7280 0.7280
2699.486213 0.7270 0.7270 0.7260 0.7250 0.7240
2707.821000 0.7220 0.7220 0.7210 0.7210 0.7200
2716.163213 0.7200 0.7190 0.7190 0.7180 0.7180
2724.497000 0.7170 0.7170 0.7160 0.7160 0.7150
2732.839213 0.7150 0.7140 0.7130 0.7130 0.7120
2741.173000 0.7120 0.7120 0.7100 0.7090 0.7080
2749.515213 0.7070 0.7070 0.7060 0.7050 0.7040
2757.849000 0.7020 0.7000 0.6960 0.6930 0.6900
2766.191213 0.6870 0.6850 0.6820 0.6820 0.6810
2774.526000 0.6790 0.6770 0.6750 0.6720 0.6700
2782.868213 0.6670 0.6650 0.6620 0.6600 0.6560
2791.202000 0.6540 0.6520 0.6500 0.6480 0.6460
2799.544213 0.6460 0.6450 0.6440 0.6440 0.6430
2807.878000 0.6430 0.6420 0.6420 0.6420 0.6420
2816.220213 0.6420 0.6430 0.6440 0.6440 0.6460
2824.554000 0.6460 0.6460 0.6460 0.6450 0.6440
2832.896213 0.6430 0.6410 0.6390 0.6360 0.6320
2841.230000 0.6290 0.6250 0.6210 0.6160 0.6110
2849.572213 0.6060 0.6000 0.5940 0.5880 0.5810
2857.907000 0.5750 0.5690 0.5620 0.5550 0.5500
2866.249213 0.5460 0.5430 0.5360 0.5300 0.5240
2874.583000 0.5170 0.5110 0.5050 0.5000 0.4940
2882.925213 0.4890 0.4880 0.4870 0.4860 0.4860
2891.259000 0.4860 0.4850 0.4850 0.4850 0.4840
2899.601213 0.4840 0.4840 0.4790 0.4740 0.4700
2907.936000 0.4640 0.4590 0.4540 0.4510 0.4500
2916.278213 0.4490 0.4490 0.4480 0.4480 0.4480
2924.612000 0.4470 0.4470 0.4460 0.4440 0.4400
2932.954213 0.4400 0.4380 0.4350 0.4340 0.4310
2941.288000 0.4280 0.4250 0.4230 0.4200 0.4180
2949.630213 0.4150 0.4140 0.4130 0.4130 0.4130
2957.964000 0.4140 0.4140 0.4180 0.4240 0.4330
2966.306213 0.4430 0.4510 0.4630 0.4720 0.4790
2974.641000 0.4850 0.4900 0.4940 0.4960 0.4990
2982.983213 0.5000 0.5000 0.5010 0.5010 0.5020
2991.317000 0.5020 0.5020 0.5030 0.5030 0.5030
2999.659213 0.5040 0.5040 0.5050 0.5050 0.5050
3007.993000 0.5060 0.5070 0.5070 0.5080 0.5080
3016.335213 0.5080 0.5080 0.5080 0.5080 0.5080
3024.669000 0.5080 0.5080 0.5080 0.5080 0.5070
3033.011213 0.5070 0.5070 0.5070 0.5070 0.5070
3041.346000 0.5060 0.5050 0.5030 0.5020 0.4990
3049.688213 0.4960 0.4930 0.4910 0.4890 0.4890
3058.022000 0.4890 0.4860 0.4840 0.4820 0.4790
3066.364213 0.4780 0.4760 0.4750 0.4750 0.4680
3074.698000 0.4660 0.4650 0.4620 0.4600 0.4590
3083.040213 0.4540 0.4500 0.4480 0.4450 0.4440
3091.374000 0.4440 0.4430 0.4420 0.4420 0.4410
3099.716213 0.4410 0.4420 0.4430 0.4430 0.4440
3108.051000 0.4460 0.4470 0.4490 0.4490 0.4510
3116.393213 0.4520 0.4520 0.4520 0.4540 0.4540
3124.727000 0.4540 0.4540 0.4540 0.4540 0.4510
3133.069213 0.4500 0.4490 0.4480 0.4470 0.4460
3141.403000 0.4440 0.4410 0.4390 0.4350 0.4320
3149.745213 0.4290 0.4260 0.4240 0.4210 0.4190
3158.079000 0.4190 0.4110 0.4040 0.3980 0.3910
3166.421213 0.3850 0.3790 0.3740 0.3680 0.3640
3174.756000 0.3590 0.3550 0.3510 0.3470 0.3430
3183.098213 0.3390 0.3360 0.3330 0.3290 0.3250
3191.432000 0.3230 0.3220 0.3180 0.3180 0.3150
3199.774213 0.3110 0.3060 0.3010 0.2960 0.2910
3208.108000 0.2860 0.2820 0.2790 0.2770 0.2770
3216.450213 0.2750 0.2730 0.2730 0.2720 0.2720
3224.784000 0.2710 0.2700 0.2690 0.2680 0.2670
3233.126213 0.2670 0.2660 0.2650 0.2630 0.2620
3241.461000 0.2600 0.2570 0.2550 0.2520 0.2500
3249.803213 0.2470 0.2430 0.2400 0.2370 0.2320
3258.137000 0.2270 0.2220 0.2180 0.2160 0.2130
3266.479213 0.2110 0.2100 0.2090 0.2080 0.2070
3274.813000 0.2070 0.2060 0.2040 0.2020 0.2000
3283.155213 0.1970 0.1940 0.1890 0.1830 0.1770
3291.489000 0.1710 0.1660 0.1610 0.1560 0.1520
3299.831213 0.1490 0.1460 0.1430 0.1410 0.1390
3308.166000 0.1370 0.1370 0.1360 0.1360 0.1360
3316.508213 0.1370 0.1380 0.1400 0.1420 0.1460
3324.842000 0.1500 0.1540 0.1560 0.1590 0.1610
3333.184213 0.1650 0.1710 0.1770 0.1840 0.1890
3341.518000 0.1950 0.2010 0.2020 0.2020 0.2020
3349.860213 0.2010 0.2010 0.2000 0.2000 0.1990
3358.194000 0.1990 0.1980 0.1980 0.1980 0.1990
3366.536213 0.2000 0.2020 0.2050 0.2120 0.2170
3374.871000 0.2220 0.2270 0.2320 0.2380 0.2430
3383.213213 0.2500 0.2570 0.2600 0.2640 0.2670
3391.547000 0.2720 0.2760 0.2800 0.2840 0.2880
3399.889213 0.2930 0.2970 0.3030 0.3070 0.3120
3408.223000 0.3160 0.3250 0.3290 0.3330 0.3380
3416.565213 0.3410 0.3450 0.3480 0.3510 0.3520
3424.899000 0.3530 0.3580 0.3610 0.3640 0.3730
3433.241213 0.3780 0.3820 0.3850 0.3890 0.3930
3441.576000 0.3970 0.4000 0.4030 0.4040 0.4040
3449.918213 0.4040 0.4060 0.4080 0.4110 0.4140
3458.252000 0.4190 0.4230 0.4280 0.4330 0.4380
3466.594213 0.4430 0.4480 0.4500 0.4530 0.4540
3474.928000 0.4550 0.4550 0.4560 0.4560 0.4570
3483.270213 0.4590 0.4600 0.4630 0.4640 0.4640
3491.604000 0.4660 0.4680 0.4690 0.4710 0.4740
3499.946213 0.4760 0.4780 0.4800 0.4830 0.4850
3508.281000 0.4880 0.4890 0.4910 0.4930 0.4950
3516.623213 0.5000 0.5020 0.5050 0.5070 0.5100
3524.957000 0.5110 0.5130 0.5140 0.5150 0.5160
3533.299213 0.5170 0.5180 0.5190 0.5190 0.5200
3541.633000 0.5200 0.5210 0.5220 0.5230 0.5230
3549.975213 0.5240 0.5240 0.5250 0.5250 0.5260
3558.309000 0.5280 0.5300 0.5340 0.5350 0.5360
3566.651213 0.5370 0.5380 0.5380 0.5400 0.5410
3574.986000 0.5420 0.5430 0.5450 0.5500 0.5520
3583.328213 0.5550 0.5590 0.5600 0.5610 0.5620
3591.662000 0.5630 0.5650 0.5650 0.5670 0.5680
3600.004213 0.5700 0.5720 0.5750 0.5750 0.5780
3608.338000 0.5790 0.5800 0.5800 0.5810 0.5810
3616.680213 0.5820 0.5830 0.5840 0.5860 0.5890
3625.014000 0.5900 0.5930 0.5950 0.5970 0.5990
3633.356213 0.5990 0.6000 0.6000 0.6000 0.6000
3641.691000 0.6010 0.6010 0.6010 0.6010 0.6010
3650.033213 0.6020 0.6020 0.6030 0.6030 0.6040
3658.367000 0.6050 0.6060 0.6060 0.6060 0.6060
3666.709213 0.6070 0.6070 0.6070 0.6070 0.6060
3675.043000 0.6060 0.6070 0.6090 0.6110 0.6130
3683.385213 0.6160 0.6180 0.6210 0.6210 0.6210
3691.719000 0.6220 0.6230 0.6230 0.6230 0.6230
3700.061213 0.6240 0.6240 0.6240 0.6250 0.6250
3708.396000 0.6250 0.6250 0.6250 0.6260 0.6260
3716.738213 0.6260 0.6260 0.6260 0.6260 0.6260
3725.072000 0.6260 0.6260 0.6260 0.6260 0.6260
3733.414213 0.6260 0.6270 0.6270 0.6280 0.6280
3741.748000 0.6290 0.6290 0.6300 0.6300 0.6300
3750.090213 0.6310 0.6310 0.6310 0.6310 0.6320
3758.424000 0.6320 0.6330 0.6330 0.6340 0.6340
3766.766213 0.6350 0.6360 0.6360 0.6360 0.6360
3775.101000 0.6360 0.6360 0.6360 0.6360 0.6360
3783.443213 0.6360 0.6360 0.6370 0.6370 0.6370
3791.777000 0.6370 0.6370 0.6370 0.6370 0.6370
3800.119213 0.6370 0.6370 0.6370 0.6370 0.6370
3808.453000 0.6370 0.6370 0.6370 0.6370 0.6370
3816.795213 0.6380 0.6380 0.6380 0.6380 0.6380
3825.129000 0.6380 0.6380 0.6380 0.6380 0.6380
3833.471213 0.6380 0.6380 0.6380 0.6380 0.6380
3841.806000 0.6380 0.6380 0.6380 0.6380 0.6380
3850.148213 0.6380 0.6380 0.6380 0.6380 0.6380
3858.482000 0.6380 0.6380 0.6380 0.6380 0.6380
3866.824213 0.6380 0.6380 0.6380 0.6380 0.6380
3875.158000 0.6380 0.6380 0.6380 0.6380 0.6390
3883.500213 0.6390 0.6390 0.6390 0.6380 0.6380
3891.834000 0.6380 0.6380 0.6380 0.6380 0.6380
3900.176213 0.6380 0.6380 0.6380 0.6380 0.6380
3908.511000 0.6380 0.6380 0.6380 0.6380 0.6380
3916.853213 0.6380 0.6380 0.6380 0.6380 0.6380
3925.187000 0.6380 0.6380 0.6380 0.6380 0.6380
3933.529213 0.6380 0.6380 0.6380 0.6380 0.6380
3941.863000 0.6380 0.6380 0.6380 0.6380 0.6380
3950.205213 0.6380 0.6380 0.6380 0.6380 0.6380
3958.539000 0.6380 0.6380 0.6380 0.6380 0.6380
3966.881213 0.6380 0.6380 0.6380 0.6380 0.6380
