##TITLE=ETHENE, 1-BROMO-1-CHLORO-
##JCAMP-DX=4.24
##DATA TYPE=INFRARED SPECTRUM
##CLASS=COBLENTZ
##ORIGIN=DOW CHEMICAL COMPANY
##OWNER=COBLENTZ SOCIETY
Collection (C) 2018 copyright by the U.S. Secretary of Commerce
on behalf of the United States of America. All rights reserved.
##DATE=1975/06/18
##NAMES=1-bromo-1-chloroethylene
##CAS REGISTRY NO=17759-85-2
##MOLFORM=C2 H2 Br Cl
##SOURCE REFERENCE=COBLENTZ NO. 10484
##$NIST SOURCE=COBLENTZ
##$NIST IMAGE=cob10484
##SPECTROMETER/DATA SYSTEM=BECKMAN IR-9 (GRATING)
##INSTRUMENT PARAMETERS=ORDER CHANGES AT 670, 1200, 2000 CM^-^1
##STATE=GAS (10 mmHg DILUTED TO A TOTAL PRESSURE OF 600 mmHg WITH N2)
##PATH LENGTH=10 CM CELL
##SAMPLING PROCEDURE=TRANSMISSION
##RESOLUTION=4
##DATA PROCESSING=DIGITIZED BY NIST FROM HARD COPY (FROM TWO SEGMENTS)
##XUNITS=1/CM
##YUNITS=TRANSMITTANCE
##XFACTOR=1.000000
##YFACTOR=1
##DELTAX=0.876682
##FIRSTX=390.415
##LASTX=3798.95
##FIRSTY=0.615
##MAXX=3798.95
##MINX=390.415
##MAXY=0.998
##MINY=0.05
##NPOINTS=3889
##XYDATA=(X++(Y..Y))
390.415000 0.6150 0.6120 0.6100 0.6090 0.6060
394.798409 0.6050 0.6040 0.6020 0.6000 0.5970
399.181819 0.5950 0.5930 0.5910 0.5900 0.5900
403.565228 0.5900 0.5890 0.5890 0.5890 0.5890
407.948638 0.5890 0.5890 0.5890 0.5890 0.5890
412.332047 0.5890 0.5890 0.5890 0.5890 0.5890
416.715457 0.5890 0.5890 0.5900 0.5910 0.5980
421.098866 0.6080 0.6130 0.6190 0.6210 0.6190
425.482276 0.5910 0.5600 0.5280 0.5280 0.6388
429.865685 0.6600 0.6610 0.6680 0.6760 0.6800
434.249094 0.6860 0.6900 0.6940 0.6970 0.7050
438.632504 0.7120 0.7200 0.7260 0.7320 0.7410
443.015913 0.7470 0.7540 0.7630 0.7820 0.7910
447.399323 0.7980 0.8010 0.8060 0.8160 0.8260
451.782732 0.8280 0.8340 0.8410 0.8500 0.8530
456.166142 0.8540 0.8560 0.8600 0.8650 0.8710
460.549551 0.8750 0.8800 0.8820 0.8830 0.8830
464.932961 0.8840 0.8860 0.8860 0.8870 0.8890
469.316370 0.8900 0.8900 0.8910 0.8930 0.8930
473.699779 0.8930 0.8940 0.8950 0.8950 0.8970
478.083189 0.8970 0.8970 0.8980 0.8980 0.9000
482.466598 0.9010 0.9010 0.9020 0.9040 0.9040
486.850008 0.9050 0.9060 0.9060 0.9080 0.9090
491.233417 0.9100 0.9100 0.9100 0.9120 0.9120
495.616827 0.9130 0.9130 0.9150 0.9160 0.9160
500.000236 0.9170 0.9190 0.9190 0.9200 0.9200
504.383646 0.9200 0.9200 0.9200 0.9190 0.9190
508.767055 0.9170 0.9160 0.9130 0.9080 0.9000
513.150464 0.8980 0.8940 0.8870 0.8760 0.8640
517.533874 0.8490 0.8320 0.8151 0.7931 0.7751
521.917283 0.7460 0.7390 0.7300 0.7130 0.7120
526.300693 0.7150 0.7240 0.7429 0.7470 0.7560
530.684102 0.7560 0.7300 0.7270 0.7210 0.7150
535.067512 0.7050 0.6821 0.6750 0.6730 0.6750
539.450921 0.7050 0.7300 0.7729 0.8039 0.8200
543.834331 0.8389 0.8599 0.8759 0.8870 0.8930
548.217740 0.8970 0.9020 0.9090 0.9160 0.9210
552.601149 0.9270 0.9310 0.9350 0.9380 0.9420
556.984559 0.9460 0.9500 0.9540 0.9570 0.9610
561.367968 0.9650 0.9670 0.9680 0.9680 0.9690
565.751378 0.9690 0.9690 0.9710 0.9710 0.9720
570.134787 0.9720 0.9720 0.9730 0.9730 0.9750
574.518197 0.9750 0.9750 0.9750 0.9750 0.9750
578.901606 0.9750 0.9750 0.9750 0.9760 0.9760
583.285016 0.9760 0.9780 0.9780 0.9780 0.9780
587.668425 0.9790 0.9790 0.9790 0.9790 0.9790
592.051834 0.9790 0.9790 0.9790 0.9790 0.9780
596.435244 0.9780 0.9780 0.9780 0.9780 0.9780
600.818653 0.9780 0.9780 0.9780 0.9780 0.9780
605.202063 0.9780 0.9780 0.9780 0.9780 0.9780
609.585472 0.9760 0.9760 0.9760 0.9750 0.9750
613.968882 0.9750 0.9750 0.9730 0.9720 0.9720
618.352291 0.9720 0.9720 0.9730 0.9750 0.9760
622.735701 0.9760 0.9780 0.9760 0.9760 0.9760
627.119110 0.9750 0.9750 0.9730 0.9730 0.9730
631.502520 0.9730 0.9730 0.9750 0.9750 0.9760
635.885929 0.9760 0.9780 0.9780 0.9780 0.9780
640.269338 0.9780 0.9760 0.9760 0.9750 0.9750
644.652748 0.9750 0.9750 0.9760 0.9760 0.9760
649.036157 0.9760 0.9760 0.9760 0.9780 0.9780
653.419567 0.9780 0.9760 0.9760 0.9750 0.9750
657.802976 0.9750 0.9750 0.9750 0.9750 0.9750
662.186386 0.9750 0.9750 0.9730 0.9730 0.9730
666.569795 0.9690 0.9640 0.9600 0.9600 0.9749
670.953205 0.9790 0.9790 0.9720 0.9650 0.9630
675.336614 0.9630 0.9710 0.9690 0.9680 0.9670
679.720023 0.9650 0.9640 0.9610 0.9600 0.9580
684.103433 0.9570 0.9570 0.9560 0.9540 0.9530
688.486842 0.9530 0.9520 0.9520 0.9500 0.9490
692.870252 0.9460 0.9460 0.9450 0.9450 0.9430
697.253661 0.9420 0.9420 0.9410 0.9410 0.9390
701.637071 0.9380 0.9380 0.9360 0.9350 0.9350
706.020480 0.9340 0.9340 0.9340 0.9320 0.9320
710.403890 0.9320 0.9310 0.9310 0.9310 0.9300
714.787299 0.9300 0.9280 0.9280 0.9280 0.9280
719.170708 0.9280 0.9280 0.9270 0.9260 0.9260
723.554118 0.9240 0.9240 0.9230 0.9210 0.9190
727.937527 0.9160 0.9130 0.9120 0.9060 0.9010
732.320937 0.8970 0.8930 0.8890 0.8800 0.8690
736.704346 0.8520 0.8360 0.8190 0.8040 0.7562
741.087756 0.7119 0.6410 0.6190 0.5540 0.4971
745.471165 0.4311 0.3452 0.3081 0.2542 0.2132
749.854575 0.1280 0.1060 0.0950 0.0840 0.0830
754.237984 0.0710 0.0630 0.0600 0.0580 0.0580
758.621393 0.0580 0.0600 0.0610 0.0640 0.0710
763.004803 0.0760 0.0900 0.0910 0.0761 0.0561
767.388212 0.0500 0.0500 0.1579 0.2129 0.3537
771.771622 0.4079 0.4748 0.5378 0.6207 0.6837
776.155031 0.7581 0.8120 0.8360 0.8530 0.8610
780.538441 0.8939 0.9020 0.9130 0.9160 0.9210
784.921850 0.9300 0.9340 0.9360 0.9390 0.9450
789.305260 0.9460 0.9470 0.9500 0.9520 0.9540
793.688669 0.9540 0.9560 0.9560 0.9570 0.9570
798.072078 0.9570 0.9580 0.9580 0.9580 0.9600
802.455488 0.9580 0.9580 0.9580 0.9570 0.9570
806.838897 0.9570 0.9570 0.9560 0.9540 0.9540
811.222307 0.9530 0.9520 0.9520 0.9520 0.9500
815.605716 0.9490 0.9490 0.9490 0.9470 0.9460
819.989126 0.9460 0.9460 0.9450 0.9450 0.9430
824.372535 0.9430 0.9420 0.9420 0.9420 0.9430
828.755945 0.9430 0.9430 0.9450 0.9450 0.9450
833.139354 0.9450 0.9430 0.9430 0.9420 0.9410
837.522763 0.9410 0.9390 0.9380 0.9360 0.9320
841.906173 0.9210 0.9150 0.9100 0.8980 0.8900
846.289582 0.8750 0.8610 0.8500 0.8360 0.8210
850.672992 0.8010 0.7541 0.7271 0.7101 0.6971
855.056401 0.6780 0.6450 0.6240 0.5980 0.5780
859.439811 0.5640 0.5411 0.5211 0.5081 0.4821
863.823220 0.4600 0.4560 0.4490 0.4150 0.4120
868.206630 0.3750 0.3750 0.5256 0.2389 0.1164
872.590039 0.1162 0.3201 0.4210 0.5020 0.5020
876.973448 0.4311 0.4310 0.4460 0.4470 0.4490
881.356858 0.4500 0.4530 0.4600 0.4670 0.4790
885.740267 0.4980 0.5259 0.5449 0.5649 0.5789
890.123677 0.6150 0.6470 0.6760 0.7100 0.7350
894.507086 0.7470 0.7759 0.7949 0.8269 0.8429
898.890496 0.8560 0.8760 0.8820 0.9090 0.9200
903.273905 0.9320 0.9340 0.9350 0.9380 0.9380
907.657315 0.9450 0.9580 0.9600 0.9650 0.9670
912.040724 0.9680 0.9680 0.9680 0.9680 0.9690
916.424133 0.9690 0.9690 0.9690 0.9690 0.9710
920.807543 0.9710 0.9720 0.9730 0.9730 0.9730
925.190952 0.9730 0.9750 0.9760 0.9760 0.9760
929.574362 0.9760 0.9760 0.9760 0.9780 0.9780
933.957771 0.9790 0.9790 0.9800 0.9800 0.9790
938.341181 0.9790 0.9780 0.9780 0.9780 0.9780
942.724590 0.9760 0.9760 0.9760 0.9750 0.9750
947.108000 0.9750 0.9730 0.9730 0.9730 0.9720
951.491409 0.9720 0.9720 0.9720 0.9710 0.9690
955.874818 0.9680 0.9680 0.9680 0.9680 0.9680
960.258228 0.9690 0.9720 0.9730 0.9730 0.9720
964.641637 0.9720 0.9720 0.9720 0.9720 0.9730
969.025047 0.9720 0.9720 0.9730 0.9730 0.9730
973.408456 0.9730 0.9730 0.9730 0.9730 0.9730
977.791866 0.9750 0.9750 0.9730 0.9730 0.9730
982.175275 0.9730 0.9720 0.9710 0.9690 0.9690
986.558685 0.9680 0.9670 0.9650 0.9640 0.9640
990.942094 0.9630 0.9630 0.9610 0.9600 0.9580
995.325503 0.9570 0.9570 0.9580 0.9600 0.9600
999.708913 0.9600 0.9600 0.9600 0.9600 0.9600
1004.092322 0.9600 0.9610 0.9610 0.9610 0.9630
1008.475732 0.9630 0.9630 0.9640 0.9640 0.9640
1012.859141 0.9640 0.9650 0.9650 0.9670 0.9680
1017.242551 0.9690 0.9690 0.9690 0.9710 0.9690
1021.625960 0.9690 0.9690 0.9710 0.9720 0.9720
1026.009370 0.9730 0.9750 0.9760 0.9760 0.9760
1030.392779 0.9750 0.9730 0.9710 0.9680 0.9640
1034.776188 0.9610 0.9580 0.9570 0.9560 0.9500
1039.159598 0.9470 0.9470 0.9460 0.9450 0.9410
1043.543007 0.9410 0.9380 0.9350 0.9340 0.9320
1047.926417 0.9270 0.9200 0.9170 0.9010 0.8900
1052.309826 0.8680 0.8580 0.8380 0.8191 0.7891
1056.693236 0.7539 0.7100 0.6600 0.6190 0.4351
1061.076645 0.3531 0.3490 0.3051 0.2641 0.2231
1065.460055 0.1940 0.1630 0.1310 0.1010 0.1000
1069.843464 0.1010 0.1269 0.2357 0.2390 0.2231
1074.226874 0.2020 0.2020 0.2710 0.2720 0.2001
1078.610283 0.1750 0.1451 0.1151 0.1150 0.2515
1082.993692 0.2531 0.2931 0.3320 0.3720 0.5150
1087.377102 0.5949 0.6419 0.7009 0.7269 0.7459
1091.760511 0.7780 0.7800 0.7800 0.7450 0.7090
1096.143921 0.6471 0.5951 0.5451 0.4832 0.4651
1100.527330 0.4530 0.4210 0.4200 0.4680 0.4900
1104.910740 0.4900 0.4022 0.3471 0.4058 0.4947
1109.294149 0.6460 0.6309 0.4760 0.4390 0.4260
1113.677559 0.4230 0.4240 0.4469 0.4679 0.5268
1118.060968 0.5801 0.6260 0.6630 0.7260 0.7839
1122.444377 0.8409 0.8640 0.8800 0.9049 0.9189
1126.827787 0.9350 0.9420 0.9540 0.9580 0.9640
1131.211196 0.9670 0.9710 0.9730 0.9760 0.9780
1135.594606 0.9790 0.9800 0.9800 0.9800 0.9790
1139.978015 0.9800 0.9800 0.9820 0.9820 0.9830
1144.361425 0.9830 0.9830 0.9820 0.9820 0.9820
1148.744834 0.9820 0.9820 0.9820 0.9830 0.9860
1153.128244 0.9870 0.9870 0.9870 0.9870 0.9860
1157.511653 0.9860 0.9860 0.9840 0.9830 0.9830
1161.895062 0.9830 0.9830 0.9830 0.9830 0.9830
1166.278472 0.9830 0.9830 0.9830 0.9830 0.9830
1170.661881 0.9830 0.9830 0.9830 0.9830 0.9830
1175.045291 0.9830 0.9830 0.9830 0.9830 0.9830
1179.428700 0.9830 0.9830 0.9830 0.9830 0.9830
1183.812110 0.9830 0.9830 0.9830 0.9830 0.9840
1188.195519 0.9840 0.9840 0.9840 0.9860 0.9860
1192.578929 0.9860 0.9860 0.9860 0.9860 0.9840
1196.962338 0.9840 0.9840 0.9840 0.9830 0.9830
1201.345747 0.9840 0.9860 0.9860 0.9870 0.9890
1205.729157 0.9870 0.9890 0.9900 0.9910 0.9930
1210.112566 0.9930 0.9930 0.9910 0.9910 0.9900
1214.495976 0.9900 0.9900 0.9900 0.9890 0.9870
1218.879385 0.9860 0.9860 0.9870 0.9910 0.9950
1223.262795 0.9970 0.9970 0.9950 0.9950 0.9950
1227.646204 0.9950 0.9950 0.9950 0.9950 0.9950
1232.029614 0.9950 0.9950 0.9950 0.9950 0.9950
1236.413023 0.9950 0.9940 0.9950 0.9950 0.9950
1240.796432 0.9940 0.9940 0.9930 0.9910 0.9910
1245.179842 0.9900 0.9900 0.9900 0.9910 0.9910
1249.563251 0.9930 0.9940 0.9970 0.9970 0.9950
1253.946661 0.9950 0.9940 0.9940 0.9940 0.9940
1258.330070 0.9930 0.9900 0.9890 0.9890 0.9870
1262.713480 0.9860 0.9860 0.9870 0.9890 0.9870
1267.096889 0.9860 0.9830 0.9820 0.9820 0.9820
1271.480299 0.9800 0.9790 0.9710 0.9680 0.9600
1275.863708 0.9570 0.9560 0.9490 0.9420 0.9390
1280.247117 0.9360 0.9350 0.9340 0.9320 0.9280
1284.630527 0.9240 0.9200 0.9160 0.9120 0.9080
1289.013936 0.9060 0.9060 0.9060 0.9060 0.9050
1293.397346 0.9040 0.9040 0.9260 0.9280 0.9280
1297.780755 0.9270 0.9260 0.9240 0.9200 0.9150
1302.164165 0.9260 0.9360 0.9470 0.9490 0.9570
1306.547574 0.9580 0.9650 0.9670 0.9690 0.9730
1310.930984 0.9780 0.9790 0.9800 0.9800 0.9820
1315.314393 0.9840 0.9870 0.9900 0.9910 0.9910
1319.697802 0.9930 0.9930 0.9930 0.9940 0.9940
1324.081212 0.9940 0.9940 0.9940 0.9940 0.9950
1328.464621 0.9950 0.9950 0.9950 0.9970 0.9980
1332.848031 0.9980 0.9980 0.9970 0.9970 0.9970
1337.231440 0.9950 0.9950 0.9950 0.9950 0.9950
1341.614850 0.9950 0.9950 0.9940 0.9940 0.9940
1345.998259 0.9940 0.9940 0.9940 0.9940 0.9930
1350.381669 0.9930 0.9910 0.9910 0.9910 0.9900
1354.765078 0.9890 0.9890 0.9870 0.9860 0.9860
1359.148487 0.9840 0.9840 0.9820 0.9800 0.9790
1363.531897 0.9790 0.9780 0.9790 0.9800 0.9800
1367.915306 0.9800 0.9830 0.9830 0.9830 0.9820
1372.298716 0.9800 0.9790 0.9790 0.9790 0.9780
1376.682125 0.9780 0.9760 0.9780 0.9780 0.9780
1381.065535 0.9790 0.9800 0.9820 0.9820 0.9820
1385.448944 0.9820 0.9800 0.9800 0.9790 0.9790
1389.832354 0.9800 0.9800 0.9820 0.9820 0.9830
1394.215763 0.9830 0.9830 0.9820 0.9830 0.9860
1398.599172 0.9870 0.9870 0.9870 0.9870 0.9890
1402.982582 0.9870 0.9870 0.9870 0.9870 0.9890
1407.365991 0.9890 0.9900 0.9900 0.9900 0.9910
1411.749401 0.9900 0.9900 0.9900 0.9900 0.9900
1416.132810 0.9900 0.9890 0.9890 0.9870 0.9870
1420.516220 0.9870 0.9870 0.9890 0.9900 0.9900
1424.899629 0.9900 0.9890 0.9890 0.9900 0.9900
1429.283039 0.9900 0.9900 0.9900 0.9900 0.9900
1433.666448 0.9900 0.9900 0.9900 0.9910 0.9910
1438.049857 0.9900 0.9910 0.9910 0.9910 0.9910
1442.433267 0.9930 0.9930 0.9930 0.9930 0.9930
1446.816676 0.9930 0.9930 0.9930 0.9930 0.9930
1451.200086 0.9930 0.9910 0.9900 0.9900 0.9890
1455.583495 0.9900 0.9900 0.9890 0.9870 0.9890
1459.966905 0.9890 0.9900 0.9910 0.9910 0.9890
1464.350314 0.9890 0.9870 0.9860 0.9860 0.9860
1468.733724 0.9860 0.9860 0.9860 0.9840 0.9820
1473.117133 0.9790 0.9730 0.9720 0.9710 0.9650
1477.500542 0.9570 0.9570 0.9560 0.9560 0.9570
1481.883952 0.9570 0.9580 0.9580 0.9570 0.9540
1486.267361 0.9530 0.9540 0.9560 0.9570 0.9600
1490.650771 0.9630 0.9670 0.9680 0.9670 0.9640
1495.034180 0.9630 0.9610 0.9600 0.9570 0.9540
1499.417590 0.9520 0.9490 0.9450 0.9380 0.9340
1503.800999 0.9320 0.9300 0.9260 0.9230 0.9160
1508.184409 0.9150 0.9150 0.9150 0.9160 0.9160
1512.567818 0.9160 0.9160 0.9160 0.9160 0.9160
1516.951228 0.9170 0.9170 0.9170 0.9190 0.9190
1521.334637 0.9190 0.9190 0.9200 0.9230 0.9280
1525.718046 0.9310 0.9340 0.9420 0.9500 0.9570
1530.101456 0.9580 0.9630 0.9650 0.9650 0.9610
1534.484865 0.9600 0.9580 0.9600 0.9630 0.9640
1538.868275 0.9670 0.9650 0.9640 0.9640 0.9650
1543.251684 0.9720 0.9750 0.9780 0.9780 0.9750
1547.635094 0.9730 0.9720 0.9710 0.9710 0.9710
1552.018503 0.9720 0.9760 0.9760 0.9760 0.9780
1556.401913 0.9780 0.9780 0.9760 0.9750 0.9730
1560.785322 0.9730 0.9730 0.9730 0.9730 0.9730
1565.168731 0.9720 0.9710 0.9680 0.9610 0.9580
1569.552141 0.9560 0.9530 0.9490 0.9410 0.9320
1573.935550 0.9170 0.9160 0.9130 0.9020 0.8940
1578.318960 0.8910 0.8720 0.8580 0.8500 0.8320
1582.702369 0.8159 0.7780 0.7560 0.7270 0.6940
1587.085779 0.6780 0.6460 0.6170 0.6020 0.5781
1591.469188 0.5269 0.4709 0.4319 0.3950 0.3650
1595.852598 0.3410 0.3230 0.3040 0.2860 0.2750
1600.236007 0.2420 0.2390 0.2390 0.2420 0.2640
1604.619416 0.2690 0.2790 0.2830 0.2870 0.2890
1609.002826 0.2900 0.2910 0.2909 0.2280 0.2090
1613.386235 0.1980 0.1970 0.1980 0.2569 0.2859
1617.769645 0.3310 0.3471 0.3901 0.4301 0.4690
1622.153054 0.5150 0.5830 0.6040 0.6060 0.6230
1626.536464 0.6521 0.6780 0.6971 0.7270 0.7430
1630.919873 0.7530 0.7830 0.8020 0.8320 0.8350
1635.303283 0.8390 0.8521 0.8790 0.8860 0.8930
1639.686692 0.9010 0.9060 0.9130 0.9150 0.9200
1644.070101 0.9240 0.9240 0.9260 0.9270 0.9280
1648.453511 0.9340 0.9390 0.9450 0.9450 0.9460
1652.836920 0.9460 0.9490 0.9500 0.9530 0.9560
1657.220330 0.9610 0.9650 0.9680 0.9710 0.9710
1661.603739 0.9710 0.9730 0.9730 0.9760 0.9760
1665.987149 0.9760 0.9760 0.9760 0.9760 0.9760
1670.370558 0.9760 0.9780 0.9780 0.9790 0.9790
1674.753968 0.9790 0.9790 0.9790 0.9790 0.9790
1679.137377 0.9790 0.9790 0.9790 0.9800 0.9800
1683.520786 0.9800 0.9800 0.9800 0.9800 0.9820
1687.904196 0.9820 0.9820 0.9820 0.9820 0.9820
1692.287605 0.9820 0.9820 0.9820 0.9820 0.9820
1696.671015 0.9820 0.9820 0.9820 0.9820 0.9820
1701.054424 0.9820 0.9820 0.9820 0.9820 0.9820
1705.437834 0.9820 0.9820 0.9820 0.9820 0.9820
1709.821243 0.9800 0.9800 0.9800 0.9800 0.9800
1714.204653 0.9800 0.9800 0.9790 0.9790 0.9790
1718.588062 0.9780 0.9780 0.9780 0.9780 0.9780
1722.971471 0.9780 0.9780 0.9780 0.9780 0.9760
1727.354881 0.9760 0.9750 0.9730 0.9720 0.9720
1731.738290 0.9710 0.9680 0.9630 0.9630 0.9600
1736.121700 0.9600 0.9580 0.9570 0.9560 0.9490
1740.505109 0.9470 0.9450 0.9420 0.9390 0.9360
1744.888519 0.9340 0.9320 0.9240 0.9210 0.9200
1749.271928 0.9200 0.9230 0.9260 0.9340 0.9450
1753.655338 0.9520 0.9520 0.9430 0.9340 0.9240
1758.038747 0.9230 0.9210 0.9210 0.9210 0.9230
1762.422156 0.9260 0.9350 0.9390 0.9410 0.9450
1766.805566 0.9470 0.9490 0.9520 0.9560 0.9580
1771.188975 0.9600 0.9650 0.9680 0.9690 0.9710
1775.572385 0.9720 0.9730 0.9750 0.9760 0.9780
1779.955794 0.9780 0.9790 0.9790 0.9790 0.9800
1784.339204 0.9800 0.9800 0.9800 0.9820 0.9820
1788.722613 0.9830 0.9820 0.9820 0.9820 0.9820
1793.106023 0.9820 0.9820 0.9800 0.9800 0.9800
1797.489432 0.9800 0.9800 0.9820 0.9820 0.9820
1801.872841 0.9820 0.9820 0.9820 0.9820 0.9820
1806.256251 0.9820 0.9800 0.9800 0.9800 0.9800
1810.639660 0.9800 0.9790 0.9790 0.9790 0.9790
1815.023070 0.9780 0.9780 0.9780 0.9760 0.9760
1819.406479 0.9750 0.9750 0.9750 0.9750 0.9750
1823.789889 0.9750 0.9750 0.9730 0.9730 0.9730
1828.173298 0.9730 0.9730 0.9750 0.9730 0.9730
1832.556708 0.9730 0.9730 0.9730 0.9730 0.9730
1836.940117 0.9730 0.9730 0.9730 0.9730 0.9730
1841.323526 0.9750 0.9750 0.9750 0.9750 0.9760
1845.706936 0.9760 0.9760 0.9760 0.9780 0.9780
1850.090345 0.9780 0.9790 0.9800 0.9800 0.9800
1854.473755 0.9800 0.9800 0.9820 0.9820 0.9820
1858.857164 0.9820 0.9820 0.9830 0.9830 0.9830
1863.240574 0.9830 0.9830 0.9830 0.9830 0.9830
1867.623983 0.9830 0.9840 0.9840 0.9840 0.9840
1872.007393 0.9840 0.9840 0.9840 0.9840 0.9840
1876.390802 0.9840 0.9840 0.9840 0.9840 0.9840
1880.774211 0.9860 0.9860 0.9860 0.9860 0.9860
1885.157621 0.9860 0.9860 0.9860 0.9860 0.9860
1889.541030 0.9860 0.9860 0.9860 0.9860 0.9860
1893.924440 0.9860 0.9860 0.9860 0.9860 0.9870
1898.307849 0.9870 0.9870 0.9870 0.9870 0.9870
1902.691259 0.9870 0.9870 0.9890 0.9870 0.9870
1907.074668 0.9870 0.9860 0.9860 0.9860 0.9870
1911.458078 0.9860 0.9860 0.9860 0.9860 0.9860
1915.841487 0.9860 0.9860 0.9860 0.9860 0.9860
1920.224896 0.9860 0.9860 0.9860 0.9860 0.9860
1924.608306 0.9870 0.9870 0.9870 0.9870 0.9870
1928.991715 0.9870 0.9870 0.9860 0.9860 0.9840
1933.375125 0.9840 0.9840 0.9830 0.9830 0.9830
1937.758534 0.9830 0.9830 0.9830 0.9830 0.9830
1942.141944 0.9830 0.9830 0.9830 0.9830 0.9830
1946.525353 0.9820 0.9820 0.9820 0.9820 0.9820
1950.908763 0.9820 0.9820 0.9820 0.9820 0.9820
1955.292172 0.9830 0.9830 0.9830 0.9830 0.9830
1959.675581 0.9830 0.9830 0.9830 0.9830 0.9830
1964.058991 0.9820 0.9820 0.9820 0.9820 0.9820
1968.442400 0.9820 0.9820 0.9820 0.9820 0.9820
1972.825810 0.9820 0.9820 0.9820 0.9820 0.9800
1977.209219 0.9800 0.9800 0.9800 0.9800 0.9800
1981.592629 0.9800 0.9800 0.9790 0.9790 0.9790
1985.976038 0.9790 0.9790 0.9790 0.9790 0.9790
1990.359448 0.9790 0.9790 0.9790 0.9800 0.9800
1994.742857 0.9800 0.9800 0.9800 0.9790 0.9780
1999.126267 0.9780 0.9760 0.9760 0.9760 0.9770
2003.509676 0.9780 0.9785 0.9790 0.9795 0.9800
2007.893085 0.9815 0.9830 0.9830 0.9830 0.9835
2012.276495 0.9840 0.9840 0.9840 0.9850 0.9860
2016.659904 0.9860 0.9860 0.9865 0.9870 0.9870
2021.043314 0.9870 0.9870 0.9870 0.9870 0.9870
2025.426723 0.9870 0.9870 0.9870 0.9871 0.9881
2029.810133 0.9890 0.9890 0.9890 0.9890 0.9890
2034.193542 0.9890 0.9890 0.9890 0.9890 0.9890
2038.576952 0.9890 0.9890 0.9890 0.9890 0.9890
2042.960361 0.9890 0.9890 0.9890 0.9890 0.9890
2047.343770 0.9890 0.9890 0.9890 0.9890 0.9890
2051.727180 0.9890 0.9890 0.9890 0.9890 0.9890
2056.110589 0.9890 0.9890 0.9891 0.9896 0.9900
2060.493999 0.9900 0.9900 0.9900 0.9900 0.9900
2064.877408 0.9900 0.9900 0.9900 0.9900 0.9900
2069.260818 0.9900 0.9900 0.9900 0.9900 0.9900
2073.644227 0.9901 0.9906 0.9910 0.9910 0.9910
2078.027637 0.9910 0.9910 0.9910 0.9910 0.9910
2082.411046 0.9910 0.9910 0.9910 0.9910 0.9910
2086.794455 0.9910 0.9910 0.9910 0.9910 0.9910
2091.177865 0.9910 0.9910 0.9910 0.9910 0.9910
2095.561274 0.9910 0.9910 0.9910 0.9910 0.9910
2099.944684 0.9910 0.9910 0.9910 0.9910 0.9910
2104.328093 0.9910 0.9910 0.9910 0.9910 0.9910
2108.711503 0.9910 0.9910 0.9910 0.9910 0.9910
2113.094912 0.9910 0.9910 0.9910 0.9910 0.9910
2117.478322 0.9909 0.9904 0.9900 0.9900 0.9900
2121.861731 0.9900 0.9900 0.9900 0.9900 0.9900
2126.245140 0.9900 0.9900 0.9900 0.9900 0.9900
2130.628550 0.9900 0.9900 0.9900 0.9900 0.9900
2135.011959 0.9900 0.9900 0.9900 0.9900 0.9900
2139.395369 0.9900 0.9900 0.9900 0.9900 0.9900
2143.778778 0.9898 0.9893 0.9890 0.9890 0.9890
2148.162188 0.9890 0.9890 0.9890 0.9890 0.9890
2152.545597 0.9890 0.9890 0.9890 0.9890 0.9890
2156.929007 0.9890 0.9890 0.9890 0.9890 0.9890
2161.312416 0.9890 0.9890 0.9890 0.9890 0.9892
2165.695825 0.9897 0.9900 0.9900 0.9900 0.9900
