##TITLE=Methylamine, 1-(trimethylsilyl)-,
##JCAMP-DX=4.24
##DATA TYPE=INFRARED SPECTRUM
##CLASS=COBLENTZ III
##ORIGIN=DOW CORNING CORP.
##OWNER=Copyright (C) 1987 by the Coblentz Society
Collection (C) 2018 copyright by the U.S. Secretary of Commerce
on behalf of the United States of America. All rights reserved.
##DATE=1966/10/11
##NAMES=(trimethylsilyl)methylamine
(trimethylsilyl)methanamine
##CAS REGISTRY NO=18166-02-4
##MOLFORM=C4 H13 N Si
##SOURCE REFERENCE=COBLENTZ NO. 5556
##$NIST SOURCE=COBLENTZ
##$NIST IMAGE=cob5556
##SPECTROMETER/DATA SYSTEM=PERKIN-ELMER 521 (GRATING)
$$ ABSORPTION AROUND 850 ALSO IN 2,2,4-TRIMETHYLPENTANE
##INSTRUMENT PARAMETERS=FILTERS AT 3150, 2500, 2000, 1150, 700, 410. GRATING CHANGES: 2000, 630
##STATE=SOLUTION (10% CCl4 FOR 3800-900, 2% CS2 FOR 900-640, AND 10% CCl4 FOR 650-250)
$$ MORE THAN 99% PURE
##PATH LENGTH=0.012 CM, 0.010 CM, AND 0.011 CM
$$ SPECTRAL FEATURES AT 903, 647 CM^-^1 ARE ARTIFACTS CAUSED BY A CHANGE IN RECORDING PARAMETER
##RESOLUTION=2
##XUNITS=1/CM
##YUNITS=TRANSMITTANCE
##XFACTOR=1.0
##YFACTOR=1
##FIRSTX=262
##LASTX=3808
##FIRSTY=0.65
##MAXX=3808
##MINX=262
##MAXY=0.8947
##MINY=0.0035
##NPOINTS=3547
##XYDATA=(X++(Y..Y))
262.000000 0.6500 0.6508 0.6515 0.6525 0.6536
267.000000 0.6547 0.6558 0.6572 0.6586 0.6600
272.000000 0.6614 0.6628 0.6638 0.6647 0.6656
277.000000 0.6656 0.6655 0.6654 0.6653 0.6651
282.000000 0.6653 0.6658 0.6663 0.6668 0.6685
287.000000 0.6715 0.6745 0.6782 0.6834 0.6887
292.000000 0.6939 0.6968 0.6995 0.7022 0.7049
297.000000 0.7052 0.7053 0.7054 0.7056 0.7057
302.000000 0.7058 0.7101 0.7059 0.7059 0.7059
307.000000 0.7059 0.7059 0.7058 0.7058 0.7058
312.000000 0.7058 0.7058 0.7058 0.7057 0.7057
317.000000 0.7057 0.7057 0.7057 0.7056 0.7056
322.000000 0.7047 0.7036 0.7014 0.6957 0.6901
327.000000 0.6797 0.6659 0.6520 0.6382 0.6243
332.000000 0.6105 0.5967 0.5828 0.5690 0.5551
337.000000 0.5413 0.5274 0.5188 0.5186 0.5183
342.000000 0.5216 0.5381 0.5564 0.5747 0.5929
347.000000 0.6112 0.6295 0.6477 0.6660 0.6837
352.000000 0.6967 0.7087 0.7154 0.7222 0.7289
357.000000 0.7357 0.7424 0.7492 0.7559 0.7627
362.000000 0.7695 0.7766 0.7838 0.7909 0.7986
367.000000 0.8074 0.8162 0.8247 0.8289 0.8330
372.000000 0.8372 0.8414 0.8438 0.8459 0.8481
377.000000 0.8502 0.8524 0.8545 0.8565 0.8576
382.000000 0.8588 0.8599 0.8610 0.8621 0.8632
387.000000 0.8633 0.8634 0.8634 0.8634 0.8634
392.000000 0.8661 0.8635 0.8635 0.8635 0.8636
397.000000 0.8635 0.8634 0.8632 0.8630 0.8627
402.000000 0.8617 0.8608 0.8598 0.8588 0.8569
407.000000 0.8546 0.8523 0.8500 0.8475 0.8442
412.000000 0.8409 0.8376 0.8342 0.8300 0.8249
417.000000 0.8216 0.8203 0.8205 0.8177 0.8215
422.000000 0.8239 0.8262 0.8286 0.8313 0.8340
427.000000 0.8400 0.8476 0.8535 0.8594 0.8613
432.000000 0.8625 0.8630 0.8632 0.8633 0.8635
437.000000 0.8636 0.8638 0.8639 0.8640 0.8641
442.000000 0.8641 0.8642 0.8643 0.8644 0.8644
447.000000 0.8644 0.8644 0.8644 0.8645 0.8643
452.000000 0.8641 0.8640 0.8638 0.8636 0.8641
457.000000 0.8650 0.8669 0.8683 0.8695 0.8707
462.000000 0.8720 0.8732 0.8745 0.8757 0.8762
467.000000 0.8767 0.8772 0.8772 0.8770 0.8767
472.000000 0.8765 0.8762 0.8760 0.8757 0.8757
477.000000 0.8757 0.8757 0.8757 0.8758 0.8762
482.000000 0.8771 0.8781 0.8790 0.8800 0.8809
487.000000 0.8819 0.8828 0.8838 0.8848 0.8857
492.000000 0.8867 0.8867 0.8864 0.8860 0.8857
497.000000 0.8854 0.8850 0.8844 0.8836 0.8828
502.000000 0.8820 0.8812 0.8804 0.8796 0.8788
507.000000 0.8779 0.8775 0.8771 0.8767 0.8763
512.000000 0.8759 0.8755 0.8751 0.8748 0.8744
517.000000 0.8740 0.8736 0.8732 0.8728 0.8724
522.000000 0.8720 0.8716 0.8715 0.8714 0.8714
527.000000 0.8713 0.8713 0.8712 0.8712 0.8712
532.000000 0.8711 0.8711 0.8710 0.8710 0.8709
537.000000 0.8709 0.8709 0.8708 0.8708 0.8707
542.000000 0.8707 0.8707 0.8707 0.8706 0.8706
547.000000 0.8706 0.8706 0.8705 0.8705 0.8705
552.000000 0.8705 0.8704 0.8704 0.8704 0.8695
557.000000 0.8687 0.8678 0.8670 0.8661 0.8652
562.000000 0.8644 0.8626 0.8604 0.8582 0.8560
567.000000 0.8538 0.8516 0.8494 0.8473 0.8454
572.000000 0.8434 0.8414 0.8395 0.8375 0.8356
577.000000 0.8336 0.8317 0.8297 0.8277 0.8251
582.000000 0.8248 0.8257 0.8265 0.8274 0.8279
587.000000 0.8282 0.8285 0.8289 0.8291 0.8292
592.000000 0.8294 0.8295 0.8297 0.8298 0.8293
597.000000 0.8286 0.8280 0.8274 0.8268 0.8260
602.000000 0.8238 0.8215 0.8193 0.8171 0.8138
607.000000 0.8075 0.8024 0.8000 0.8000 0.8018
612.000000 0.8059 0.8095 0.8108 0.8114 0.8121
617.000000 0.8127 0.8133 0.8139 0.8145 0.8162
622.000000 0.8181 0.8190 0.8186 0.8181 0.8177
627.000000 0.8166 0.8156 0.8146 0.8132 0.8113
632.000000 0.8094 0.8075 0.8056 0.8036 0.8012
637.000000 0.7989 0.7966 0.7943 0.7920 0.7896
642.000000 0.7873 0.7848 0.7820 0.7793 0.7774
647.000000 0.7766 0.7916 0.8106 0.8296 0.8486
652.000000 0.8594 0.8546 0.8490 0.8445 0.8401
657.000000 0.8327 0.8237 0.8148 0.8058 0.7968
662.000000 0.7878 0.7788 0.7699 0.7532 0.7512
667.000000 0.7514 0.7520 0.7531 0.7554 0.7599
672.000000 0.7687 0.7774 0.7882 0.8006 0.8101
677.000000 0.8196 0.8254 0.8292 0.8294 0.8281
682.000000 0.8292 0.8276 0.8203 0.8124 0.8067
687.000000 0.8009 0.7952 0.7822 0.7626 0.7430
692.000000 0.7233 0.7037 0.6873 0.6862 0.6851
697.000000 0.6854 0.6869 0.6896 0.7090 0.7410
702.000000 0.7731 0.8001 0.8148 0.8208 0.8268
707.000000 0.8290 0.8312 0.8333 0.8349 0.8358
712.000000 0.8367 0.8376 0.8386 0.8395 0.8383
717.000000 0.8381 0.8376 0.8371 0.8366 0.8361
722.000000 0.8355 0.8349 0.8337 0.8325 0.8313
727.000000 0.8302 0.8290 0.8264 0.8237 0.8210
732.000000 0.8171 0.8127 0.8084 0.7986 0.7875
737.000000 0.7771 0.7671 0.7571 0.7471 0.7370
742.000000 0.7269 0.7167 0.6897 0.6608 0.6318
747.000000 0.6029 0.5739 0.5450 0.5160 0.4979
752.000000 0.4994 0.4990 0.5081 0.5212 0.5343
757.000000 0.5473 0.5604 0.5699 0.5786 0.5818
762.000000 0.5815 0.5810 0.5798 0.5736 0.5658
767.000000 0.5545 0.5342 0.5191 0.5175 0.5202
772.000000 0.5215 0.5356 0.5476 0.5576 0.5798
777.000000 0.6006 0.6201 0.6533 0.6786 0.7091
782.000000 0.7283 0.7406 0.7468 0.7511 0.7540
787.000000 0.7564 0.7571 0.7575 0.7583 0.7583
792.000000 0.7569 0.7556 0.7543 0.7518 0.7479
797.000000 0.7428 0.7377 0.7331 0.7285 0.7240
802.000000 0.7184 0.7123 0.7063 0.7002 0.6928
807.000000 0.6837 0.6746 0.6655 0.6416 0.6176
812.000000 0.5937 0.5697 0.5458 0.5218 0.4979
817.000000 0.4740 0.4532 0.4512 0.4512 0.4539
822.000000 0.4593 0.4605 0.4614 0.4609 0.4605
827.000000 0.4598 0.4482 0.4303 0.4123 0.3943
832.000000 0.3764 0.3584 0.3404 0.3225 0.3045
837.000000 0.2865 0.2685 0.2506 0.2374 0.2350
842.000000 0.2394 0.2357 0.2467 0.2613 0.2758
847.000000 0.2802 0.2803 0.2799 0.2826 0.2778
852.000000 0.2669 0.2518 0.2367 0.2216 0.2065
857.000000 0.1914 0.1763 0.1716 0.1705 0.1701
862.000000 0.1904 0.2210 0.2516 0.2822 0.3128
867.000000 0.3434 0.3740 0.4046 0.4352 0.4536
872.000000 0.4949 0.5407 0.5736 0.6545 0.6741
877.000000 0.6912 0.7019 0.7125 0.7232 0.7317
882.000000 0.7388 0.7459 0.7530 0.7602 0.7698
887.000000 0.7794 0.7890 0.8011 0.8135 0.8404
892.000000 0.8449 0.8466 0.8487 0.8513 0.8539
897.000000 0.8612 0.8599 0.7863 0.7082 0.6302
902.000000 0.5521 0.4922 0.4990 0.5050 0.5102
907.000000 0.5154 0.5205 0.5231 0.5238 0.5247
912.000000 0.5247 0.5232 0.5215 0.5193 0.5171
917.000000 0.5117 0.4975 0.4763 0.4551 0.4339
922.000000 0.4202 0.4212 0.4437 0.4761 0.5085
927.000000 0.5408 0.5732 0.6056 0.6373 0.6524
932.000000 0.6621 0.6744 0.6868 0.6948 0.7004
937.000000 0.7051 0.7099 0.7146 0.7188 0.7226
942.000000 0.7264 0.7302 0.7329 0.7355 0.7380
947.000000 0.7406 0.7419 0.7431 0.7442 0.7454
952.000000 0.7464 0.7469 0.7473 0.7478 0.7482
957.000000 0.7487 0.7487 0.7486 0.7510 0.7486
962.000000 0.7486 0.7485 0.7485 0.7481 0.7474
967.000000 0.7467 0.7460 0.7439 0.7417 0.7394
972.000000 0.7372 0.7350 0.7328 0.7307 0.7289
977.000000 0.7271 0.7253 0.7234 0.7216 0.7206
982.000000 0.7206 0.7205 0.7197 0.7188 0.7180
987.000000 0.7172 0.7164 0.7156 0.7148 0.7138
992.000000 0.7128 0.7118 0.7108 0.7098 0.7088
997.000000 0.7078 0.7036 0.7004 0.6972 0.6944
1002.000000 0.6917 0.6890 0.6862 0.6835 0.6808
1007.000000 0.6794 0.6779 0.6765 0.6750 0.6736
1012.000000 0.6722 0.6715 0.6709 0.6704 0.6698
1017.000000 0.6664 0.6623 0.6579 0.6536 0.6492
1022.000000 0.6448 0.6404 0.6359 0.6315 0.6271
1027.000000 0.6185 0.6098 0.6011 0.5919 0.5826
1032.000000 0.5772 0.5737 0.5721 0.5729 0.5751
1037.000000 0.5783 0.5824 0.5872 0.5920 0.5962
1042.000000 0.5999 0.6015 0.6033 0.6011 0.6006
1047.000000 0.6000 0.5994 0.5987 0.5976 0.5963
1052.000000 0.5945 0.5928 0.5910 0.5892 0.5872
1057.000000 0.5863 0.5855 0.5846 0.5838 0.5830
1062.000000 0.5822 0.5812 0.5802 0.5792 0.5782
1067.000000 0.5769 0.5749 0.5729 0.5707 0.5671
1072.000000 0.5635 0.5599 0.5543 0.5452 0.5374
1077.000000 0.5297 0.5219 0.5140 0.5061 0.4963
1082.000000 0.4877 0.4863 0.4862 0.4863 0.4869
1087.000000 0.4828 0.4933 0.5127 0.5603 0.5668
1092.000000 0.5733 0.5806 0.5901 0.5997 0.6103
1097.000000 0.6204 0.6297 0.6376 0.6448 0.6520
1102.000000 0.6592 0.6662 0.6727 0.6791 0.6845
1107.000000 0.6899 0.6953 0.6991 0.7019 0.7048
1112.000000 0.7076 0.7104 0.7123 0.7133 0.7143
1117.000000 0.7153 0.7163 0.7173 0.7185 0.7198
1122.000000 0.7210 0.7222 0.7235 0.7247 0.7260
1127.000000 0.7279 0.7299 0.7318 0.7338 0.7357
1132.000000 0.7376 0.7396 0.7417 0.7438 0.7460
1137.000000 0.7481 0.7503 0.7524 0.7546 0.7568
1142.000000 0.7591 0.7613 0.7613 0.7608 0.7634
1147.000000 0.7596 0.7590 0.7585 0.7581 0.7576
1152.000000 0.7571 0.7567 0.7562 0.7558 0.7555
1157.000000 0.7529 0.7473 0.7435 0.7428 0.7422
1162.000000 0.7415 0.7408 0.7401 0.7395 0.7388
1167.000000 0.7381 0.7374 0.7368 0.7372 0.7376
1172.000000 0.7380 0.7423 0.7452 0.7461 0.7469
1177.000000 0.7473 0.7478 0.7478 0.7475 0.7473
1182.000000 0.7462 0.7447 0.7426 0.7403 0.7378
1187.000000 0.7352 0.7326 0.7300 0.7274 0.7252
1192.000000 0.7234 0.7216 0.7198 0.7189 0.7182
1197.000000 0.7174 0.7166 0.7159 0.7151 0.7141
1202.000000 0.7110 0.7058 0.7008 0.6958 0.6900
1207.000000 0.6835 0.6768 0.6690 0.6612 0.6252
1212.000000 0.5747 0.5370 0.5327 0.5327 0.5406
1217.000000 0.5520 0.5635 0.5750 0.5825 0.5828
1222.000000 0.5826 0.5824 0.5819 0.5810 0.5791
1227.000000 0.5754 0.5699 0.5623 0.5544 0.5428
1232.000000 0.5187 0.4912 0.4637 0.4362 0.4088
1237.000000 0.3813 0.3538 0.2567 0.1787 0.1006
1242.000000 0.0311 0.0132 0.0060 0.0051 0.0048
1247.000000 0.0035 0.0054 0.0116 0.0313 0.0510
1252.000000 0.0707 0.0904 0.1101 0.1298 0.1473
1257.000000 0.1535 0.1576 0.1603 0.1631 0.1673
1262.000000 0.2014 0.2402 0.2790 0.3178 0.3566
1267.000000 0.3954 0.4341 0.4465 0.4521 0.4555
1272.000000 0.4539 0.4512 0.4495 0.4478 0.4486
1277.000000 0.4500 0.4609 0.4790 0.4971 0.5152
1282.000000 0.5333 0.5514 0.5695 0.5876 0.6057
1287.000000 0.6238 0.6419 0.6600 0.6727 0.6905
1292.000000 0.6983 0.7040 0.7079 0.7093 0.7106
1297.000000 0.7118 0.7116 0.7119 0.7120 0.7111
1302.000000 0.7102 0.7092 0.7074 0.7056 0.7037
1307.000000 0.7019 0.7001 0.6983 0.6965 0.6943
1312.000000 0.6921 0.6898 0.6876 0.6844 0.6809
1317.000000 0.6774 0.6739 0.6706 0.6706 0.6702
1322.000000 0.6719 0.6756 0.6852 0.6944 0.7042
1327.000000 0.7141 0.7238 0.7315 0.7380 0.7427
1332.000000 0.7463 0.7468 0.7470 0.7467 0.7464
1337.000000 0.7460 0.7457 0.7454 0.7450 0.7445
1342.000000 0.7440 0.7436 0.7431 0.7426 0.7421
1347.000000 0.7414 0.7402 0.7391 0.7379 0.7367
1352.000000 0.7355 0.7345 0.7334 0.7344 0.7323
1357.000000 0.7325 0.7327 0.7329 0.7334 0.7343
1362.000000 0.7352 0.7360 0.7369 0.7378 0.7386
1367.000000 0.7394 0.7402 0.7410 0.7415 0.7415
1372.000000 0.7414 0.7413 0.7409 0.7387 0.7364
1377.000000 0.7341 0.7318 0.7295 0.7272 0.7249
1382.000000 0.7224 0.7196 0.7169 0.7141 0.7114
1387.000000 0.7077 0.7033 0.6988 0.6923 0.6836
1392.000000 0.6764 0.6695 0.6625 0.6534 0.6436
1397.000000 0.6330 0.6216 0.6101 0.5985 0.5777
1402.000000 0.5557 0.5318 0.5041 0.4808 0.4617
1407.000000 0.4472 0.4327 0.4192 0.4076 0.3986
1412.000000 0.3958 0.3939 0.3926 0.3926 0.3952
1417.000000 0.3998 0.4103 0.4249 0.4455 0.4648
1422.000000 0.4788 0.4854 0.4880 0.4890 0.4899
1427.000000 0.4907 0.4913 0.4937 0.5013 0.5084
1432.000000 0.5157 0.5238 0.5324 0.5414 0.5504
1437.000000 0.5590 0.5663 0.5735 0.5807 0.5874
1442.000000 0.5941 0.5997 0.6037 0.6076 0.6116
1447.000000 0.6147 0.6171 0.6194 0.6217 0.6241
1452.000000 0.6271 0.6302 0.6334 0.6365 0.6403
1457.000000 0.6453 0.6503 0.6568 0.6679 0.6785
1462.000000 0.6830 0.6876 0.6921 0.6967 0.7013
1467.000000 0.7045 0.7068 0.7091 0.7114 0.7137
1472.000000 0.7160 0.7176 0.7192 0.7199 0.7199
1477.000000 0.7200 0.7185 0.7199 0.7191 0.7183
1482.000000 0.7175 0.7167 0.7159 0.7147 0.7134
1487.000000 0.7122 0.7110 0.7093 0.7073 0.7053
1492.000000 0.7033 0.7013 0.6983 0.6950 0.6917
1497.000000 0.6884 0.6852 0.6764 0.6592 0.6594
1502.000000 0.6598 0.6602 0.6616 0.6599 0.6649
1507.000000 0.6672 0.6701 0.6736 0.6779 0.6823
1512.000000 0.6857 0.6888 0.6920 0.6951 0.6983
1517.000000 0.7014 0.7045 0.7077 0.7083 0.7086
1522.000000 0.7087 0.7088 0.7090 0.7091 0.7093
1527.000000 0.7094 0.7094 0.7094 0.7093 0.7092
1532.000000 0.7091 0.7090 0.7088 0.7087 0.7142
1537.000000 0.7084 0.7083 0.7081 0.7080 0.7078
1542.000000 0.7077 0.7073 0.7063 0.7051 0.7039
1547.000000 0.7028 0.7016 0.7004 0.6992 0.6981
1552.000000 0.6969 0.6958 0.6947 0.6936 0.6925
1557.000000 0.6914 0.6903 0.6892 0.6881 0.6870
1562.000000 0.6858 0.6842 0.6827 0.6812 0.6796
1567.000000 0.6780 0.6759 0.6739 0.6718 0.6697
1572.000000 0.6676 0.6658 0.6641 0.6624 0.6606
1577.000000 0.6584 0.6548 0.6518 0.6489 0.6443
1582.000000 0.6422 0.6401 0.6380 0.6359 0.6337
1587.000000 0.6304 0.6270 0.6235 0.6196 0.6157
1592.000000 0.6118 0.6087 0.6055 0.6023 0.5991
1597.000000 0.5959 0.5927 0.5897 0.5866 0.5836
1602.000000 0.5806 0.5775 0.5744 0.5713 0.5682
1607.000000 0.5651 0.5620 0.5587 0.5547 0.5507
1612.000000 0.5469 0.5433 0.5399 0.5395 0.5391
1617.000000 0.5389 0.5411 0.5392 0.5396 0.5407
1622.000000 0.5429 0.5452 0.5475 0.5509 0.5544
1627.000000 0.5578 0.5633 0.5694 0.5774 0.5855
1632.000000 0.5937 0.6024 0.6110 0.6197 0.6299
1637.000000 0.6403 0.6507 0.6586 0.6643 0.6701
1642.000000 0.6758 0.6815 0.6869 0.6922 0.6974
1647.000000 0.7027 0.7079 0.7132 0.7179 0.7221
1652.000000 0.7263 0.7305 0.7347 0.7389 0.7430
1657.000000 0.7470 0.7508 0.7540 0.7572 0.7591
1662.000000 0.7608 0.7624 0.7636 0.7648 0.7660
1667.000000 0.7672 0.7679 0.7686 0.7693 0.7700
1672.000000 0.7707 0.7713 0.7718 0.7724 0.7730
1677.000000 0.7731 0.7733 0.7734 0.7738 0.7744
1682.000000 0.7751 0.7761 0.7778 0.7794 0.7812
1687.000000 0.7837 0.7862 0.7887 0.7914 0.7941
1692.000000 0.7968 0.7997 0.8026 0.8054 0.8083
1697.000000 0.8114 0.8153 0.8192 0.8231 0.8270
1702.000000 0.8306 0.8342 0.8377 0.8413 0.8448
1707.000000 0.8480 0.8510 0.8540 0.8570 0.8597
1712.000000 0.8612 0.8627 0.8642 0.8657 0.8669
1717.000000 0.8674 0.8679 0.8684 0.8689 0.8694
1722.000000 0.8699 0.8703 0.8704 0.8705 0.8707
1727.000000 0.8708 0.8709 0.8710 0.8711 0.8712
1732.000000 0.8712 0.8712 0.8712 0.8712 0.8712
1737.000000 0.8711 0.8711 0.8711 0.8711 0.8710
1742.000000 0.8709 0.8708 0.8706 0.8705 0.8704
1747.000000 0.8703 0.8701 0.8700 0.8699 0.8698
1752.000000 0.8696 0.8695 0.8693 0.8692 0.8691
1757.000000 0.8689 0.8688 0.8686 0.8685 0.8683
1762.000000 0.8682 0.8680 0.8679 0.8679 0.8679
1767.000000 0.8678 0.8678 0.8678 0.8678 0.8711
1772.000000 0.8678 0.8678 0.8678 0.8678 0.8678
1777.000000 0.8678 0.8678 0.8678 0.8678 0.8678
1782.000000 0.8678 0.8678 0.8678 0.8678 0.8677
1787.000000 0.8677 0.8677 0.8677 0.8677 0.8677
1792.000000 0.8677 0.8677 0.8677 0.8677 0.8677
1797.000000 0.8676 0.8676 0.8676 0.8676 0.8675
1802.000000 0.8674 0.8673 0.8672 0.8671 0.8670
1807.000000 0.8669 0.8667 0.8663 0.8653 0.8644
1812.000000 0.8634 0.8624 0.8614 0.8603 0.8593
1817.000000 0.8583 0.8573 0.8562 0.8547 0.8530
1822.000000 0.8513 0.8496 0.8479 0.8450 0.8420
1827.000000 0.8406 0.8396 0.8398 0.8404 0.8400
1832.000000 0.8406 0.8414 0.8421 0.8427 0.8437
1837.000000 0.8455 0.8475 0.8498 0.8520 0.8542
1842.000000 0.8541 0.8539 0.8537 0.8536 0.8534
1847.000000 0.8531 0.8529 0.8530 0.8532 0.8533
1852.000000 0.8535 0.8536 0.8537 0.8539 0.8542
1857.000000 0.8544 0.8547 0.8549 0.8552 0.8554
1862.000000 0.8557 0.8561 0.8564 0.8568 0.8572
1867.000000 0.8575 0.8579 0.8593 0.8607 0.8617
1872.000000 0.8627 0.8637 0.8647 0.8653 0.8658
1877.000000 0.8663 0.8668 0.8651 0.8641 0.8630
1882.000000 0.8620 0.8609 0.8598 0.8587 0.8577
1887.000000 0.8569 0.8565 0.8560 0.8555 0.8550
1892.000000 0.8546 0.8541 0.8537 0.8533 0.8529
1897.000000 0.8524 0.8520 0.8514 0.8509 0.8504
1902.000000 0.8499 0.8494 0.8489 0.8478 0.8460
1907.000000 0.8443 0.8426 0.8408 0.8391 0.8374
1912.000000 0.8359 0.8358 0.8356 0.8354 0.8354
1917.000000 0.8358 0.8362 0.8366 0.8370 0.8374
1922.000000 0.8377 0.8380 0.8383 0.8386 0.8387
1927.000000 0.8388 0.8389 0.8386 0.8374 0.8362
1932.000000 0.8350 0.8334 0.8318 0.8302 0.8286
1937.000000 0.8277 0.8268 0.8260 0.8259 0.8261
1942.000000 0.8275 0.8293 0.8314 0.8341 0.8368
1947.000000 0.8391 0.8412 0.8432 0.8447 0.8457
1952.000000 0.8468 0.8478 0.8485 0.8492 0.8500
1957.000000 0.8507 0.8515 0.8520 0.8526 0.8543
1962.000000 0.8577 0.8606 0.8623 0.8633 0.8636
1967.000000 0.8639 0.8641 0.8644 0.8646 0.8648
1972.000000 0.8650 0.8652 0.8653 0.8656 0.8658
1977.000000 0.8680 0.8662 0.8662 0.8663 0.8664
1982.000000 0.8665 0.8666 0.8666 0.8667 0.8667
1987.000000 0.8666 0.8665 0.8664 0.8663 0.8662
1992.000000 0.8659 0.8654 0.8649 0.8645 0.8640
1997.000000 0.8634 0.8628 0.8621 0.8622 0.8641
2002.000000 0.8661 0.8679 0.8697 0.8712 0.8727
2007.000000 0.8731 0.8736 0.8737 0.8738 0.8737
2012.000000 0.8736 0.8734 0.8732 0.8728 0.8725
2017.000000 0.8721 0.8718 0.8715 0.8712 0.8725
2022.000000 0.8739 0.8750 0.8761 0.8772 0.8783
2027.000000 0.8793 0.8803 0.8803 0.8804 0.8804
2032.000000 0.8805 0.8805 0.8806 0.8806 0.8807
2037.000000 0.8807 0.8808 0.8808 0.8808 0.8808
2042.000000 0.8808 0.8808 0.8808 0.8808 0.8809
2047.000000 0.8807 0.8806 0.8804 0.8802 0.8800
2052.000000 0.8798 0.8796 0.8794 0.8792 0.8790
2057.000000 0.8788 0.8786 0.8784 0.8782 0.8778
2062.000000 0.8774 0.8769 0.8765 0.8760 0.8756
2067.000000 0.8751 0.8747 0.8742 0.8737 0.8732
2072.000000 0.8728 0.8723 0.8718 0.8713 0.8709
2077.000000 0.8704 0.8699 0.8694 0.8690 0.8684
2082.000000 0.8679 0.8674 0.8670 0.8666 0.8662
2087.000000 0.8662 0.8663 0.8663 0.8663 0.8663
2092.000000 0.8663 0.8664 0.8666 0.8668 0.8670
2097.000000 0.8672 0.8674 0.8676 0.8678 0.8680
2102.000000 0.8682 0.8683 0.8685 0.8685 0.8686
2107.000000 0.8687 0.8688 0.8689 0.8690 0.8690
2112.000000 0.8691 0.8693 0.8695 0.8697 0.8699
2117.000000 0.8701 0.8704 0.8706 0.8708 0.8710
2122.000000 0.8713 0.8715 0.8717 0.8719 0.8722
2127.000000 0.8724 0.8727 0.8729 0.8731 0.8733
2132.000000 0.8736 0.8738 0.8741 0.8743 0.8745
2137.000000 0.8747 0.8750 0.8752 0.8754 0.8755
2142.000000 0.8757 0.8759 0.8761 0.8763 0.8765
2147.000000 0.8767 0.8769 0.8771 0.8773 0.8775
2152.000000 0.8777 0.8779 0.8781 0.8782 0.8784
2157.000000 0.8786 0.8788 0.8789 0.8791 0.8792
2162.000000 0.8794 0.8795 0.8797 0.8798 0.8800
2167.000000 0.8802 0.8804 0.8805 0.8807 0.8808
2172.000000 0.8810 0.8811 0.8813 0.8814 0.8816
2177.000000 0.8818 0.8821 0.8823 0.8826 0.8828
2182.000000 0.8831 0.8833 0.8835 0.8837 0.8840
2187.000000 0.8842 0.8845 0.8847 0.8850 0.8852
2192.000000 0.8855 0.8855 0.8855 0.8854 0.8854
2197.000000 0.8853 0.8853 0.8852 0.8852 0.8851
2202.000000 0.8850 0.8849 0.8849 0.8848 0.8848
2207.000000 0.8847 0.8846 0.8845 0.8845 0.8844
2212.000000 0.8844 0.8843 0.8842 0.8840 0.8839
2217.000000 0.8837 0.8836 0.8834 0.8833 0.8831
2222.000000 0.8830 0.8828 0.8827 0.8825 0.8824
2227.000000 0.8823 0.8822 0.8821 0.8821 0.8821
2232.000000 0.8821 0.8820 0.8820 0.8819 0.8819
2237.000000 0.8818 0.8818 0.8817 0.8817 0.8816
2242.000000 0.8816 0.8816 0.8816 0.8815 0.8815
2247.000000 0.8814 0.8814 0.8814 0.8814 0.8814
2252.000000 0.8814 0.8814 0.8815 0.8815 0.8815
2257.000000 0.8815 0.8815 0.8815 0.8815 0.8815
2262.000000 0.8815 0.8815 0.8816 0.8815 0.8815
2267.000000 0.8814 0.8813 0.8812 0.8812 0.8811
2272.000000 0.8810 0.8809 0.8808 0.8807 0.8807
