##TITLE=3-Aminopyrazole
##JCAMP-DX=4.24
##DATA TYPE=INFRARED SPECTRUM
##ORIGIN=EPA-IR VAPOR PHASE LIBRARY
##OWNER=SRD/NIST
Collection (C) 2018 copyright by the U.S. Secretary of Commerce
on behalf of the United States of America. All rights reserved.
##CAS REGISTRY NO=1820-80-0
##MOLFORM=C 3 H 5 N 3
##$NIST SOURCE=MSDC-IR
##STATE=gas
##XUNITS=1/CM
##YUNITS=ABSORBANCE
##XFACTOR=1.
##YFACTOR=0.001
##DELTAX=3.85796
##FIRSTX=551.7
##LASTX=4000.7
##FIRSTY=4.5
##MAXX=4000.7
##MINX=551.688
##MAXY=0.02107
##MINY=0.000586
##NPOINTS=895
##XYDATA=(X++(Y..Y))
551.688 4.5 4.62 4.68 4.71 4.91 5.05 5.25 5.41 5.59 5.96
590.268 6.41 6.84 7.19 7.55 7.92 8.25 8.5 8.75 9.01 9.22
628.847 9.36 9 8.38 7.99 7.63 7.17 6.82 6.47 6.16 6.02
667.427 5.81 5.52 5.26 5.1 5.02 5.02 5.11 5.28 5.6 6.19
706.006 7.05 8 9 10 10.82 11.62 12.62 15.73 21.07 20.62
744.586 16.14 14.35 13.97 13.45 12.54 11.48 10.15 8.81 7.62 6.64
783.165 5.86 5.27 4.86 4.53 4.26 4.09 4.06 4.08 4.13 4.16
821.745 4.25 4.48 4.73 5.01 5.31 5.75 6.2 6.59 7.04 7.45
860.324 7.92 8.43 8.84 8.89 8.7 8.5 8.23 7.98 7.75 7.44
898.904 7.02 6.52 6.1 5.87 5.83 5.85 5.71 5.38 5.07 4.84
937.484 4.76 4.73 4.55 4.36 4.24 4.22 4.31 4.31 4.15 4.02
976.063 4 3.96 3.93 3.92 3.7 3.42 3.33 3.32 3.37 3.49
1014.643 3.82 4.23 4.76 5.31 5.5 5.43 5.22 5.12 5.26 5.31
1053.222 5.13 4.77 4.3 3.83 3.53 3.39 3.26 3.2 3.19 3.22
1091.802 3.27 3.43 3.52 3.47 3.5 3.47 3.36 3.26 3.29 3.22
1130.381 2.93 2.56 2.24 2.09 1.94 1.79 1.69 1.59 1.48 1.42
1168.961 1.39 1.39 1.33 1.32 1.37 1.3 1.27 1.26 1.13 1.08
1207.540 1.1 1.12 1.07 0.9418 0.9261 1.01 1.02 1.04 1.11 1.18
1246.120 1.29 1.39 1.51 1.69 1.97 2.39 2.88 3.47 3.97 4.17
1284.699 4.08 4.19 4.28 4.17 4.23 3.99 3.31 2.54 1.98 1.69
1323.279 1.53 1.48 1.46 1.47 1.48 1.5 1.51 1.54 1.54 1.54
1361.859 1.57 1.63 1.69 1.76 1.83 1.92 2.03 2.12 2.24 2.37
1400.438 2.5 2.64 2.81 2.97 3.11 3.22 3.32 3.46 3.65 3.85
1439.018 4.02 4.2 4.52 5.16 6.22 7.63 9.23 11.02 12.66 13.83
1477.597 14.53 15.07 15.58 15.67 15.26 14.45 12.58 9.96 7.56 6.2
1516.177 5.71 5.89 6.63 7.93 9.8 11.85 13.66 14.9 15.56 15.99
1554.756 16.16 16.1 15.94 15.32 13.87 12.1 10.58 9.6 9.35 9.8
1593.336 10.62 11.57 12.43 13 13.31 13.52 13.33 13 12.56 11.59
1631.915 10.32 8.7 6.99 5.62 4.61 3.97 3.49 3.14 2.92 2.73
1670.495 2.56 2.42 2.25 2.08 1.91 1.77 1.68 1.58 1.53 1.48
1709.075 1.46 1.47 1.46 1.43 1.4 1.37 1.37 1.37 1.35 1.34
1747.654 1.32 1.28 1.21 1.2 1.2 1.2 1.18 1.17 1.17 1.17
1786.234 1.16 1.17 1.17 1.17 1.17 1.14 1.13 1.13 1.13 1.13
1824.813 1.14 1.14 1.13 1.13 1.14 1.15 1.17 1.16 1.13 1.11
1863.393 1.1 1.12 1.11 1.08 1.07 1.08 1.09 1.08 1.07 1.06
1901.972 1.05 1.03 0.9949 0.9748 0.9961 0.9853 0.982 1 0.9987 0.9859
1940.552 0.9669 0.9695 0.9835 0.9961 1 1.01 1.03 1.02 1 0.9961
1979.131 0.9943 1.01 1.02 1.01 1 1.01 0.9896 0.9522 0.9278 0.9312
2017.711 0.9363 0.922 0.9221 0.9063 0.8822 0.9035 0.8937 0.8746 0.886 0.8806
2056.291 0.8893 0.8927 0.8853 0.8963 0.9071 0.8874 0.881 0.8848 0.883 0.8807
2094.870 0.868 0.8623 0.8564 0.8245 0.818 0.8143 0.7816 0.77 0.7811 0.7875
2133.450 0.7897 0.8037 0.8108 0.8017 0.8106 0.8271 0.8241 0.8396 0.8585 0.8783
2172.029 0.8865 0.88 0.8715 0.8576 0.8489 0.8197 0.7849 0.797 0.7996 0.768
2210.609 0.7566 0.7549 0.7408 0.7407 0.7459 0.7638 0.7857 0.7764 0.774 0.7936
2249.188 0.785 0.7619 0.7546 0.7318 0.7207 0.7131 0.696 0.7089 0.727 0.7285
2287.768 0.7274 0.7306 0.7346 0.7301 0.7398 0.746 0.7369 0.7442 0.7374 0.7206
2326.347 0.7285 0.7208 0.7173 0.7171 0.7071 0.7162 0.711 0.6969 0.7137 0.7235
2364.927 0.7043 0.6925 0.7062 0.7319 0.7357 0.7203 0.7153 0.7258 0.7483 0.7442
2403.507 0.7383 0.7442 0.7543 0.7597 0.7659 0.7772 0.7571 0.7647 0.7648 0.7705
2442.086 0.7798 0.7575 0.7402 0.7185 0.739 0.7646 0.7264 0.7058 0.7038 0.6845
2480.666 0.6842 0.6857 0.6826 0.6967 0.6978 0.6812 0.6785 0.7021 0.7217 0.7097
2519.245 0.7103 0.7371 0.7519 0.7613 0.7651 0.7584 0.7724 0.7914 0.7646 0.7631
2557.825 0.7976 0.7897 0.783 0.8008 0.8004 0.8037 0.8287 0.808 0.8182 0.8455
2596.404 0.8212 0.8133 0.8095 0.8049 0.815 0.8363 0.8431 0.8455 0.8536 0.8405
2634.984 0.8424 0.8394 0.823 0.8156 0.803 0.7657 0.7505 0.7495 0.7262 0.7217
2673.563 0.7144 0.6878 0.703 0.7283 0.7344 0.7457 0.7498 0.7445 0.732 0.7411
2712.143 0.7426 0.7225 0.7315 0.7533 0.7655 0.7444 0.7084 0.7011 0.6904 0.6854
2750.722 0.6813 0.6884 0.6937 0.655 0.6302 0.6474 0.6839 0.6932 0.6915 0.722
2789.302 0.7426 0.7454 0.7499 0.7225 0.6988 0.7266 0.7449 0.7448 0.7582 0.743
2827.882 0.7379 0.7563 0.7657 0.784 0.7801 0.7843 0.8316 0.8284 0.8038 0.7944
2866.461 0.8073 0.8438 0.8284 0.8467 0.8834 0.8652 0.8596 0.8532 0.8491 0.8415
2905.041 0.8247 0.8654 0.8586 0.856 0.8701 0.8522 0.8747 0.89 0.896 0.8768
2943.620 0.848 0.839 0.8093 0.8122 0.8268 0.8276 0.8403 0.8005 0.7622 0.7987
2982.200 0.8392 0.7951 0.7457 0.7508 0.7613 0.7921 0.7909 0.7983 0.8098 0.8099
3020.779 0.847 0.869 0.8894 0.9049 0.9171 0.9185 0.906 0.8986 0.8931 0.9186
3059.359 0.9688 0.9701 0.9659 1 1.01 1.01 1.01 1.03 1.08 1.12
3097.938 1.13 1.19 1.29 1.29 1.31 1.34 1.31 1.32 1.36 1.3
3136.518 1.25 1.22 1.16 1.09 1.03 1.02 0.959 0.9198 0.8778 0.8437
3175.098 0.8549 0.8449 0.8406 0.8302 0.8511 0.8772 0.8482 0.7943 0.7993 0.8274
3213.677 0.826 0.8336 0.8375 0.8651 0.8758 0.8591 0.8482 0.8535 0.8802 0.8981
3252.257 0.9303 0.9232 0.9077 0.891 0.9191 1 0.9611 0.8963 0.9327 0.9186
3290.836 0.8916 0.8763 0.8471 0.8562 0.8707 0.8842 0.925 0.9308 0.9065 0.898
3329.416 0.8948 0.9156 0.9839 1.06 1.07 1.05 1.07 1.08 1.05 1.21
3367.995 1.39 1.43 1.59 1.88 2.06 2.18 2.29 2.33 2.34 2.3
3406.575 2.28 2.24 2.09 1.87 1.66 1.56 1.57 1.54 1.6 1.71
3445.154 1.83 2.05 2.35 2.65 3 3.45 3.88 4.35 4.72 5.03
3483.734 5.58 6.32 7.13 7.77 8.18 8.61 9.38 10.8 12.62 13.77
3522.314 13.33 11.98 11.03 10.54 10.65 10.65 9.13 6.79 4.67 3.16
3560.893 2.25 1.72 1.41 1.21 1.03 0.9385 0.8796 0.8343 0.8175 0.7784
3599.473 0.7794 0.771 0.7653 0.7761 0.7385 0.7824 0.8227 0.8227 0.8611 0.8073
3638.052 0.7279 0.7049 0.7278 0.7238 0.7289 0.7605 0.7436 0.7106 0.7092 0.7242
3676.632 0.735 0.724 0.6972 0.71 0.6949 0.6963 0.7669 0.8104 0.8153 0.772
3715.211 0.6938 0.6602 0.6888 0.6736 0.6901 0.757 0.7004 0.6574 0.6662 0.7155
3753.791 0.6787 0.6028 0.6265 0.6253 0.6252 0.6552 0.677 0.7016 0.7263 0.6842
3792.370 0.67 0.7259 0.6822 0.626 0.6275 0.586 0.6687 0.7435 0.7045 0.6751
3830.950 0.7266 0.7804 0.7112 0.7006 0.6724 0.6238 0.6517 0.665 0.6775 0.6833
3869.530 0.6335 0.6477 0.7186 0.718 0.6891 0.7013 0.7156 0.7447 0.7418 0.7136
3908.109 0.7966 0.8464 0.8343 0.7985 0.7528 0.7933 0.8231 0.8098 0.8298 0.8382
3946.689 0.7794 0.7654 0.7588 0.6816 0.7097 0.7867 0.7987 0.7612 0.7427 0.7394
3985.268 0.7141 0.7392 0.7569 0.6718 0.716
##END=
