##TITLE=METHANE, DIBROMOFLUORO-
##JCAMP-DX=4.24
##DATA TYPE=INFRARED SPECTRUM
##CLASS=COBLENTZ
##ORIGIN=DOW CHEMICAL COMPANY
##OWNER=COBLENTZ SOCIETY
Collection (C) 2018 copyright by the U.S. Secretary of Commerce
on behalf of the United States of America. All rights reserved.
##DATE=1968/11/29
##NAMES=dibromo(fluoro)methane
##CAS REGISTRY NO=1868-53-7
##MOLFORM=C H Br2 F
##SOURCE REFERENCE=COBLENTZ NO. 10479
##$NIST SOURCE=COBLENTZ
##$NIST IMAGE=cob10479
##SPECTROMETER/DATA SYSTEM=PERKIN-ELMER 225
##STATE=GAS (100 mmHg DILUTED TO ATMOSPHERIC PRESSURE WITH N2)
##PATH LENGTH=5 CM CsI CELL
##SAMPLING PROCEDURE=TRANSMISSION
##RESOLUTION=4
##DATA PROCESSING=DIGITIZED BY NIST FROM HARD COPY (FROM TWO SEGMENTS)
##XUNITS=1/CM
##YUNITS=TRANSMITTANCE
##XFACTOR=1.000000
##YFACTOR=1
##DELTAX=0.866873
##FIRSTX=350.341
##LASTX=3799.63
##FIRSTY=0.736
##MAXX=3799.63
##MINX=350.341
##MAXY=1
##MINY=0.006
##NPOINTS=3980
##XYDATA=(X++(Y..Y))
350.341000 0.7360 0.7360 0.7360 0.7360 0.7340
354.675367 0.7340 0.7310 0.7290 0.7270 0.7250
359.009734 0.7230 0.7220 0.7230 0.7260 0.7270
363.344100 0.7300 0.7310 0.7330 0.7330 0.7340
367.678467 0.7360 0.7380 0.7400 0.7410 0.7410
372.012834 0.7420 0.7420 0.7440 0.7440 0.7450
376.347201 0.7450 0.7460 0.7460 0.7480 0.7480
380.681567 0.7490 0.7490 0.7510 0.7510 0.7510
385.015934 0.7510 0.7510 0.7510 0.7510 0.7510
389.350301 0.7490 0.7490 0.7480 0.7460 0.7450
393.684668 0.7440 0.7420 0.7410 0.7400 0.7380
398.019034 0.7370 0.7360 0.7340 0.7330 0.7330
402.353401 0.7340 0.7340 0.7360 0.7370 0.7380
406.687768 0.7380 0.7380 0.7400 0.7400 0.7400
411.022135 0.7410 0.7410 0.7420 0.7420 0.7420
415.356501 0.7420 0.7420 0.7420 0.7420 0.7420
419.690868 0.7420 0.7420 0.7410 0.7410 0.7410
424.025235 0.7410 0.7400 0.7400 0.7400 0.7380
428.359602 0.7380 0.7380 0.7380 0.7400 0.7400
432.693968 0.7420 0.7440 0.7450 0.7450 0.7460
437.028335 0.7460 0.7460 0.7460 0.7460 0.7460
441.362702 0.7460 0.7450 0.7440 0.7440 0.7410
445.697069 0.7410 0.7400 0.7340 0.7330 0.7300
450.031435 0.7290 0.7300 0.7370 0.7410 0.7460
454.365802 0.7510 0.7550 0.7570 0.7610 0.7630
458.700169 0.7670 0.7740 0.7760 0.7780 0.7790
463.034536 0.7800 0.7820 0.7830 0.7860 0.7870
467.368902 0.7890 0.7900 0.7910 0.7910 0.7930
471.703269 0.7930 0.7950 0.7970 0.7980 0.7980
476.037636 0.7980 0.7980 0.7980 0.7980 0.7980
480.372003 0.7970 0.7970 0.7950 0.7950 0.7950
484.706369 0.7940 0.7940 0.7940 0.7940 0.7940
489.040736 0.7950 0.7950 0.7970 0.7970 0.7970
493.375103 0.7970 0.7950 0.7950 0.7940 0.7940
497.709470 0.7940 0.7940 0.7930 0.7930 0.7930
502.043836 0.7930 0.7930 0.7930 0.7910 0.7910
506.378203 0.7900 0.7890 0.7870 0.7870 0.7860
510.712570 0.7860 0.7850 0.7830 0.7820 0.7820
515.046937 0.7800 0.7790 0.7790 0.7790 0.7780
519.381303 0.7780 0.7760 0.7760 0.7750 0.7740
523.715670 0.7710 0.7700 0.7680 0.7650 0.7610
528.050037 0.7590 0.7550 0.7420 0.7400 0.7340
532.384404 0.7290 0.7230 0.7190 0.7170 0.7100
536.718770 0.7020 0.6930 0.6920 0.6920 0.6920
541.053137 0.6930 0.6950 0.6960 0.6960 0.6960
545.387504 0.6960 0.6950 0.6930 0.6910 0.6870
549.721871 0.6820 0.6820 0.6970 0.7180 0.7190
554.056237 0.7190 0.7140 0.7120 0.7110 0.7120
558.390604 0.7150 0.7190 0.7260 0.7360 0.7450
562.724971 0.7600 0.7750 0.7820 0.7870 0.7890
567.059338 0.7910 0.7930 0.7930 0.7930 0.7910
571.393704 0.7910 0.7890 0.7890 0.7870 0.7860
575.728071 0.7850 0.7830 0.7820 0.7790 0.7760
580.062438 0.7740 0.7720 0.7710 0.7710 0.7700
584.396805 0.7700 0.7680 0.7680 0.7670 0.7670
588.731171 0.7650 0.7630 0.7610 0.7570 0.7460
593.065538 0.7420 0.7410 0.7360 0.7270 0.7220
597.399905 0.7120 0.7080 0.7000 0.6880 0.6721
601.734272 0.6550 0.6380 0.6210 0.6060 0.5900
606.068638 0.5591 0.5271 0.5031 0.4871 0.4631
610.403005 0.4350 0.4020 0.3680 0.3340 0.3020
614.737372 0.2730 0.2500 0.2320 0.2121 0.2050
619.071739 0.1860 0.1800 0.1800 0.1970 0.2040
623.406105 0.2050 0.2060 0.2080 0.2080 0.2060
627.740472 0.1260 0.1260 0.1360 0.1889 0.2000
632.074839 0.2120 0.2379 0.2629 0.2869 0.3029
636.409206 0.3120 0.3230 0.3330 0.3360 0.3480
640.743573 0.3550 0.3570 0.3600 0.3630 0.3680
645.077939 0.3760 0.3860 0.3970 0.4100 0.4230
649.412306 0.4360 0.4470 0.4590 0.4690 0.4989
653.746673 0.5000 0.5030 0.5040 0.5080 0.5110
658.081040 0.5409 0.5829 0.6059 0.6319 0.6997
662.415406 0.7270 0.7650 0.7890 0.7970 0.8020
666.749773 0.8040 0.8050 0.8040 0.8020 0.7940
671.084140 0.7780 0.7630 0.7510 0.7290 0.7250
675.418507 0.7250 0.7340 0.7360 0.7330 0.7290
679.752873 0.7220 0.7060 0.6870 0.6680 0.6470
684.087240 0.6280 0.6090 0.5940 0.5790 0.5680
688.421607 0.5610 0.5480 0.5300 0.5020 0.4591
692.755974 0.4231 0.3871 0.3122 0.2422 0.1793
697.090340 0.1230 0.1000 0.0760 0.0350 0.0120
701.424707 0.0100 0.0100 0.0100 0.0100 0.0100
705.759074 0.0100 0.0090 0.0090 0.0090 0.0090
710.093441 0.0090 0.0090 0.0090 0.0090 0.0090
714.427807 0.0090 0.0090 0.0090 0.0090 0.0090
718.762174 0.0090 0.0090 0.0090 0.0100 0.2491
723.096541 0.3040 0.3310 0.3780 0.4250 0.4779
727.430908 0.5169 0.5330 0.5400 0.5420 0.5440
731.765274 0.5490 0.5570 0.5640 0.5700 0.5700
736.099641 0.5461 0.5440 0.5440 0.5490 0.5639
740.434008 0.5930 0.6210 0.6360 0.6730 0.6850
744.768375 0.6870 0.6840 0.6820 0.6760 0.6650
749.102741 0.6530 0.6390 0.6120 0.5910 0.5750
753.437108 0.5560 0.5420 0.5171 0.4971 0.4801
757.771475 0.4540 0.4290 0.3680 0.2971 0.2840
762.105842 0.2660 0.2480 0.2121 0.1682 0.1232
766.440208 0.1080 0.0920 0.0800 0.0690 0.0610
770.774575 0.0610 0.0620 0.0630 0.0650 0.0730
775.108942 0.0760 0.1150 0.1220 0.1720 0.2200
779.443309 0.2619 0.3029 0.3399 0.3749 0.4059
783.777675 0.4360 0.4660 0.4920 0.5370 0.5750
788.112042 0.6099 0.6399 0.6659 0.6889 0.7079
792.446409 0.7250 0.7380 0.7490 0.7590 0.7650
796.780776 0.7720 0.7780 0.7820 0.7860 0.7900
801.115142 0.7940 0.7980 0.7980 0.8000 0.8000
805.449509 0.8000 0.8000 0.7980 0.7980 0.7970
809.783876 0.7950 0.7940 0.7940 0.7930 0.7910
814.118243 0.7900 0.7900 0.7890 0.7890 0.7870
818.452609 0.7890 0.7890 0.7910 0.7930 0.7970
822.786976 0.8010 0.8050 0.8060 0.8100 0.8140
827.121343 0.8200 0.8250 0.8320 0.8400 0.8440
831.455710 0.8480 0.8500 0.8510 0.8510 0.8510
835.790076 0.8510 0.8530 0.8530 0.8530 0.8530
840.124443 0.8530 0.8530 0.8530 0.8530 0.8530
844.458810 0.8530 0.8530 0.8530 0.8530 0.8530
848.793177 0.8530 0.8530 0.8530 0.8530 0.8530
853.127543 0.8530 0.8510 0.8510 0.8510 0.8510
857.461910 0.8500 0.8500 0.8500 0.8500 0.8480
861.796277 0.8480 0.8470 0.8460 0.8440 0.8430
866.130644 0.8430 0.8420 0.8420 0.8400 0.8380
870.465010 0.8360 0.8360 0.8350 0.8340 0.8340
874.799377 0.8340 0.8340 0.8340 0.8350 0.8350
879.133744 0.8360 0.8380 0.8390 0.8390 0.8400
883.468111 0.8420 0.8440 0.8440 0.8440 0.8440
887.802477 0.8440 0.8440 0.8440 0.8440 0.8440
892.136844 0.8440 0.8440 0.8440 0.8430 0.8430
896.471211 0.8420 0.8400 0.8400 0.8380 0.8360
900.805578 0.8350 0.8340 0.8320 0.8310 0.8290
905.139944 0.8290 0.8280 0.8280 0.8280 0.8270
909.474311 0.8240 0.8200 0.8140 0.8100 0.8080
913.808678 0.8060 0.8050 0.8040 0.8020 0.8020
918.143045 0.8010 0.8010 0.8010 0.8010 0.8000
922.477412 0.7980 0.7980 0.7980 0.8000 0.8020
926.811778 0.8050 0.8090 0.8120 0.8160 0.8210
931.146145 0.8230 0.8280 0.8310 0.8320 0.8340
935.480512 0.8350 0.8360 0.8360 0.8360 0.8380
939.814879 0.8380 0.8380 0.8380 0.8380 0.8380
944.149245 0.8380 0.8380 0.8380 0.8390 0.8400
948.483612 0.8400 0.8420 0.8430 0.8440 0.8440
952.817979 0.8440 0.8460 0.8460 0.8470 0.8470
957.152346 0.8470 0.8470 0.8470 0.8460 0.8460
961.486712 0.8440 0.8440 0.8430 0.8430 0.8430
965.821079 0.8420 0.8400 0.8400 0.8390 0.8380
970.155446 0.8380 0.8360 0.8310 0.8270 0.8250
974.489813 0.8240 0.8240 0.8250 0.8250 0.8250
978.824179 0.8250 0.8240 0.8240 0.8230 0.8210
983.158546 0.8200 0.8170 0.8140 0.8100 0.8080
987.492913 0.8080 0.8060 0.8060 0.8060 0.8050
991.827280 0.8020 0.8000 0.7950 0.7900 0.7870
996.161646 0.7820 0.7790 0.7750 0.7740 0.7740
1000.496013 0.7740 0.7750 0.7750 0.7760 0.7780
1004.830380 0.7780 0.7790 0.7800 0.7800 0.7800
1009.164747 0.7800 0.7820 0.7820 0.7830 0.7860
1013.499113 0.7930 0.8000 0.8050 0.8090 0.8100
1017.833480 0.8100 0.8130 0.8130 0.8100 0.8090
1022.167847 0.8060 0.8010 0.7980 0.7970 0.7930
1026.502214 0.7870 0.7790 0.7720 0.7640 0.7560
1030.836580 0.7460 0.7360 0.7250 0.7121 0.6991
1035.170947 0.6840 0.6680 0.6500 0.6290 0.6090
1039.505314 0.5850 0.5601 0.5311 0.5021 0.4691
1043.839681 0.4340 0.4060 0.3760 0.3450 0.3110
1048.174047 0.2771 0.2421 0.2051 0.1681 0.1331
1052.508414 0.1150 0.0960 0.0610 0.0250 0.0170
1056.842781 0.0130 0.0100 0.0090 0.0080 0.0060
1061.177148 0.0060 0.0080 0.0080 0.0080 0.0080
1065.511514 0.0080 0.0080 0.0080 0.0080 0.0080
1069.845881 0.0080 0.0080 0.0080 0.0080 0.0080
1074.180248 0.0080 0.0080 0.0080 0.0080 0.0080
1078.514615 0.0060 0.0060 0.0060 0.0080 0.0080
1082.848981 0.0080 0.0090 0.0100 0.0120 0.0130
1087.183348 0.0170 0.0210 0.0280 0.0360 0.1019
1091.517715 0.1379 0.1779 0.2189 0.2618 0.3068
1095.852082 0.3551 0.4050 0.4570 0.5100 0.5640
1100.186448 0.6199 0.6809 0.7169 0.7559 0.7590
1104.520815 0.7820 0.8020 0.8090 0.8130 0.8140
1108.855182 0.8140 0.8140 0.8130 0.8130 0.8130
1113.189549 0.8120 0.8120 0.8120 0.8120 0.8120
1117.523915 0.8100 0.8100 0.8100 0.8080 0.8080
1121.858282 0.8050 0.8040 0.8020 0.8010 0.8010
1126.192649 0.7980 0.7970 0.7970 0.7950 0.7930
1130.527016 0.7900 0.7870 0.7850 0.7830 0.7800
1134.861382 0.7790 0.7760 0.7710 0.7640 0.7610
1139.195749 0.7560 0.7490 0.7410 0.7330 0.7230
1143.530116 0.7070 0.7030 0.6930 0.6810 0.6591
1147.864483 0.6430 0.6320 0.6190 0.6020 0.5760
1152.198849 0.5700 0.5560 0.5181 0.4632 0.3873
1156.533216 0.2909 0.2309 0.1710 0.0970 0.0241
1160.867583 0.0200 0.0130 0.0100 0.0090 0.0080
1165.201950 0.0060 0.0060 0.0080 0.0090 0.0170
1169.536316 0.0200 0.0310 0.0340 0.0240 0.0170
1173.870683 0.0100 0.0080 0.0080 0.0090 0.0140
1178.205050 0.0210 0.0439 0.2344 0.3516 0.4476
1182.539417 0.5290 0.6050 0.6840 0.7379 0.7610
1186.873783 0.7750 0.7760 0.7760 0.7760 0.7750
1191.208150 0.7740 0.7720 0.7710 0.7700 0.7670
1195.542517 0.7640 0.7630 0.7610 0.7590 0.7550
1199.876884 0.7510 0.7440 0.7360 0.7270 0.7170
1204.211251 0.7060 0.6920 0.6780 0.6621 0.6441
1208.545617 0.6270 0.6060 0.5850 0.5610 0.5370
1212.879984 0.5101 0.4821 0.4531 0.4201 0.3951
1217.214351 0.3940 0.3740 0.3710 0.3740 0.4049
1221.548718 0.4379 0.4719 0.4949 0.4970 0.5000
1225.883084 0.5020 0.5040 0.5120 0.5230 0.5260
1230.217451 0.5340 0.5590 0.5301 0.5021 0.5339
1234.551818 0.5380 0.5400 0.5400 0.5380 0.5310
1238.886185 0.5310 0.5370 0.5450 0.5600 0.5869
1243.220551 0.6040 0.6160 0.6250 0.6400 0.6620
1247.554918 0.6700 0.6730 0.6740 0.6740 0.6740
1251.889285 0.6760 0.6880 0.7070 0.7210 0.7330
1256.223652 0.7410 0.7480 0.7530 0.7570 0.7610
1260.558018 0.7650 0.7700 0.7750 0.7790 0.7800
1264.892385 0.7800 0.7820 0.7800 0.7750 0.7700
1269.226752 0.7610 0.7550 0.7490 0.7410 0.7300
1273.561119 0.7170 0.7020 0.6841 0.6631 0.6431
1277.895485 0.6210 0.5980 0.5750 0.5510 0.5260
1282.229852 0.5030 0.4781 0.4541 0.4311 0.4091
1286.564219 0.3870 0.3860 0.3630 0.3600 0.3630
1290.898586 0.3740 0.3860 0.3890 0.3890 0.3113
1295.232952 0.2461 0.3150 0.3830 0.4090 0.3900
1299.567319 0.3790 0.3750 0.3940 0.4309 0.4529
1303.901686 0.4690 0.4840 0.4960 0.5110 0.5270
1308.236053 0.5530 0.5759 0.5939 0.6119 0.6279
1312.570419 0.6460 0.6610 0.6770 0.6910 0.7060
1316.904786 0.7180 0.7300 0.7410 0.7520 0.7590
1321.239153 0.7640 0.7650 0.7650 0.7650 0.7640
1325.573520 0.7600 0.7560 0.7530 0.7510 0.7510
1329.907886 0.7510 0.7520 0.7520 0.7530 0.7550
1334.242253 0.7560 0.7590 0.7600 0.7610 0.7630
1338.576620 0.7650 0.7700 0.7750 0.7800 0.8010
1342.910987 0.8080 0.8100 0.8130 0.8130 0.8140
1347.245353 0.8140 0.8140 0.8140 0.8130 0.8120
1351.579720 0.8100 0.8090 0.8080 0.8060 0.8050
1355.914087 0.8020 0.8010 0.7980 0.7950 0.7910
1360.248454 0.7870 0.7850 0.7800 0.7760 0.7740
1364.582820 0.7710 0.7700 0.7680 0.7650 0.7650
1368.917187 0.7640 0.7650 0.7670 0.7700 0.7740
1373.251554 0.7790 0.7820 0.7820 0.7820 0.7740
1377.585921 0.7630 0.7570 0.7510 0.7450 0.7420
1381.920287 0.7420 0.7440 0.7480 0.7490 0.7520
1386.254654 0.7520 0.7520 0.7510 0.7331 0.7330
1390.589021 0.7550 0.7740 0.7780 0.7850 0.7860
1394.923388 0.7870 0.7870 0.7890 0.7890 0.7890
1399.257754 0.7870 0.7860 0.7860 0.7850 0.7850
1403.592121 0.7830 0.7830 0.7820 0.7790 0.7750
1407.926488 0.7740 0.7720 0.7710 0.7710 0.7710
1412.260855 0.7700 0.7700 0.7680 0.7680 0.7670
1416.595221 0.7670 0.7670 0.7650 0.7650 0.7640
1420.929588 0.7630 0.7630 0.7590 0.7560 0.7570
1425.263955 0.7600 0.7640 0.7670 0.7700 0.7740
1429.598322 0.7780 0.7830 0.7860 0.7870 0.7870
1433.932688 0.7870 0.7870 0.7870 0.7870 0.7870
1438.267055 0.7860 0.7860 0.7870 0.7870 0.7900
1442.601422 0.7940 0.7940 0.7950 0.7950 0.7950
1446.935789 0.7970 0.7970 0.7970 0.7970 0.7950
1451.270155 0.7950 0.7940 0.7930 0.7930 0.7910
1455.604522 0.7900 0.7890 0.7890 0.7890 0.7890
1459.938889 0.7890 0.7900 0.7910 0.7910 0.7930
1464.273256 0.7930 0.7930 0.7930 0.7900 0.7870
1468.607622 0.7780 0.7700 0.7700 0.7710 0.7980
1472.941989 0.8010 0.8040 0.8050 0.8080 0.8090
1477.276356 0.8100 0.8120 0.8130 0.8140 0.8160
1481.610723 0.8170 0.8190 0.8200 0.8210 0.8230
1485.945090 0.8240 0.8280 0.8320 0.8350 0.8390
1490.279456 0.8430 0.8460 0.8480 0.8500 0.8510
1494.613823 0.8510 0.8530 0.8530 0.8540 0.8540
1498.948190 0.8550 0.8550 0.8570 0.8570 0.8580
1503.282557 0.8580 0.8580 0.8580 0.8580 0.8580
1507.616923 0.8580 0.8580 0.8580 0.8580 0.8580
1511.951290 0.8580 0.8580 0.8580 0.8580 0.8580
1516.285657 0.8580 0.8580 0.8580 0.8570 0.8570
1520.620024 0.8550 0.8550 0.8550 0.8550 0.8550
1524.954390 0.8550 0.8550 0.8570 0.8580 0.8580
1529.288757 0.8580 0.8580 0.8580 0.8580 0.8580
1533.623124 0.8590 0.8590 0.8610 0.8610 0.8610
1537.957491 0.8610 0.8610 0.8610 0.8610 0.8610
1542.291857 0.8610 0.8620 0.8620 0.8620 0.8620
1546.626224 0.8620 0.8620 0.8620 0.8620 0.8620
1550.960591 0.8630 0.8630 0.8630 0.8650 0.8660
1555.294958 0.8660 0.8660 0.8660 0.8660 0.8680
1559.629324 0.8680 0.8680 0.8680 0.8680 0.8680
1563.963691 0.8680 0.8660 0.8660 0.8660 0.8650
1568.298058 0.8650 0.8630 0.8630 0.8630 0.8630
1572.632425 0.8630 0.8630 0.8630 0.8630 0.8630
1576.966791 0.8630 0.8630 0.8630 0.8650 0.8650
1581.301158 0.8680 0.8690 0.8690 0.8690 0.8700
1585.635525 0.8700 0.8700 0.8700 0.8700 0.8700
1589.969892 0.8700 0.8700 0.8700 0.8700 0.8700
1594.304258 0.8700 0.8690 0.8690 0.8690 0.8690
1598.638625 0.8680 0.8680 0.8680 0.8680 0.8680
1602.972992 0.8680 0.8680 0.8680 0.8680 0.8680
1607.307359 0.8680 0.8680 0.8680 0.8680 0.8660
1611.641725 0.8650 0.8650 0.8630 0.8630 0.8620
1615.976092 0.8610 0.8590 0.8580 0.8570 0.8570
1620.310459 0.8540 0.8530 0.8500 0.8480 0.8460
1624.644826 0.8440 0.8430 0.8430 0.8420 0.8420
1628.979192 0.8430 0.8440 0.8460 0.8470 0.8510
1633.313559 0.8530 0.8540 0.8540 0.8550 0.8570
1637.647926 0.8570 0.8570 0.8570 0.8590 0.8610
1641.982293 0.8620 0.8630 0.8630 0.8650 0.8650
1646.316659 0.8680 0.8690 0.8690 0.8700 0.8700
1650.651026 0.8720 0.8720 0.8720 0.8720 0.8730
1654.985393 0.8730 0.8730 0.8730 0.8730 0.8730
1659.319760 0.8730 0.8720 0.8720 0.8730 0.8740
1663.654126 0.8740 0.8760 0.8760 0.8760 0.8760
1667.988493 0.8760 0.8760 0.8760 0.8760 0.8760
1672.322860 0.8740 0.8740 0.8730 0.8730 0.8720
1676.657227 0.8720 0.8700 0.8700 0.8700 0.8690
1680.991593 0.8690 0.8690 0.8690 0.8690 0.8690
1685.325960 0.8690 0.8690 0.8690 0.8690 0.8700
1689.660327 0.8700 0.8700 0.8700 0.8700 0.8700
1693.994694 0.8700 0.8700 0.8700 0.8700 0.8700
1698.329060 0.8700 0.8700 0.8700 0.8700 0.8700
1702.663427 0.8700 0.8700 0.8700 0.8700 0.8700
1706.997794 0.8700 0.8700 0.8690 0.8690 0.8690
1711.332161 0.8690 0.8680 0.8680 0.8680 0.8680
1715.666527 0.8680 0.8680 0.8680 0.8680 0.8680
1720.000894 0.8680 0.8680 0.8680 0.8680 0.8680
1724.335261 0.8680 0.8680 0.8680 0.8680 0.8680
1728.669628 0.8680 0.8680 0.8680 0.8680 0.8680
1733.003994 0.8680 0.8680 0.8680 0.8660 0.8660
1737.338361 0.8660 0.8660 0.8650 0.8650 0.8650
1741.672728 0.8650 0.8650 0.8650 0.8660 0.8660
1746.007095 0.8660 0.8680 0.8680 0.8680 0.8680
1750.341461 0.8680 0.8680 0.8690 0.8690 0.8690
1754.675828 0.8690 0.8690 0.8690 0.8700 0.8700
1759.010195 0.8720 0.8720 0.8730 0.8730 0.8740
1763.344562 0.8740 0.8760 0.8760 0.8760 0.8740
1767.678929 0.8740 0.8760 0.8770 0.8760 0.8760
1772.013295 0.8760 0.8770 0.8770 0.8770 0.8770
1776.347662 0.8770 0.8770 0.8770 0.8770 0.8770
1780.682029 0.8760 0.8760 0.8760 0.8760 0.8760
1785.016396 0.8760 0.8760 0.8760 0.8780 0.8780
1789.350762 0.8780 0.8800 0.8800 0.8780 0.8780
1793.685129 0.8780 0.8770 0.8770 0.8770 0.8770
1798.019496 0.8760 0.8760 0.8760 0.8760 0.8760
1802.353863 0.8770 0.8770 0.8800 0.8800 0.8810
1806.688229 0.8800 0.8800 0.8800 0.8780 0.8780
1811.022596 0.8780 0.8780 0.8780 0.8800 0.8800
1815.356963 0.8810 0.8810 0.8810 0.8810 0.8820
1819.691330 0.8840 0.8840 0.8810 0.8800 0.8800
1824.025696 0.8780 0.8780 0.8780 0.8800 0.8800
1828.360063 0.8800 0.8810 0.8820 0.8820 0.8820
1832.694430 0.8840 0.8840 0.8840 0.8800 0.8800
1837.028797 0.8800 0.8800 0.8810 0.8810 0.8820
1841.363163 0.8820 0.8810 0.8820 0.8820 0.8820
1845.697530 0.8820 0.8820 0.8820 0.8820 0.8820
1850.031897 0.8820 0.8820 0.8820 0.8820 0.8820
1854.366264 0.8820 0.8820 0.8810 0.8810 0.8810
1858.700630 0.8810 0.8800 0.8800 0.8800 0.8800
1863.034997 0.8800 0.8800 0.8800 0.8800 0.8800
1867.369364 0.8800 0.8800 0.8800 0.8800 0.8800
1871.703731 0.8810 0.8810 0.8810 0.8810 0.8810
1876.038097 0.8810 0.8810 0.8810 0.8810 0.8810
1880.372464 0.8810 0.8810 0.8820 0.8810 0.8800
1884.706831 0.8800 0.8800 0.8800 0.8810 0.8810
1889.041198 0.8810 0.8810 0.8820 0.8820 0.8820
1893.375564 0.8840 0.8840 0.8840 0.8840 0.8810
1897.709931 0.8810 0.8800 0.8800 0.8820 0.8820
1902.044298 0.8840 0.8840 0.8840 0.8820 0.8810
1906.378665 0.8810 0.8800 0.8800 0.8780 0.8780
1910.713031 0.8780 0.8800 0.8810 0.8820 0.8820
1915.047398 0.8840 0.8840 0.8840 0.8840 0.8820
1919.381765 0.8820 0.8820 0.8810 0.8810 0.8800
1923.716132 0.8770 0.8770 0.8760 0.8760 0.8760
1928.050498 0.8760 0.8770 0.8770 0.8780 0.8780
1932.384865 0.8800 0.8800 0.8800 0.8780 0.8780
1936.719232 0.8800 0.8810 0.8820 0.8820 0.8820
1941.053599 0.8820 0.8820 0.8840 0.8840 0.8840
1945.387965 0.8820 0.8810 0.8800 0.8800 0.8800
1949.722332 0.8800 0.8810 0.8810 0.8810 0.8810
1954.056699 0.8810 0.8810 0.8810 0.8810 0.8820
1958.391066 0.8820 0.8820 0.8840 0.8840 0.8840
1962.725432 0.8840 0.8840 0.8840 0.8850 0.8850
1967.059799 0.8850 0.8850 0.8850 0.8850 0.8870
1971.394166 0.8870 0.8870 0.8880 0.8880 0.8880
1975.728533 0.8880 0.8880 0.8880 0.8880 0.8870
1980.062899 0.8870 0.8850 0.8850 0.8850 0.8850
1984.397266 0.8850 0.8850 0.8850 0.8840 0.8840
1988.731633 0.8840 0.8840 0.8840 0.8840 0.8840
1993.066000 0.8850 0.8850 0.8850 0.8870 0.8870
1997.400366 0.8870 0.8880 0.8880 0.8880 0.8885
2001.734733 0.8890 0.8900 0.8910 0.8910 0.8910
2006.069100 0.8915 0.8920 0.8920 0.8920 0.8920
2010.403467 0.8920 0.8925 0.8930 0.8930 0.8930
2014.737833 0.8930 0.8930 0.8930 0.8930 0.8940
2019.072200 0.8950 0.8950 0.8950 0.8950 0.8950
2023.406567 0.8960 0.8970 0.8970 0.8970 0.8970
2027.740934 0.8970 0.8970 0.8970 0.8970 0.8970
2032.075300 0.8970 0.8970 0.8980 0.8990 0.8990
2036.409667 0.8990 0.8990 0.8990 0.8990 0.8990
2040.744034 0.8990 0.8990 0.8995 0.9000 0.9000
2045.078401 0.9000 0.9000 0.9000 0.9000 0.9000
2049.412768 0.9000 0.9000 0.9010 0.9020 0.9020
2053.747134 0.9020 0.9020 0.9020 0.9020 0.9020
2058.081501 0.9020 0.9020 0.9020 0.9020 0.9020
2062.415868 0.9020 0.9020 0.9020 0.9020 0.9020
2066.750235 0.9020 0.9020 0.9020 0.9020 0.9020
2071.084601 0.9020 0.9020 0.9020 0.9010 0.9000
2075.418968 0.9000 0.9000 0.9000 0.9000 0.8995
2079.753335 0.8990 0.8990 0.8990 0.8975 0.8961
2084.087702 0.8955 0.8950 0.8940 0.8930 0.8930
2088.422068 0.8930 0.8925 0.8920 0.8915 0.8910
2092.756435 0.8910 0.8910 0.8900 0.8890 0.8890
2097.090802 0.8890 0.8880 0.8870 0.8856 0.8841
2101.425169 0.8826 0.8811 0.8810 0.8810 0.8776
2105.759535 0.8741 0.8721 0.8701 0.8637 0.8572
2110.093902 0.8507 0.8442 0.8382 0.8322 0.8257
2114.428269 0.8192 0.8123 0.8053 0.7978 0.7903
