##TITLE=2-Propanol, 1-bromo-
##JCAMP-DX=4.24
$$ By DXEDIT 1.05 (RS McDonald)
##DATA TYPE=INFRARED SPECTRUM
##CLASS=COBLENTZ III
##ORIGIN=DOW CHEMICAL COMPANY
##OWNER=COPYRIGHT (C) 1988 by COBLENTZ SOCIETY INC.
Collection (C) 2018 copyright by the U.S. Secretary of Commerce
on behalf of the United States of America. All rights reserved.
##DATE=1964/08/31
##NAMES=1-bromo-2-propanol
##CAS REGISTRY NO=19686-73-8
##MOLFORM=C3 H7 Br O
##SOURCE REFERENCE=COBLENTZ NO. 5702
##$NIST SOURCE=COBLENTZ
##$NIST IMAGE=cob5702
##SPECTROMETER/DATA SYSTEM=BECKMAN IR-9 (GRATING)
##INSTRUMENT PARAMETERS=ORDER CHANGES: 670, 1200, 2000 CM^-^1
##STATE=SOLUTION (10% CCl4 FOR 2.6-7.5, 10% CS2 FOR 7.5-25 MICRON)
##PATH LENGTH=0.011 CM, 0.011 CM
$$SPECTRAL CONTAMINATION DUE TO CS2 AROUND 400, 850, AND CCl4 AROUND 1550 CM^-^1 HAVE BEEN SUBTRACTED
##SAMPLING PROCEDURE=TRANSMISSION
##RESOLUTION=2
##DATA PROCESSING=DIGITIZED BY COBLENTZ SOCIETY (BATCH I) FROM HARD COPY
##XUNITS=1/CM
##YUNITS=TRANSMITTANCE
##XFACTOR=1
##YFACTOR=1
##DELTAX=1
##FIRSTX=3814
##LASTX=398
##FIRSTY=0.9321
##MAXX=3814
##MINX=398
##MAXY=0.9643
##MINY=0.2425
##NPOINTS=3417
##XYDATA=(X++(Y..Y))
3814.000000 0.9321 0.9314 0.9314 0.9322 0.9327
3809.000000 0.9315 0.9311 0.9322 0.9325 0.9324
3804.000000 0.9324 0.9323 0.9309 0.9309 0.9309
3799.000000 0.9307 0.9307 0.9309 0.9318 0.9309
3794.000000 0.9320 0.9318 0.9318 0.9317 0.9316
3789.000000 0.9315 0.9314 0.9313 0.9312 0.9311
3784.000000 0.9302 0.9296 0.9295 0.9304 0.9307
3779.000000 0.9294 0.9304 0.9305 0.9304 0.9289
3774.000000 0.9302 0.9300 0.9298 0.9297 0.9296
3769.000000 0.9295 0.9294 0.9292 0.9291 0.9290
3764.000000 0.9289 0.9287 0.9286 0.9285 0.9291
3759.000000 0.9288 0.9281 0.9279 0.9278 0.9275
3754.000000 0.9275 0.9272 0.9270 0.9267 0.9265
3749.000000 0.9262 0.9260 0.9256 0.9254 0.9251
3744.000000 0.9248 0.9245 0.9243 0.9240 0.9237
3739.000000 0.9238 0.9246 0.9242 0.9239 0.9234
3734.000000 0.9223 0.9211 0.9215 0.9217 0.9213
3729.000000 0.9208 0.9204 0.9199 0.9195 0.9191
3724.000000 0.9186 0.9181 0.9177 0.9171 0.9164
3719.000000 0.9143 0.9137 0.9141 0.9134 0.9127
3714.000000 0.9119 0.9111 0.9108 0.9106 0.9094
3709.000000 0.9093 0.9086 0.9077 0.9067 0.9056
3704.000000 0.9044 0.9032 0.9021 0.9008 0.8997
3699.000000 0.8985 0.8974 0.8960 0.8936 0.8919
3694.000000 0.8908 0.8894 0.8882 0.8876 0.8870
3689.000000 0.8870 0.8869 0.8870 0.8865 0.8869
3684.000000 0.8874 0.8878 0.8884 0.8884 0.8885
3679.000000 0.8885 0.8886 0.8886 0.8886 0.8886
3674.000000 0.8886 0.8885 0.8883 0.8877 0.8883
3669.000000 0.8867 0.8860 0.8853 0.8849 0.8836
3664.000000 0.8824 0.8806 0.8788 0.8771 0.8752
3659.000000 0.8729 0.8705 0.8681 0.8657 0.8632
3654.000000 0.8606 0.8578 0.8551 0.8522 0.8495
3649.000000 0.8466 0.8438 0.8410 0.8383 0.8331
3644.000000 0.8278 0.8219 0.8159 0.8043 0.7928
3639.000000 0.7717 0.7507 0.7424 0.7339 0.7286
3634.000000 0.7230 0.7194 0.7164 0.7130 0.7092
3629.000000 0.7058 0.7036 0.7028 0.7014 0.7012
3624.000000 0.7010 0.7008 0.7006 0.7004 0.7002
3619.000000 0.6998 0.6994 0.6990 0.6986 0.6983
3614.000000 0.6979 0.6976 0.6972 0.6913 0.6855
3609.000000 0.6805 0.6749 0.6617 0.6475 0.6292
3604.000000 0.6110 0.5925 0.5739 0.5562 0.5199
3599.000000 0.5311 0.5255 0.5258 0.5257 0.5286
3594.000000 0.5316 0.5370 0.5423 0.5476 0.5530
3589.000000 0.5582 0.5635 0.5689 0.5742 0.5795
3584.000000 0.5849 0.5902 0.5955 0.6009 0.6062
3579.000000 0.6114 0.6168 0.6221 0.6272 0.6321
3574.000000 0.6381 0.6434 0.6483 0.6530 0.6583
3569.000000 0.6609 0.6637 0.6654 0.6672 0.6686
3564.000000 0.6699 0.6704 0.6712 0.6719 0.6725
3559.000000 0.6729 0.6734 0.6725 0.6756 0.6717
3554.000000 0.6700 0.6693 0.6694 0.6681 0.6667
3549.000000 0.6640 0.6627 0.6605 0.6583 0.6556
3544.000000 0.6534 0.6518 0.6496 0.6466 0.6431
3539.000000 0.6399 0.6361 0.6331 0.6299 0.6265
3534.000000 0.6230 0.6194 0.6159 0.6123 0.6089
3529.000000 0.6044 0.6010 0.5974 0.5940 0.5910
3524.000000 0.5881 0.5861 0.5841 0.5821 0.5802
3519.000000 0.5782 0.5762 0.5742 0.5722 0.5704
3514.000000 0.5688 0.5673 0.5658 0.5644 0.5629
3509.000000 0.5615 0.5600 0.5585 0.5572 0.5559
3504.000000 0.5548 0.5535 0.5524 0.5511 0.5500
3499.000000 0.5487 0.5475 0.5462 0.5451 0.5439
3494.000000 0.5429 0.5419 0.5411 0.5401 0.5391
3489.000000 0.5383 0.5374 0.5365 0.5356 0.5349
3484.000000 0.5342 0.5334 0.5328 0.5321 0.5314
3479.000000 0.5306 0.5300 0.5293 0.5286 0.5283
3474.000000 0.5281 0.5279 0.5278 0.5277 0.5276
3469.000000 0.5275 0.5275 0.5274 0.5274 0.5273
3464.000000 0.5272 0.5271 0.5271 0.5270 0.5270
3459.000000 0.5270 0.5270 0.5272 0.5275 0.5277
3454.000000 0.5279 0.5281 0.5284 0.5286 0.5289
3449.000000 0.5291 0.5295 0.5297 0.5299 0.5301
3444.000000 0.5304 0.5307 0.5310 0.5313 0.5316
3439.000000 0.5320 0.5323 0.5326 0.5329 0.5332
3434.000000 0.5335 0.5338 0.5341 0.5345 0.5348
3429.000000 0.5350 0.5353 0.5356 0.5360 0.5359
3424.000000 0.5372 0.5379 0.5385 0.5390 0.5398
3419.000000 0.5404 0.5410 0.5416 0.5423 0.5429
3414.000000 0.5435 0.5440 0.5448 0.5454 0.5460
3409.000000 0.5467 0.5473 0.5483 0.5489 0.5493
3404.000000 0.5501 0.5509 0.5518 0.5526 0.5534
3399.000000 0.5542 0.5550 0.5558 0.5567 0.5575
3394.000000 0.5583 0.5592 0.5599 0.5607 0.5616
3389.000000 0.5624 0.5632 0.5641 0.5649 0.5657
3384.000000 0.5666 0.5673 0.5681 0.5690 0.5699
3379.000000 0.5712 0.5724 0.5737 0.5749 0.5762
3374.000000 0.5774 0.5787 0.5799 0.5811 0.5831
3369.000000 0.5837 0.5848 0.5860 0.5873 0.5886
3364.000000 0.5898 0.5910 0.5924 0.5935 0.5948
3359.000000 0.5960 0.5974 0.5988 0.6003 0.6016
3354.000000 0.6031 0.6045 0.6059 0.6074 0.6088
3349.000000 0.6102 0.6117 0.6131 0.6146 0.6167
3344.000000 0.6182 0.6190 0.6212 0.6217 0.6231
3339.000000 0.6245 0.6269 0.6283 0.6295 0.6299
3334.000000 0.6313 0.6326 0.6340 0.6353 0.6367
3329.000000 0.6380 0.6394 0.6408 0.6421 0.6434
3324.000000 0.6448 0.6461 0.6474 0.6488 0.6502
3319.000000 0.6515 0.6529 0.6542 0.6556 0.6569
3314.000000 0.6583 0.6597 0.6620 0.6637 0.6653
3309.000000 0.6672 0.6690 0.6702 0.6729 0.6746
3304.000000 0.6761 0.6774 0.6793 0.6812 0.6830
3299.000000 0.6847 0.6866 0.6886 0.6903 0.6923
3294.000000 0.6942 0.6959 0.6978 0.6996 0.7014
3289.000000 0.7033 0.7052 0.7069 0.7088 0.7106
3284.000000 0.7125 0.7153 0.7170 0.7178 0.7200
3279.000000 0.7226 0.7241 0.7252 0.7274 0.7299
3274.000000 0.7318 0.7334 0.7349 0.7363 0.7377
3269.000000 0.7390 0.7404 0.7418 0.7432 0.7446
3264.000000 0.7459 0.7473 0.7486 0.7499 0.7514
3259.000000 0.7527 0.7540 0.7554 0.7557 0.7582
3254.000000 0.7595 0.7608 0.7622 0.7634 0.7647
3249.000000 0.7659 0.7672 0.7685 0.7696 0.7704
3244.000000 0.7717 0.7735 0.7748 0.7759 0.7773
3239.000000 0.7785 0.7798 0.7809 0.7823 0.7835
3234.000000 0.7848 0.7860 0.7873 0.7886 0.7898
3229.000000 0.7910 0.7923 0.7934 0.7935 0.7949
3224.000000 0.7971 0.7982 0.7993 0.8005 0.8016
3219.000000 0.8028 0.8039 0.8051 0.8062 0.8073
3214.000000 0.8085 0.8097 0.8108 0.8118 0.8129
3209.000000 0.8141 0.8142 0.8151 0.8162 0.8175
3204.000000 0.8186 0.8198 0.8209 0.8220 0.8233
3199.000000 0.8253 0.8257 0.8274 0.8280 0.8300
3194.000000 0.8312 0.8323 0.8334 0.8345 0.8350
3189.000000 0.8362 0.8380 0.8390 0.8393 0.8400
3184.000000 0.8412 0.8422 0.8435 0.8445 0.8457
3179.000000 0.8467 0.8478 0.8490 0.8501 0.8512
3174.000000 0.8523 0.8533 0.8542 0.8550 0.8560
3169.000000 0.8568 0.8577 0.8586 0.8596 0.8605
3164.000000 0.8620 0.8636 0.8639 0.8649 0.8664
3159.000000 0.8672 0.8672 0.8685 0.8686 0.8690
3154.000000 0.8709 0.8719 0.8726 0.8734 0.8741
3149.000000 0.8748 0.8742 0.8751 0.8758 0.8764
3144.000000 0.8771 0.8778 0.8785 0.8796 0.8813
3139.000000 0.8819 0.8826 0.8833 0.8840 0.8846
3134.000000 0.8852 0.8860 0.8868 0.8874 0.8882
3129.000000 0.8888 0.8894 0.8900 0.8907 0.8912
3124.000000 0.8918 0.8924 0.8931 0.8937 0.8943
3119.000000 0.8948 0.8955 0.8960 0.8967 0.8971
3114.000000 0.8976 0.8979 0.8983 0.8986 0.8990
3109.000000 0.8994 0.8999 0.9009 0.9019 0.9023
3104.000000 0.9026 0.9030 0.9035 0.9038 0.9054
3099.000000 0.9057 0.9059 0.9074 0.9091 0.9106
3094.000000 0.9108 0.9110 0.9111 0.9099 0.9099
3089.000000 0.9086 0.9077 0.9082 0.9087 0.9073
3084.000000 0.9064 0.9064 0.9064 0.9064 0.9064
3079.000000 0.9064 0.9073 0.9087 0.9092 0.9092
3074.000000 0.9102 0.9103 0.9090 0.9084 0.9081
3069.000000 0.9065 0.9076 0.9062 0.9062 0.9061
3064.000000 0.9059 0.9046 0.9046 0.9045 0.9049
3059.000000 0.9059 0.9059 0.9052 0.9044 0.9048
3054.000000 0.9046 0.9038 0.9036 0.9041 0.9045
3049.000000 0.9043 0.9041 0.9039 0.9047 0.9048
3044.000000 0.9058 0.9068 0.9080 0.9091 0.9101
3039.000000 0.9097 0.9094 0.9082 0.9059 0.9038
3034.000000 0.9026 0.8999 0.8977 0.8939 0.8897
3029.000000 0.8846 0.8804 0.8755 0.8705 0.8653
3024.000000 0.8601 0.8544 0.8486 0.8425 0.8364
3019.000000 0.8330 0.8290 0.8258 0.8216 0.8200
3014.000000 0.8184 0.8169 0.8154 0.8144 0.8136
3009.000000 0.8126 0.8114 0.8090 0.8082 0.8074
3004.000000 0.8058 0.8035 0.8013 0.7982 0.7960
2999.000000 0.7927 0.7890 0.7837 0.7785 0.7190
2994.000000 0.6598 0.6282 0.5960 0.5635 0.5311
2989.000000 0.4987 0.4663 0.4358 0.4053 0.4003
2984.000000 0.3953 0.3939 0.3924 0.3920 0.3916
2979.000000 0.3918 0.3906 0.4017 0.4126 0.4240
2974.000000 0.4353 0.4466 0.4580 0.4693 0.4807
2969.000000 0.4925 0.5041 0.5142 0.5243 0.5301
2964.000000 0.5359 0.5441 0.5523 0.5636 0.5753
2959.000000 0.5901 0.6040 0.6170 0.6310 0.6449
2954.000000 0.6591 0.6738 0.6878 0.7016 0.7157
2949.000000 0.7286 0.7454 0.7417 0.7412 0.7412
2944.000000 0.7416 0.7347 0.7281 0.7124 0.6977
2939.000000 0.6826 0.6673 0.6520 0.6367 0.6260
2934.000000 0.6122 0.6156 0.6152 0.6201 0.6249
2929.000000 0.6335 0.6421 0.6507 0.6594 0.6680
2924.000000 0.6767 0.6853 0.6936 0.7015 0.7101
2919.000000 0.7126 0.7152 0.7149 0.7168 0.7142
2914.000000 0.7139 0.7085 0.7033 0.6935 0.6837
2909.000000 0.6739 0.6651 0.6555 0.6447 0.6358
2904.000000 0.6269 0.6253 0.6207 0.6233 0.6232
2899.000000 0.6231 0.6233 0.6261 0.6289 0.6346
2894.000000 0.6404 0.6441 0.6478 0.6510 0.6542
2889.000000 0.6577 0.6613 0.6676 0.6739 0.6803
2884.000000 0.6867 0.6901 0.6937 0.6969 0.7000
2879.000000 0.7032 0.7063 0.7084 0.7126 0.7192
2874.000000 0.7261 0.7337 0.7413 0.7473 0.7535
2869.000000 0.7595 0.7654 0.7706 0.7760 0.7813
2864.000000 0.7867 0.7908 0.7949 0.7981 0.8014
2859.000000 0.8046 0.8079 0.8110 0.8144 0.8177
2854.000000 0.8197 0.8222 0.8247 0.8271 0.8293
2849.000000 0.8317 0.8340 0.8364 0.8399 0.8421
2844.000000 0.8442 0.8459 0.8491 0.8514 0.8532
2839.000000 0.8540 0.8556 0.8568 0.8573 0.8583
2834.000000 0.8599 0.8614 0.8630 0.8645 0.8661
2829.000000 0.8687 0.8694 0.8719 0.8737 0.8739
2824.000000 0.8754 0.8779 0.8779 0.8805 0.8818
2819.000000 0.8828 0.8829 0.8842 0.8854 0.8867
2814.000000 0.8878 0.8891 0.8904 0.8916 0.8928
2809.000000 0.8941 0.8962 0.8975 0.8982 0.8988
2804.000000 0.8996 0.9001 0.9009 0.9016 0.9022
2799.000000 0.9028 0.9036 0.9042 0.9049 0.9053
2794.000000 0.9061 0.9065 0.9068 0.9063 0.9076
2789.000000 0.9070 0.9075 0.9080 0.9085 0.9096
2784.000000 0.9109 0.9106 0.9104 0.9117 0.9128
2779.000000 0.9132 0.9137 0.9141 0.9147 0.9150
2774.000000 0.9154 0.9154 0.9157 0.9158 0.9160
2769.000000 0.9161 0.9161 0.9163 0.9165 0.9166
2764.000000 0.9168 0.9169 0.9170 0.9172 0.9174
2759.000000 0.9175 0.9177 0.9178 0.9180 0.9181
2754.000000 0.9182 0.9183 0.9185 0.9186 0.9188
2749.000000 0.9189 0.9190 0.9191 0.9193 0.9194
2744.000000 0.9195 0.9196 0.9199 0.9200 0.9201
2739.000000 0.9202 0.9203 0.9205 0.9206 0.9208
2734.000000 0.9209 0.9210 0.9212 0.9213 0.9213
2729.000000 0.9215 0.9217 0.9218 0.9219 0.9220
2724.000000 0.9222 0.9223 0.9225 0.9226 0.9228
2719.000000 0.9229 0.9230 0.9231 0.9233 0.9233
2714.000000 0.9233 0.9233 0.9232 0.9231 0.9231
2709.000000 0.9230 0.9229 0.9227 0.9226 0.9225
2704.000000 0.9224 0.9223 0.9222 0.9221 0.9220
2699.000000 0.9219 0.9218 0.9217 0.9216 0.9215
2694.000000 0.9213 0.9213 0.9212 0.9212 0.9212
2689.000000 0.9211 0.9213 0.9213 0.9213 0.9212
2684.000000 0.9215 0.9215 0.9216 0.9216 0.9217
2679.000000 0.9218 0.9219 0.9222 0.9225 0.9228
2674.000000 0.9231 0.9234 0.9238 0.9241 0.9245
2669.000000 0.9248 0.9251 0.9253 0.9256 0.9257
2664.000000 0.9259 0.9262 0.9264 0.9265 0.9267
2659.000000 0.9269 0.9272 0.9286 0.9288 0.9288
2654.000000 0.9288 0.9288 0.9285 0.9276 0.9263
2649.000000 0.9260 0.9264 0.9268 0.9266 0.9256
2644.000000 0.9249 0.9247 0.9254 0.9246 0.9241
2639.000000 0.9241 0.9241 0.9243 0.9246 0.9250
2634.000000 0.9267 0.9270 0.9273 0.9264 0.9273
2629.000000 0.9291 0.9297 0.9302 0.9308 0.9313
2624.000000 0.9319 0.9323 0.9331 0.9336 0.9342
2619.000000 0.9348 0.9353 0.9355 0.9358 0.9360
2614.000000 0.9362 0.9363 0.9365 0.9367 0.9369
2609.000000 0.9371 0.9373 0.9375 0.9376 0.9378
2604.000000 0.9380 0.9380 0.9383 0.9383 0.9386
2599.000000 0.9387 0.9389 0.9390 0.9392 0.9393
2594.000000 0.9396 0.9397 0.9398 0.9399 0.9401
2589.000000 0.9402 0.9404 0.9405 0.9407 0.9408
2584.000000 0.9410 0.9411 0.9412 0.9413 0.9415
2579.000000 0.9416 0.9418 0.9419 0.9422 0.9423
2574.000000 0.9424 0.9424 0.9425 0.9425 0.9425
2569.000000 0.9427 0.9428 0.9428 0.9428 0.9430
2564.000000 0.9431 0.9431 0.9432 0.9432 0.9434
2559.000000 0.9434 0.9435 0.9435 0.9437 0.9437
2554.000000 0.9438 0.9438 0.9439 0.9440 0.9441
2549.000000 0.9441 0.9442 0.9443 0.9444 0.9444
2544.000000 0.9445 0.9446 0.9447 0.9447 0.9448
2539.000000 0.9448 0.9449 0.9449 0.9450 0.9450
2534.000000 0.9451 0.9452 0.9454 0.9454 0.9455
2529.000000 0.9455 0.9456 0.9456 0.9457 0.9457
2524.000000 0.9458 0.9458 0.9459 0.9459 0.9460
2519.000000 0.9460 0.9461 0.9461 0.9462 0.9462
2514.000000 0.9463 0.9463 0.9464 0.9464 0.9464
2509.000000 0.9464 0.9464 0.9463 0.9463 0.9462
2504.000000 0.9462 0.9462 0.9462 0.9460 0.9459
2499.000000 0.9457 0.9455 0.9453 0.9451 0.9449
2494.000000 0.9447 0.9445 0.9442 0.9441 0.9441
2489.000000 0.9441 0.9442 0.9443 0.9445 0.9444
2484.000000 0.9446 0.9447 0.9448 0.9458 0.9464
2479.000000 0.9465 0.9467 0.9468 0.9470 0.9471
2474.000000 0.9473 0.9476 0.9478 0.9479 0.9481
2469.000000 0.9482 0.9484 0.9485 0.9487 0.9488
2464.000000 0.9490 0.9492 0.9493 0.9495 0.9497
2459.000000 0.9497 0.9494 0.9493 0.9496 0.9490
2454.000000 0.9492 0.9504 0.9509 0.9510 0.9498
2449.000000 0.9505 0.9507 0.9506 0.9505 0.9504
2444.000000 0.9502 0.9500 0.9500 0.9500 0.9499
2439.000000 0.9497 0.9497 0.9496 0.9495 0.9493
2434.000000 0.9493 0.9492 0.9490 0.9490 0.9490
2429.000000 0.9489 0.9489 0.9488 0.9487 0.9486
2424.000000 0.9486 0.9485 0.9484 0.9483 0.9483
2419.000000 0.9482 0.9482 0.9481 0.9481 0.9480
2414.000000 0.9480 0.9479 0.9478 0.9478 0.9477
2409.000000 0.9480 0.9486 0.9480 0.9489 0.9488
2404.000000 0.9488 0.9487 0.9487 0.9486 0.9486
2399.000000 0.9485 0.9485 0.9484 0.9483 0.9481
2394.000000 0.9480 0.9479 0.9479 0.9478 0.9477
2389.000000 0.9491 0.9491 0.9489 0.9488 0.9490
2384.000000 0.9501 0.9500 0.9503 0.9513 0.9512
2379.000000 0.9516 0.9525 0.9531 0.9538 0.9537
2374.000000 0.9544 0.9548 0.9548 0.9548 0.9547
2369.000000 0.9534 0.9530 0.9529 0.9528 0.9526
2364.000000 0.9526 0.9525 0.9523 0.9523 0.9536
2359.000000 0.9537 0.9548 0.9550 0.9564 0.9574
2354.000000 0.9573 0.9572 0.9571 0.9563 0.9553
2349.000000 0.9551 0.9558 0.9571 0.9575 0.9573
2344.000000 0.9562 0.9555 0.9554 0.9553 0.9552
2339.000000 0.9538 0.9548 0.9548 0.9533 0.9532
2334.000000 0.9545 0.9543 0.9542 0.9543 0.9554
2329.000000 0.9545 0.9537 0.9513 0.9494 0.9476
2324.000000 0.9462 0.9460 0.9459 0.9457 0.9455
2319.000000 0.9452 0.9451 0.9449 0.9447 0.9445
2314.000000 0.9444 0.9442 0.9441 0.9438 0.9437
2309.000000 0.9435 0.9434 0.9432 0.9431 0.9429
2304.000000 0.9428 0.9425 0.9424 0.9424 0.9424
2299.000000 0.9430 0.9441 0.9442 0.9444 0.9446
2294.000000 0.9414 0.9453 0.9457 0.9461 0.9465
2289.000000 0.9470 0.9463 0.9463 0.9466 0.9470
2284.000000 0.9476 0.9467 0.9470 0.9473 0.9477
2279.000000 0.9481 0.9471 0.9475 0.9477 0.9468
2274.000000 0.9473 0.9476 0.9476 0.9468 0.9469
2269.000000 0.9466 0.9460 0.9461 0.9463 0.9457
2264.000000 0.9453 0.9455 0.9457 0.9448 0.9446
2259.000000 0.9448 0.9438 0.9438 0.9440 0.9442
2254.000000 0.9430 0.9431 0.9433 0.9434 0.9423
2249.000000 0.9425 0.9430 0.9434 0.9440 0.9440
2244.000000 0.9436 0.9440 0.9445 0.9449 0.9455
2239.000000 0.9460 0.9465 0.9473 0.9481 0.9481
2234.000000 0.9486 0.9494 0.9503 0.9512 0.9521
2229.000000 0.9531 0.9540 0.9549 0.9557 0.9563
2224.000000 0.9569 0.9572 0.9574 0.9565 0.9568
2219.000000 0.9571 0.9575 0.9578 0.9582 0.9586
2214.000000 0.9589 0.9592 0.9595 0.9599 0.9602
2209.000000 0.9607 0.9610 0.9612 0.9614 0.9615
2204.000000 0.9616 0.9617 0.9618 0.9618 0.9619
2199.000000 0.9620 0.9621 0.9621 0.9620 0.9611
2194.000000 0.9624 0.9622 0.9612 0.9612 0.9613
2189.000000 0.9614 0.9615 0.9615 0.9616 0.9617
2184.000000 0.9626 0.9624 0.9619 0.9620 0.9621
2179.000000 0.9622 0.9634 0.9638 0.9639 0.9640
2174.000000 0.9641 0.9641 0.9642 0.9642 0.9643
2169.000000 0.9641 0.9629 0.9629 0.9629 0.9629
2164.000000 0.9629 0.9629 0.9631 0.9631 0.9632
2159.000000 0.9632 0.9632 0.9632 0.9632 0.9632
2154.000000 0.9634 0.9634 0.9634 0.9634 0.9635
2149.000000 0.9635 0.9635 0.9635 0.9636 0.9636
2144.000000 0.9636 0.9636 0.9636 0.9636 0.9638
2139.000000 0.9638 0.9639 0.9639 0.9639 0.9639
2134.000000 0.9639 0.9639 0.9641 0.9641 0.9641
2129.000000 0.9639 0.9639 0.9639 0.9639 0.9639
2124.000000 0.9639 0.9639 0.9627 0.9637 0.9639
2119.000000 0.9638 0.9638 0.9638 0.9638 0.9638
2114.000000 0.9638 0.9636 0.9636 0.9636 0.9636
2109.000000 0.9636 0.9636 0.9635 0.9634 0.9631
2104.000000 0.9628 0.9627 0.9626 0.9624 0.9623
2099.000000 0.9621 0.9608 0.9602 0.9613 0.9613
2094.000000 0.9600 0.9609 0.9608 0.9606 0.9605
2089.000000 0.9603 0.9601 0.9601 0.9601 0.9601
2084.000000 0.9601 0.9601 0.9601 0.9601 0.9601
2079.000000 0.9600 0.9600 0.9600 0.9600 0.9600
2074.000000 0.9600 0.9600 0.9600 0.9600 0.9599
2069.000000 0.9599 0.9599 0.9599 0.9599 0.9599
2064.000000 0.9599 0.9598 0.9597 0.9595 0.9594
2059.000000 0.9593 0.9592 0.9593 0.9603 0.9602
2054.000000 0.9600 0.9599 0.9591 0.9589 0.9596
2049.000000 0.9587 0.9578 0.9578 0.9577 0.9575
2044.000000 0.9575 0.9573 0.9572 0.9569 0.9567
2039.000000 0.9563 0.9560 0.9556 0.9553 0.9549
2034.000000 0.9545 0.9542 0.9539 0.9535 0.9532
2029.000000 0.9528 0.9529 0.9531 0.9518 0.9520
2024.000000 0.9525 0.9522 0.9520 0.9517 0.9515
2019.000000 0.9511 0.9509 0.9506 0.9504 0.9501
2014.000000 0.9499 0.9494 0.9493 0.9490 0.9487
2009.000000 0.9484 0.9482 0.9479 0.9475 0.9472
2004.000000 0.9469 0.9466 0.9463 0.9455 0.9449
1999.000000 0.9442 0.9433 0.9422 0.9420 0.9417
1994.000000 0.9414 0.9414 0.9415 0.9417 0.9419
1989.000000 0.9420 0.9424 0.9426 0.9415 0.9417
1984.000000 0.9419 0.9421 0.9423 0.9425 0.9426
1979.000000 0.9426 0.9415 0.9416 0.9417 0.9418
1974.000000 0.9420 0.9421 0.9423 0.9425 0.9426
1969.000000 0.9427 0.9428 0.9429 0.9438 0.9437
1964.000000 0.9433 0.9444 0.9449 0.9450 0.9451
1959.000000 0.9452 0.9453 0.9454 0.9457 0.9460
1954.000000 0.9447 0.9451 0.9455 0.9458 0.9458
1949.000000 0.9450 0.9453 0.9456 0.9456 0.9456
1944.000000 0.9456 0.9456 0.9456 0.9456 0.9456
1939.000000 0.9456 0.9456 0.9456 0.9456 0.9456
1934.000000 0.9456 0.9456 0.9456 0.9457 0.9457
1929.000000 0.9457 0.9457 0.9457 0.9457 0.9457
1924.000000 0.9458 0.9458 0.9458 0.9458 0.9457
1919.000000 0.9455 0.9452 0.9449 0.9447 0.9445
1914.000000 0.9443 0.9441 0.9438 0.9436 0.9433
1909.000000 0.9431 0.9428 0.9436 0.9438 0.9437
1904.000000 0.9435 0.9433 0.9431 0.9429 0.9427
1899.000000 0.9425 0.9424 0.9422 0.9419 0.9417
1894.000000 0.9415 0.9413 0.9411 0.9404 0.9393
1889.000000 0.9390 0.9388 0.9386 0.9383 0.9382
1884.000000 0.9389 0.9392 0.9390 0.9387 0.9386
1879.000000 0.9384 0.9381 0.9379 0.9376 0.9388
1874.000000 0.9386 0.9384 0.9381 0.9379 0.9377
1869.000000 0.9374 0.9371 0.9369 0.9367 0.9364
1864.000000 0.9364 0.9364 0.9365 0.9365 0.9366
1859.000000 0.9366 0.9367 0.9376 0.9373 0.9368
1854.000000 0.9369 0.9369 0.9370 0.9373 0.9376
1849.000000 0.9380 0.9384 0.9387 0.9390 0.9393
1844.000000 0.9397 0.9400 0.9404 0.9407 0.9411
1839.000000 0.9414 0.9417 0.9421 0.9418 0.9412
1834.000000 0.9414 0.9418 0.9420 0.9423 0.9425
1829.000000 0.9428 0.9430 0.9433 0.9435 0.9438
1824.000000 0.9440 0.9444 0.9446 0.9446 0.9448
1819.000000 0.9463 0.9465 0.9466 0.9467 0.9469
1814.000000 0.9470 0.9471 0.9472 0.9473 0.9473
