##TITLE=Isopropyl isothiocyanate
##JCAMP-DX=4.24
##DATA TYPE=INFRARED SPECTRUM
##ORIGIN=EPA-IR VAPOR PHASE LIBRARY
##OWNER=SRD/NIST
Collection (C) 2018 copyright by the U.S. Secretary of Commerce
on behalf of the United States of America. All rights reserved.
##CAS REGISTRY NO=2253-73-8
##MOLFORM=C 4 H 7 N S
##$NIST SOURCE=MSDC-IR
##STATE=gas
##XUNITS=1/CM
##YUNITS=ABSORBANCE
##XFACTOR=1.
##YFACTOR=0.001
##DELTAX=1.92934
##FIRSTX=549.9
##LASTX=3999.5
##FIRSTY=31.54
##MAXX=3999.53
##MINX=549.863
##MAXY=0.60773
##MINY=0
##NPOINTS=1789
##XYDATA=(X++(Y..Y))
549.863 31.54 31.43 31.18 30.73 30.08 29.13 28.12 27.04 25.88 24.75
569.156 23.29 21.43 19.49 17.68 15.89 14.38 12.95 11.61 10.52 9.45
588.450 8.42 7.44 6.76 6.36 5.98 5.64 5.26 4.9355 4.8191 4.7634
607.743 4.8027 4.8267 4.6815 4.6112 4.6888 4.8067 4.8493 4.7845 4.7515 4.8
627.037 4.8224 4.7712 4.6818 4.6871 4.727 4.7009 4.7863 4.8312 4.7039 4.6868
646.330 4.6982 4.5275 4.4067 4.30541 4.1493 3.935 3.696 3.417 3.14 2.91
665.624 2.63 2.37 2.1 1.85 1.68 1.52 1.41 1.36 1.3 1.16
684.917 1.08 1.09 1.07 1.08 1.1 1.16 1.2 1.23 1.36 1.42
704.210 1.42 1.39 1.39 1.43 1.44 1.45 1.49 1.52 1.48 1.46
723.504 1.43 1.34 1.3 1.28 1.26 1.24 1.18 1.11 1.08 1.01
742.797 0.91 0.87 0.84 0.8 0.77 0.71 0.61 0.52 0.44 0.42
762.091 0.45 0.5 0.49 0.43 0.35 0.35 0.44 0.46 0.48 0.49
781.384 0.45 0.45 0.45 0.44 0.43 0.45 0.46 0.47 0.49 0.45
800.678 0.39 0.42 0.44 0.41 0.37 0.38 0.38 0.33 0.36 0.46
819.971 0.49 0.42 0.44 0.5 0.62 0.73 0.78 0.92 1.15 1.45
839.264 1.88 2.61 3.532 4.6881 6.17 7.74 9.39 10.91 11.97 12.53
858.558 12.69 12.73 12.85 13.08 13.27 13.16 12.5 11.15 9.45 7.84
877.851 6.49 5.49 4.8369 4.4169 4.057 3.819 3.625 3.408 3.23 3.09
897.145 3.01 2.93 2.76 2.58 2.49 2.41 2.34 2.29 2.29 2.27
916.438 2.22 2.17 2.16 2.18 2.23 2.25 2.25 2.3 2.32 2.34
935.732 2.4 2.44 2.45 2.49 2.56 2.64 2.63 2.63 2.68 2.76
955.025 2.82 2.86 2.95 3 3.06 3.11 3.21 3.357 3.457 3.551
974.318 3.692 3.833 4.019 4.27205 4.5815 4.9543 5.37 5.94 6.68 7.56
993.612 8.65 9.98 11.52 13.27 15.19 17.03 18.57 19.7 20.27 20.42
1012.905 20.37 20.15 19.82 19.36 18.63 17.4 15.67 13.66 11.65 9.89
1032.199 8.46 7.42 6.66 6.09 5.74 5.52 5.32 5.2101 5.121 5.0445
1051.492 5.0554 5.0194 4.958 4.8931 4.7772 4.6599 4.562 4.4213 4.32049 4.26864
1070.786 4.1819 4.1528 4.1738 4.2334 4.412 4.5905 4.7737 5.015 5.2252 5.55
1090.079 5.92 6.24 6.64 7.15 7.67 8.27 8.89 9.59 10.42 11.25
1109.372 12.14 13.2 14.39 15.63 16.93 18.29 19.75 21.25 22.8 24.32
1128.666 25.7 27.03 28.22 28.92 29.06 28.66 27.89 27.02 26.14 25.35
1147.959 24.78 24.53 24.75 25.65 27.19 29.37 32.02 34.75 37.05 38.46
1167.253 38.69 37.9 36.48 34.81 32.94 30.88 28.75 25.99 22.43 18.77
1186.546 15.43 12.54 10.26 8.66 7.32 6.3 5.55 4.817 4.30375 4.024
1205.840 3.738 3.444 3.18 2.87 2.67 2.61 2.47 2.37 2.36 2.39
1225.133 2.44 2.45 2.43 2.39 2.38 2.47 2.57 2.58 2.71 2.84
1244.426 2.94 3.1 3.251 3.397 3.581 3.759 3.899 4.054 4.30887 4.6512
1263.720 5.0194 5.41 5.78 6.19 6.63 7.1 7.64 8.26 8.88 9.52
1283.013 10.28 11.11 11.97 12.88 13.91 15.06 16.38 17.92 19.7 21.89
1302.307 24.5 27.54 31.16 35.4 40.4 46.31 53.21 61.26 70.63 81.22
1321.600 92.67 104.12 114.43 122.3 126.22 125.98 122.93 118.13 111.77 104.22
1340.894 96.09 87.72 79.25 70.72 62.08 53.59 45.64 38.69 32.97 28.6
1360.187 25.51 23.41 22.14 21.37 20.83 20.31 19.82 19.69 20.3 21.81
1379.480 23.76 25.47 26.61 27.06 26.96 26.68 26.35 25.41 23.96 22.86
1398.774 21.79 20.24 18.27 16.16 14.19 12.57 11.34 10.41 9.69 9.14
1418.067 8.78 8.58 8.48 8.4 8.42 8.51 8.65 8.9 9.14 9.41
1437.361 9.72 10.05 10.36 10.61 10.83 11 11.25 11.55 11.86 12.16
1456.654 12.43 12.68 12.91 12.97 12.7 12.28 11.88 11.39 10.79 10.11
1475.948 9.45 8.87 8.32 7.81 7.32 6.78 6.27 5.82 5.43 5.0756
1495.241 4.753 4.496 4.27101 4.075 3.933 3.832 3.714 3.613 3.577 3.564
1514.534 3.533 3.483 3.424 3.353 3.325 3.305 3.276 3.246 3.18 3.14
1533.828 3.09 3.02 2.95 2.88 2.86 2.83 2.77 2.73 2.71 2.67
1553.121 2.65 2.62 2.61 2.64 2.65 2.64 2.63 2.64 2.63 2.66
1572.415 2.69 2.68 2.68 2.72 2.76 2.8 2.81 2.81 2.84 2.86
1591.708 2.89 2.91 2.89 2.85 2.84 2.83 2.8 2.8 2.77 2.74
1611.002 2.73 2.75 2.73 2.68 2.65 2.63 2.63 2.59 2.56 2.58
1630.295 2.59 2.58 2.56 2.58 2.59 2.64 2.66 2.61 2.6 2.64
1649.588 2.66 2.62 2.63 2.73 2.81 2.85 2.83 2.85 2.92 2.92
1668.882 2.94 2.97 2.99 2.99 2.96 2.98 2.98 2.99 3 2.99
1688.175 3 3.02 3.05 3.07 3.05 3.07 3.11 3.19 3.258 3.23
1707.469 3.24 3.254 3.297 3.354 3.379 3.355 3.319 3.315 3.294 3.22
1726.762 3.16 3.15 3.09 3.04 3 2.97 2.93 2.88 2.8 2.74
1746.056 2.76 2.76 2.76 2.8 2.8 2.79 2.81 2.85 2.88 2.9
1765.349 2.97 3.01 3.03 3.05 3.07 3.16 3.24 3.284 3.353 3.386
1784.642 3.436 3.491 3.51 3.587 3.66 3.728 3.796 3.814 3.868 3.916
1803.936 3.953 3.989 4.054 4.109 4.101 4.1569 4.2007 4.2136 4.23192 4.25945
1823.229 4.33288 4.3772 4.4104 4.4535 4.5345 4.6512 4.7624 4.885 5.0067 5.1353
1842.523 5.28 5.47 5.66 5.9 6.2 6.48 6.8 7.13 7.46 7.8
1861.816 8.13 8.49 8.83 9.11 9.39 9.63 9.82 10.01 10.16 10.32
1881.110 10.53 10.73 10.9 11.08 11.29 11.52 11.88 12.33 12.79 13.34
1900.403 13.94 14.59 15.32 16.11 16.9 17.78 18.72 19.65 20.63 21.7
1919.696 22.88 24.07 25.3 26.65 28.08 29.59 31.18 32.85 34.64 36.58
1938.990 38.66 40.86 43.2 45.72 48.43 51.35 54.45 57.78 61.39 65.21
1958.283 69.24 73.54 78.15 83.07 88.28 93.79 99.64 105.79 112.24 119.05
1977.577 126.22 133.71 141.56 149.7 158.11 166.74 175.56 184.55 193.66 202.83
1996.870 211.97 221.09 230.21 239.27 248.25 257.06 265.83 274.51 283.13 291.74
2016.164 300.45 309.48 318.74 328.31 338.28 348.69 359.6 371.16 383.32 396.03
2035.457 409.47 423.68 438.48 453.8 469.42 485.13 500.94 516.73 532.4 547.78
2054.750 562.45 576.18 588.53 598.76 605.7 607.73 602.71 588.58 565.89 538.18
2074.044 508.99 479.63 449.65 418.39 386.14 353.91 322.87 293.79 267.16 243.28
2093.337 222.18 203.74 187.7 173.75 161.62 151.04 141.68 133.31 125.77 118.82
2112.631 112.44 106.57 101.16 96.19 91.68 87.68 84.23 81.38 79.26 77.98
2131.924 77.55 78.02 79.49 82.06 85.8 90.76 96.87 103.97 111.88 120.19
2151.218 128.4 135.77 141.4 144.71 145.69 144.72 142.33 138.94 134.71 129.5
2170.511 123.28 116.08 108.22 100.01 91.78 83.86 76.36 69.43 63.14 57.47
2189.804 52.36 47.75 43.58 39.76 36.29 33.1 30.2 27.66 25.4 23.46
2209.098 21.84 20.43 19.25 18.27 17.42 16.65 16.01 15.47 14.99 14.57
2228.391 14.22 13.91 13.64 13.4 13.21 13.07 12.95 12.84 12.74 12.61
2247.685 12.52 12.41 12.27 12.13 12.01 11.84 11.7 11.56 11.34 11.13
2266.978 10.92 10.68 10.4 10.11 9.84 9.53 9.19 8.87 8.55 8.25
2286.272 7.97 7.69 7.41 7.14 6.93 6.73 6.55 6.39 6.22 6.12
2305.565 6.01 5.88 5.77 5.63 5.47 5.32 5.1481 4.9932 4.8368 4.6672
2324.858 4.5114 4.32419 4.1669 4.075 3.959 3.827 3.743 3.645 3.549 3.438
2344.152 3.35 3.303 3.23 3.16 3.12 3.08 3.05 2.99 2.93 2.94
2363.445 2.94 2.96 2.96 2.99 3.09 3.14 3.17 3.245 3.274 3.309
2382.739 3.376 3.388 3.427 3.483 3.523 3.564 3.599 3.632 3.661 3.654
2402.032 3.578 3.552 3.54 3.448 3.335 3.24 3.18 3.08 3 2.95
2421.326 2.84 2.71 2.63 2.6 2.57 2.53 2.51 2.48 2.48 2.48
2440.619 2.43 2.42 2.42 2.38 2.38 2.39 2.4 2.45 2.47 2.47
2459.912 2.49 2.52 2.53 2.53 2.55 2.6 2.66 2.68 2.74 2.82
2479.206 2.86 2.93 2.98 3.04 3.12 3.23 3.305 3.317 3.399 3.425
2498.499 3.407 3.451 3.486 3.552 3.578 3.571 3.603 3.584 3.561 3.544
2517.793 3.497 3.439 3.473 3.477 3.415 3.379 3.316 3.244 3.18 3.15
2537.086 3.11 3.09 3.1 3.08 3.07 3.08 3.05 3.05 3.07 3.08
2556.380 3.08 3.1 3.12 3.12 3.11 3.16 3.21 3.24 3.276 3.335
2575.673 3.422 3.514 3.609 3.666 3.729 3.789 3.832 3.919 3.946 3.951
2594.966 4.012 4.035 4.053 4.112 4.14 4.1584 4.1479 4.1502 4.168 4.134
2614.260 4.1508 4.1898 4.2208 4.1957 4.1 4.074 4.093 4.04 3.908 3.795
2633.553 3.727 3.679 3.66 3.611 3.567 3.545 3.511 3.525 3.526 3.532
2652.847 3.557 3.626 3.71 3.758 3.87 3.988 4.038 4.13 4.26937 4.3969
2672.140 4.5474 4.7041 4.8668 5.0488 5.26 5.47 5.66 5.86 6.06 6.3
2691.434 6.59 6.94 7.28 7.53 7.86 8.25 8.66 9.07 9.54 10.05
2710.727 10.52 10.94 11.35 11.76 12.04 12.14 12.23 12.22 12.05 11.8
2730.020 11.42 10.95 10.4 9.75 9.08 8.37 7.71 7.1 6.48 5.94
2749.314 5.45 4.9784 4.6198 4.3432 4.124 3.946 3.743 3.57 3.446 3.306
2768.607 3.17 3.06 2.97 2.89 2.81 2.71 2.64 2.59 2.51 2.45
2787.901 2.38 2.34 2.27 2.25 2.27 2.29 2.35 2.39 2.36 2.38
2807.194 2.48 2.51 2.49 2.56 2.6 2.6 2.62 2.65 2.7 2.7
2826.488 2.7 2.66 2.66 2.67 2.59 2.55 2.56 2.56 2.62 2.65
2845.781 2.7 2.77 2.93 3.12 3.27 3.52 3.819 4.1937 4.6081 5.1009
2865.074 5.75 6.54 7.46 8.4 9.35 10.27 11.22 11.97 12.47 12.88
2884.368 13.37 13.92 14.32 14.67 15.08 15.51 15.84 16.25 16.85 17.51
2903.661 18.36 19.61 21.03 22.62 24.41 26.29 28.15 29.93 31.62 33.07
2922.955 34.22 34.95 35.44 36.07 36.81 37.52 37.94 38.09 38.08 37.82
2942.248 37.34 36.81 36.3 35.78 35.2 34.55 33.73 32.87 32.12 31.73
2961.542 31.77 32.43 34.13 36.92 41.06 46.91 54.57 63.73 73.6 82.92
2980.835 90.32 95.48 99.08 100.71 98.76 95.68 94.07 89.97 82.48 73.63
3000.128 63.53 53.17 43.69 35.88 29.92 25.18 21.25 18.13 15.63 13.34
3019.422 11.49 10.09 8.76 7.66 6.93 6.27 5.76 5.44 5.0356 4.7419
3038.715 4.5749 4.3109 3.996 3.722 3.338 3.04 2.8 2.48 2.25 1.99
3058.009 1.72 1.53 1.32 1.17 1.13 1.05 0.94 0.83 0.7 0.65
3077.302 0.64 0.68 0.7 0.6 0.59 0.5 0.46 0.63 0.57 0.49
3096.596 0.45 0.41 0.53 0.56 0.54 0.5 0.49 0.43 0.41 0.43
3115.889 0.42 0.39 0.31 0.23 0.22 0.27 0.32 0.32 0.15 0.1
3135.182 0.08 0.17 0.29 0.2 0.18 0.19 0.21 0.22 0.2 0.19
3154.476 0.18 0.16 0.23 0.32 0.36 0.31 0.36 0.48 0.39 0.39
3173.769 0.6 0.63 0.58 0.59 0.71 0.77 0.72 0.75 0.76 0.78
3193.063 0.84 0.88 0.89 0.88 0.98 1.05 1.02 1.03 1.1 1.09
3212.356 1.03 1.12 1.17 1.05 1.03 1.05 0.9 0.79 0.84 0.85
3231.650 0.79 0.68 0.75 0.83 0.81 0.75 0.63 0.6 0.66 0.66
3250.943 0.5 0.43 0.43 0.38 0.4 0.28 0.1 0.19 0.3 0.23
3270.236 0.15 0.2 0.16 0.16 0.19 0 0 0.13 0.2 0.26
3289.530 0.26 0.22 0.13 0.08 0.14 0.17 0.19 0.18 0.17 0.31
3308.823 0.39 0.29 0.34 0.5 0.49 0.47 0.57 0.53 0.52 0.61
3328.117 0.66 0.54 0.42 0.51 0.64 0.66 0.63 0.63 0.55 0.61
3347.410 0.69 0.61 0.6 0.61 0.58 0.6 0.7 0.8 0.74 0.7
3366.704 0.6 0.6 0.73 0.75 0.71 0.76 0.82 0.78 0.76 0.81
3385.997 0.82 0.76 0.83 0.79 0.78 0.73 0.65 0.7 0.77 0.88
3405.290 0.93 0.76 0.77 0.92 0.93 0.84 0.83 1.02 1.03 0.95
3424.584 0.95 0.93 0.84 0.87 1.02 1.14 1.12 1.03 1.02 1.04
3443.877 1.07 1.09 1.03 1.03 1.14 1.09 1.04 1.03 1.06 1.03
3463.171 0.98 1.05 1.12 1.15 1.09 1.09 1.06 1.05 1.15 1.15
3482.464 1.14 1.07 1.1 1.18 1.14 1.29 1.34 1.27 1.21 1.22
3501.758 1.23 1.17 1.19 1.22 1.31 1.4 1.36 1.34 1.3 1.33
3521.051 1.34 1.3 1.33 1.42 1.47 1.45 1.49 1.51 1.53 1.59
3540.344 1.58 1.65 1.64 1.54 1.5 1.51 1.54 1.55 1.53 1.56
3559.638 1.62 1.66 1.72 1.77 1.74 1.74 1.73 1.72 1.71 1.69
3578.931 1.73 1.69 1.71 1.79 1.83 1.8 1.8 1.78 1.78 1.79
3598.225 1.72 1.75 1.76 1.72 1.73 1.75 1.68 1.65 1.79 1.82
3617.518 1.7 1.71 1.88 1.9 1.8 1.79 1.79 1.79 1.84 1.89
3636.812 1.93 1.93 1.89 1.91 1.9 1.85 1.79 1.86 1.9 1.9
3656.105 1.93 1.98 1.92 1.8 1.87 1.93 1.95 1.95 2 1.95
3675.398 1.86 1.93 1.96 1.9 1.93 1.99 1.93 1.89 1.91 1.91
3694.692 1.95 1.97 1.99 1.99 1.98 2.03 2.04 2.05 2.02 1.97
3713.985 2.08 2.14 2.03 1.98 1.98 2.05 2.07 2.1 2.15 2.13
3733.279 2.22 2.27 2.13 2.1 2.09 2.11 2.1 2.04 2.12 2.22
3752.572 2.24 2.19 2.15 2.19 2.16 2.13 2.2 2.25 2.2 2.16
3771.866 2.14 2.1 2.15 2.26 2.27 2.23 2.22 2.28 2.35 2.41
3791.159 2.41 2.39 2.35 2.33 2.33 2.33 2.4 2.38 2.47 2.44
3810.452 2.34 2.36 2.39 2.47 2.56 2.54 2.51 2.5 2.51 2.54
3829.746 2.64 2.68 2.57 2.5 2.46 2.5 2.64 2.66 2.54 2.52
3849.039 2.59 2.64 2.68 2.71 2.74 2.68 2.71 2.72 2.71 2.76
3868.333 2.8 2.86 2.8 2.8 2.84 2.91 2.97 2.96 3 2.95
3887.626 2.97 3.08 3.09 3.07 3.04 3.08 3.14 3.19 3.16 3.01
3906.920 3.05 3.08 3.07 3.16 3.14 3.12 3.17 3.22 3.297 3.351
3926.213 3.326 3.305 3.322 3.286 3.23 3.302 3.362 3.336 3.356 3.446
3945.506 3.502 3.478 3.452 3.45 3.406 3.457 3.551 3.538 3.504 3.591
3964.800 3.688 3.687 3.697 3.696 3.675 3.698 3.809 3.833 3.797 3.89
3984.093 3.989 4.031 4.006 3.985 4.082 4.1413 4.1537 4.1605 4.2197
##END=
