##TITLE=Propargyl isothiocyanate
##JCAMP-DX=4.24
##DATA TYPE=INFRARED SPECTRUM
##ORIGIN=EPA-IR VAPOR PHASE LIBRARY
##OWNER=SRD/NIST
Collection (C) 2018 copyright by the U.S. Secretary of Commerce
on behalf of the United States of America. All rights reserved.
##CAS REGISTRY NO=24309-48-6
##MOLFORM=C 4 H 3 N S
##$NIST SOURCE=MSDC-IR
##STATE=gas
##XUNITS=1/CM
##YUNITS=ABSORBANCE
##XFACTOR=1.
##YFACTOR=0.001
##DELTAX=1.92898
##FIRSTX=549.8
##LASTX=4000.7
##FIRSTY=9.608
##MAXX=4000.7
##MINX=549.759
##MAXY=0.291088
##MINY=0
##NPOINTS=1790
##XYDATA=(X++(Y..Y))
549.759 9.608 10.558 10.918 11.788 12.908 13.718 15.088 15.918 16.828 17.698
569.049 17.988 18.588 18.918 18.978 19.228 19.188 18.638 17.848 17.198 16.428
588.339 15.508 14.978 14.558 13.898 13.478 12.998 12.528 12.278 11.978 11.788
607.628 11.878 11.848 11.688 11.798 11.838 11.998 12.448 13.028 13.528 13.998
626.918 14.988 16.278 17.318 18.278 19.578 21.228 23.428 26.198 29.018 31.088
646.208 32.408 33.808 35.388 36.668 37.868 39.298 41.198 43.018 43.048 40.288
665.498 36.328 33.028 29.898 26.578 23.648 21.318 19.178 17.338 15.978 14.908
684.787 14.098 13.638 13.538 13.588 13.978 14.518 15.248 16.208 17.088 17.848
704.077 18.458 19.268 19.988 20.558 21.148 21.118 20.568 19.788 18.968 18.178
723.367 17.358 16.838 16.678 16.408 15.958 15.448 15.128 15.018 14.628 14.178
742.657 13.638 13.288 12.918 12.338 11.818 11.308 10.618 9.858 9.528 9.338
761.947 9.108 8.898 8.698 8.388 8.168 7.798 7.348 7.148 7.128 7.298
781.236 7.468 7.788 8.128 8.448 8.958 9.198 9.568 10.098 10.608 11.178
800.526 11.628 12.428 13.358 14.218 14.948 15.118 14.658 14.488 14.838 15.438
819.816 16.228 16.568 16.568 16.508 16.478 16.798 17.098 17.378 17.638 17.788
839.106 18.028 18.408 18.988 19.668 20.618 22.018 23.618 25.288 26.868 28.518
858.395 29.828 30.568 31.118 31.198 30.588 30.298 30.888 31.118 30.738 29.848
877.685 28.348 26.508 24.348 22.038 19.798 17.908 16.188 14.718 13.578 12.488
896.975 11.768 11.518 11.008 10.458 10.228 9.978 9.778 9.648 9.568 9.578
916.265 9.718 9.848 9.948 10.018 10.208 10.558 10.978 11.138 11.108 11.318
935.555 11.598 11.848 12.128 12.208 12.178 12.058 11.718 11.168 10.528 10.118
954.844 9.528 8.918 8.588 8.018 7.328 6.848 6.238 5.918 5.638 5.088
974.134 4.808 4.588 4.368 4.158 4.078 3.918 3.508 3.328 3.348 3.338
993.424 3.138 3.048 2.998 2.908 3.038 2.978 2.928 3.068 3.088 3.048
1012.714 3.048 2.878 2.768 3.048 3.088 2.848 2.848 2.968 2.918 2.758
1032.003 2.778 2.708 2.758 2.868 2.818 2.878 2.828 2.718 2.708 2.788
1051.293 2.828 2.598 2.598 2.858 2.888 2.818 2.588 2.538 2.678 2.778
1070.583 3.238 3.208 3.108 3.408 3.528 3.338 3.058 3.478 4.038 3.868
1089.873 3.698 3.958 4.278 4.538 4.778 4.818 4.728 4.338 4.378 4.598
1109.163 4.198 4.308 4.088 3.538 3.748 3.798 3.458 3.228 3.028 2.708
1128.452 2.558 2.638 2.758 2.698 2.538 2.508 2.388 2.578 2.648 2.468
1147.742 2.228 2.168 2.468 2.788 3.038 3.068 2.938 2.918 3.248 3.398
1167.032 3.288 3.058 3.048 3.218 3.188 2.948 2.728 2.868 2.738 2.588
1186.322 2.728 2.768 2.898 2.858 2.928 2.988 2.948 3.068 3.388 3.438
1205.611 3.338 3.588 4.068 4.718 5.358 5.908 6.468 7.198 8.458 10.248
1224.901 11.898 13.678 15.628 17.558 18.628 18.708 18.588 19.008 19.918 20.648
1244.191 21.198 21.528 21.318 20.108 18.348 16.638 15.258 14.268 13.628 13.258
1263.481 12.938 12.858 13.008 13.238 13.528 13.818 14.048 14.268 14.358 14.448
1282.771 14.678 14.728 14.798 14.838 14.808 14.848 15.068 15.198 15.378 15.738
1302.060 15.968 16.338 16.808 17.438 18.348 19.358 20.588 22.208 24.128 26.518
1321.350 29.648 33.688 38.898 45.258 52.058 58.158 62.008 62.568 60.378 57.138
1340.640 54.108 52.028 51.408 50.868 48.148 42.628 35.418 27.848 21.048 15.808
1359.930 12.318 10.258 9.208 8.608 8.128 7.828 7.578 7.288 6.918 6.598
1379.219 6.348 6.098 5.808 5.558 5.328 5.068 4.848 4.688 4.548 4.458
1398.509 4.458 4.468 4.578 4.768 5.018 5.378 5.828 6.368 6.908 7.448
1417.799 7.888 8.088 8.118 8.088 8.098 8.088 8.128 8.338 8.628 8.898
1437.089 8.978 8.888 8.508 7.888 7.108 6.408 6.078 6.068 6.038 5.848
1456.378 5.538 4.898 4.068 3.278 2.608 2.218 1.988 1.768 1.638 1.5411
1475.668 1.4943 1.4797 1.442 1.3661 1.3212 1.3178 1.3068 1.2501 1.2497 1.2789
1494.958 1.2729 1.3437 1.3755 1.3219 1.3153 1.3792 1.3641 1.2544 1.2691 1.2991
1514.248 1.295 1.342 1.3232 1.2806 1.2868 1.3301 1.344 1.3156 1.2593 1.3179
1533.538 1.3807 1.333 1.3566 1.366 1.2796 1.2722 1.2456 1.1736 1.2185 1.2253
1552.827 1.1857 1.2151 1.2254 1.1495 1.0728 1.0565 1.0399 1.0115 1.0256 1.0847
1572.117 1.0501 1.0638 1.0924 1.0285 1.0211 1.0022 1.0802 1.132 1.0844 1.0465
1591.407 1.0388 1.1606 1.2021 1.1413 1.141 1.1857 1.2498 1.3121 1.3372 1.3032
1610.697 1.2362 1.2758 1.3577 1.3681 1.3558 1.3896 1.3668 1.3837 1.5222 1.5624
1629.986 1.5232 1.4745 1.5666 1.618 1.5681 1.6105 1.618 1.618 1.5977 1.5647
1649.276 1.5367 1.4752 1.4183 1.3925 1.3091 1.2965 1.3119 1.2831 1.2619 1.324
1668.566 1.4348 1.4316 1.4091 1.3735 1.3296 1.3406 1.3398 1.2937 1.3206 1.3147
1687.856 1.3041 1.3423 1.3094 1.2784 1.3005 1.3335 1.3975 1.4834 1.5324 1.5666
1707.146 1.658 1.748 1.848 1.968 2.118 2.328 2.488 2.728 3.018 3.228
1726.435 3.448 3.618 3.688 3.698 3.718 3.808 3.858 3.798 3.678 3.578
1745.725 3.438 3.248 3.088 2.868 2.688 2.518 2.288 2.078 1.878 1.768
1765.015 1.698 1.628 1.531 1.4549 1.4319 1.3343 1.2836 1.2691 1.2578 1.2546
1784.305 1.1999 1.2035 1.223 1.239 1.2944 1.2895 1.2348 1.2583 1.3281 1.341
1803.594 1.3195 1.3539 1.4078 1.4172 1.4353 1.4599 1.519 1.5922 1.5744 1.5678
1822.884 1.648 1.708 1.728 1.698 1.678 1.738 1.818 1.928 1.968 1.988
1842.174 2.078 2.128 2.118 2.118 2.238 2.338 2.408 2.528 2.668 2.818
1861.464 2.878 2.978 3.098 3.238 3.438 3.598 3.738 3.908 4.138 4.428
1880.754 4.668 4.918 5.228 5.448 5.768 6.148 6.518 6.978 7.368 7.788
1900.043 8.358 8.878 9.398 10.038 10.718 11.448 12.248 13.088 13.948 14.868
1919.333 15.918 17.018 18.128 19.288 20.548 21.908 23.348 24.788 26.258 27.718
1938.623 29.178 30.578 31.918 33.208 34.428 35.728 37.048 38.418 39.888 41.408
1957.913 43.068 44.748 46.468 48.458 50.758 53.488 56.478 59.738 63.408 67.368
1977.202 71.688 76.288 81.218 86.538 92.158 98.098 104.438 111.148 118.328 126.038
1996.492 134.168 142.778 151.848 161.308 171.208 181.638 192.518 203.808 215.348 226.978
2015.782 238.668 250.108 261.098 271.318 280.438 287.738 291.088 289.108 283.488 276.658
2035.072 268.978 259.698 248.228 234.538 219.348 203.878 189.348 176.588 165.788 156.868
2054.362 149.658 143.978 139.618 136.318 133.768 131.478 129.158 126.258 122.578 118.228
2073.651 112.968 106.868 100.198 93.148 86.008 79.058 72.338 65.968 60.118 54.978
2092.941 50.448 46.528 43.248 40.408 37.918 35.778 33.938 32.348 31.038 29.818
2112.231 28.778 27.878 27.118 26.508 25.918 25.368 24.788 24.258 23.708 23.108
2131.521 22.488 21.908 21.408 20.978 20.678 20.518 20.528 20.768 21.238 21.948
2150.810 22.968 24.218 25.518 26.788 28.018 29.118 30.028 30.748 31.278 31.658
2170.100 31.928 31.908 31.708 31.278 30.358 29.128 27.878 26.828 26.038 25.508
2189.390 25.118 24.988 24.958 24.878 24.898 24.938 24.768 24.428 24.098 23.548
2208.680 22.888 22.178 21.138 19.878 18.728 17.718 16.718 15.788 14.798 13.758
2227.970 12.688 11.638 10.818 10.078 9.338 8.808 8.398 7.948 7.518 7.158
2247.259 6.768 6.418 6.158 5.858 5.518 5.258 5.048 4.768 4.528 4.348
2266.549 4.068 3.928 3.898 3.838 3.708 3.468 3.318 3.238 3.168 3.078
2285.839 2.978 2.888 2.888 2.898 2.848 2.768 2.718 2.698 2.668 2.688
2305.129 2.638 2.618 2.638 2.578 2.518 2.458 2.468 2.508 2.508 2.548
2324.418 2.588 2.558 2.508 2.528 2.528 2.498 2.398 2.298 2.258 2.188
2343.708 2.138 2.008 1.898 1.888 1.728 1.5137 1.488 1.5262 1.4442 1.3478
2362.998 1.3775 1.3601 1.3347 1.3203 1.2219 1.2119 1.2152 1.2064 1.186 1.1684
2382.288 1.2455 1.2597 1.2221 1.2832 1.3604 1.3031 1.2743 1.3159 1.2281 1.2113
2401.578 1.2792 1.2559 1.193 1.1153 1.1075 1.1651 1.1302 1.0488 1.0588 1.0418
2420.867 1.0163 0.9741 0.9019 0.9536 0.9749 0.9817 0.9951 0.9578 0.9583 0.9918
2440.157 0.9677 0.9359 0.9445 0.9707 1.0258 1.0101 0.971 0.9684 0.9375 0.9574
2459.447 0.9879 0.9221 0.8965 0.9214 0.9495 1.016 0.985 0.9759 1.0623 1.0819
2478.737 1.0443 1.0672 1.0328 1.0151 1.0403 1.027 1.04 1.0237 1.0589 1.1056
2498.026 1.1215 1.0825 1.0908 1.1374 1.1842 1.2105 1.1477 1.182 1.1959 1.2172
2517.316 1.2669 1.3157 1.3019 1.2412 1.2544 1.2594 1.3007 1.3897 1.408 1.4144
2536.606 1.5324 1.5679 1.4977 1.5546 1.658 1.678 1.728 1.798 1.768 1.658
2555.896 1.638 1.708 1.798 1.858 1.868 1.848 1.868 1.968 2.028 2.038
2575.186 2.078 2.128 2.228 2.338 2.398 2.438 2.498 2.518 2.458 2.498
2594.475 2.528 2.548 2.628 2.548 2.518 2.428 2.238 2.108 1.988 1.918
2613.765 1.878 1.828 1.658 1.4944 1.3715 1.2947 1.2691 1.212 1.146 1.0303
2633.055 1.0312 1.0749 1.0247 1.0503 1.1477 1.1204 1.0929 1.1685 1.2759 1.2989
2652.345 1.2499 1.2585 1.2197 1.1919 1.3021 1.377 1.3911 1.4815 1.5711 1.5758
2671.634 1.5914 1.658 1.698 1.668 1.678 1.798 1.798 1.798 1.878 1.838
2690.924 1.808 1.908 2.058 2.118 2.128 2.178 2.188 2.168 2.288 2.398
2710.214 2.458 2.528 2.588 2.798 2.838 2.888 3.148 3.308 3.328 3.358
2729.504 3.458 3.628 3.798 3.828 3.848 3.868 3.788 3.688 3.548 3.478
2748.794 3.408 3.328 3.308 3.198 2.958 2.908 2.888 2.728 2.658 2.588
2768.083 2.508 2.488 2.458 2.458 2.498 2.528 2.458 2.458 2.638 2.588
2787.373 2.508 2.618 2.738 2.638 2.568 2.578 2.498 2.368 2.148 2.178
2806.663 2.258 2.158 2.098 1.978 1.848 1.938 1.938 1.848 1.818 1.768
2825.953 1.748 1.708 1.698 1.778 1.898 1.978 1.958 1.868 1.958 2.008
2845.242 1.998 2.108 2.158 2.178 2.178 2.268 2.428 2.508 2.548 2.748
2864.532 2.908 2.988 3.118 3.178 3.208 3.228 3.218 3.208 3.158 3.138
2883.822 3.218 3.148 2.888 2.728 2.548 2.328 2.238 2.268 2.198 2.048
2903.112 2.018 2.078 2.198 2.288 2.358 2.498 2.708 3.048 3.508 3.988
2922.401 4.318 4.698 5.338 6.158 6.948 7.448 7.688 7.758 7.748 7.798
2941.691 7.928 8.208 8.388 8.138 7.798 7.268 6.468 5.658 5.028 4.588
2960.981 4.188 3.868 3.558 3.278 2.988 2.668 2.398 2.218 1.958 1.828
2980.271 1.728 1.5164 1.4339 1.4103 1.3504 1.2085 1.1459 1.1728 1.2137 1.2703
2999.561 1.3367 1.2849 1.3111 1.4094 1.3852 1.3934 1.4914 1.5259 1.5711 1.728
3018.850 1.798 1.848 1.838 1.768 1.848 2.128 2.318 2.348 2.568 2.868
3038.140 3.228 3.418 3.368 3.228 3.078 3.168 3.208 3.098 3.038 3.058
3057.430 3.018 2.738 2.338 1.788 1.3751 1.2463 0.9896 0.7774 0.70615 0.5753
3076.720 0.60824 0.5953 0.5538 0.60869 0.618968 0.5342 0.333 0.39 0.5626 0.5496
3096.009 0.467 0.454 0.516 0.45 0.299 0.308 0.277 0.286 0.35 0.386
3115.299 0.334 0.311 0.326 0.317 0.36 0.255 0.211 0.316 0.387 0.429
3134.589 0.46 0.386 0.317 0.308 0.344 0.345 0.325 0.282 0.229 0.438
3153.879 0.547 0.389 0.411 0.457 0.367 0.249 0.15 0.39 0.395 0.15
3173.169 0.302 0.339 0.214 0.199 0.177 0.1 0.084 0.062 0.009 0.1
3192.458 0.138 0.164 0.178 0.065 0.072 0.19 0.245 0.133 0 0.09
3211.748 0.056 0.091 0.312 0.315 0.186 0.189 0.199 0.216 0.286 0.224
3231.038 0.317 0.499 0.47 0.489 0.5587 0.47 0.5722 0.7339 0.63063 0.618029
3250.328 0.7464 0.7945 0.8095 0.9069 1.0417 1.0646 1.112 1.242 1.4407 1.6127
3269.617 1.798 1.998 2.278 2.608 2.938 3.448 3.868 4.188 4.538 4.898
3288.907 5.248 5.778 6.628 7.738 8.938 10.078 11.048 11.578 12.008 12.418
3308.197 12.938 13.988 15.418 17.478 20.118 22.178 23.378 23.528 22.448 20.838
3327.487 19.328 18.298 18.528 20.338 21.428 20.278 17.538 14.248 11.358 9.128
3346.777 7.678 6.738 5.808 4.998 4.158 3.388 3.068 2.668 2.158 1.828
3366.066 1.472 1.0788 0.9166 0.9393 0.9594 0.8318 0.7248 0.70973 0.6042 0.5931
3385.356 0.5781 0.6009 0.5935 0.439 0.454 0.6559 0.68333 0.60897 0.5514 0.60814
3404.646 0.63095 0.5768 0.5236 0.469 0.391 0.295 0.436 0.489 0.423 0.425
3423.936 0.29 0.215 0.273 0.488 0.471 0.381 0.417 0.241 0.177 0.288
3443.225 0.293 0.196 0.286 0.439 0.443 0.442 0.489 0.398 0.406 0.421
3462.515 0.431 0.493 0.302 0.226 0.3 0.331 0.301 0.282 0.267 0.31
3481.805 0.367 0.343 0.274 0.208 0.252 0.346 0.414 0.403 0.313 0.336
3501.095 0.387 0.303 0.319 0.366 0.316 0.306 0.463 0.509 0.439 0.296
3520.385 0.177 0.26 0.405 0.46 0.375 0.31 0.174 0.233 0.422 0.399
3539.674 0.401 0.387 0.397 0.43 0.358 0.236 0.3 0.422 0.438 0.461
3558.964 0.349 0.225 0.224 0.247 0.248 0.291 0.36 0.176 0.148 0.257
3578.254 0.179 0.183 0.22 0.191 0.137 0.159 0.218 0.304 0.287 0.275
3597.544 0.288 0.28 0.248 0.185 0.218 0.338 0.337 0.38 0.404 0.276
3616.833 0.208 0.302 0.433 0.475 0.416 0.394 0.424 0.302 0.175 0.142
3636.123 0.187 0.259 0.356 0.343 0.234 0.211 0.266 0.479 0.5356 0.285
3655.413 0.236 0.368 0.308 0.134 0.204 0.335 0.356 0.475 0.455 0.389
3674.703 0.449 0.459 0.388 0.43 0.624412 0.467 0.171 0.23 0.285 0.286
3693.993 0.358 0.423 0.273 0.243 0.267 0.177 0.242 0.246 0.409 0.402
3713.282 0.262 0.301 0.324 0.396 0.416 0.425 0.415 0.371 0.495 0.434
3732.572 0.283 0.308 0.419 0.413 0.312 0.367 0.392 0.363 0.278 0.273
3751.862 0.205 0.205 0.398 0.279 0.181 0.296 0.335 0.464 0.622279 0.464
3771.152 0.487 0.66114 0.454 0.32 0.351 0.398 0.479 0.474 0.48 0.5323
3790.441 0.64317 0.65394 0.442 0.253 0.193 0.374 0.5424 0.516 0.5518 0.65025
3809.731 0.7293 0.65011 0.5213 0.497 0.5953 0.506 0.493 0.68226 0.625668 0.5878
3829.021 0.6688 0.65721 0.5477 0.65747 0.63196 0.574 0.65562 0.69966 0.70821 0.5598
3848.311 0.5385 0.5896 0.5367 0.5739 0.63673 0.7231 0.8414 0.8505 0.620471 0.454
3867.601 0.5974 0.63926 0.8354 1.0207 0.9377 0.9209 0.9304 0.8812 0.9235 1.0278
3886.890 0.9366 0.7759 0.68647 0.64418 0.71684 0.7907 0.67851 0.70116 0.7867 0.7566
3906.180 0.7395 0.7973 0.7746 0.741 0.8452 0.8487 0.8506 0.8794 1.0413 1.309
3925.470 1.3189 1.3096 1.4754 1.5397 1.4468 1.3112 1.2304 1.1108 1.1429 1.2803
3944.760 1.3371 1.4383 1.5034 1.587 1.4712 1.342 1.3537 1.2522 1.4389 1.688
3964.049 1.688 1.648 1.678 1.628 1.4903 1.4628 1.628 1.698 1.6089 1.5867
3983.339 1.5796 1.5266 1.479 1.6046 1.638 1.6028 1.5604 1.5754 1.6149 1.798
##END=
