##TITLE=PROPENE, 1,1,3-TRICHLORO-
##JCAMP-DX=4.24
##DATA TYPE=INFRARED SPECTRUM
##CLASS=COBLENTZ III
##ORIGIN=DOW CORNING CORP.
##OWNER=COBLENTZ SOCIETY
Collection (C) 2018 copyright by the U.S. Secretary of Commerce
on behalf of the United States of America. All rights reserved.
##DATE=1966
##NAMES=1,1,3-trichloro-1-propene
##CAS REGISTRY NO=2567-14-8
##MOLFORM=C3 H3 Cl3
##BP=51 C AT 18 mmHg
##SOURCE REFERENCE=COBLENTZ NO. 4787
##$NIST SOURCE=COBLENTZ
##$NIST IMAGE=cob4787
##SPECTROMETER/DATA SYSTEM=PERKIN-ELMER 521 (GRATING)
##INSTRUMENT PARAMETERS=FILTERS AT 3150, 2500, 2000, 1150, 700, 410; GRATING CHANGES AT 2000, 630 CM^-^1
##STATE=SOLUTION (10% IN CCl4 FOR 3800-1300, 10% IN CS2 FOR 1300-620, AND 10% CCl4 FOR 620-240 CM^-^1) VERSUS SOLVENT
##PATH LENGTH=0.012, 0.011, AND 0.010 CM (CsBr CELL)
$$ 99% PURE BY GLC; STRUCTURE VERIFIED BY ELEMENTAL, NMR; RI 1.4535 AT 25 C
##SAMPLING PROCEDURE=TRANSMISSION
##RESOLUTION=4
##DATA PROCESSING=DIGITIZED BY NIST FROM HARD COPY (FROM TWO SEGMENTS)
##XUNITS=1/CM
##YUNITS=TRANSMITTANCE
##XFACTOR=1.000000
##YFACTOR=1
##DELTAX=0.984686
##FIRSTX=239.387
##LASTX=3795.09
##FIRSTY=0.766
##MAXX=3795.09
##MINX=239.387
##MAXY=0.895
##MINY=0.0460084
##NPOINTS=3612
##XYDATA=(X++(Y..Y))
239.387000 0.7660 0.7750 0.7810 0.7830 0.7850
244.310428 0.7860 0.7870 0.7870 0.7870 0.7910
249.233856 0.7930 0.7940 0.7940 0.7950 0.7970
254.157284 0.7980 0.8000 0.8040 0.8060 0.8060
259.080712 0.8080 0.8090 0.8090 0.8100 0.8100
264.004140 0.8120 0.8120 0.8130 0.8130 0.8140
268.927568 0.8160 0.8170 0.8180 0.8210 0.8210
273.850996 0.8200 0.8200 0.8200 0.8210 0.8220
278.774424 0.8220 0.8240 0.8240 0.8250 0.8260
283.697852 0.8260 0.8260 0.8260 0.8260 0.8280
288.621280 0.8290 0.8320 0.8360 0.8400 0.8440
293.544709 0.8490 0.8530 0.8550 0.8570 0.8590
298.468137 0.8610 0.8610 0.8630 0.8640 0.8650
303.391565 0.8650 0.8650 0.8670 0.8670 0.8670
308.314993 0.8680 0.8680 0.8690 0.8690 0.8710
313.238421 0.8720 0.8720 0.8730 0.8750 0.8790
318.161849 0.8810 0.8810 0.8830 0.8830 0.8840
323.085277 0.8840 0.8840 0.8840 0.8850 0.8850
328.008705 0.8850 0.8840 0.8840 0.8810 0.8810
332.932133 0.8800 0.8790 0.8790 0.8770 0.8770
337.855561 0.8760 0.8750 0.8750 0.8750 0.8750
342.778989 0.8750 0.8760 0.8790 0.8810 0.8870
347.702417 0.8880 0.8890 0.8910 0.8910 0.8920
352.625845 0.8920 0.8920 0.8910 0.8910 0.8890
357.549273 0.8890 0.8880 0.8880 0.8880 0.8880
362.472701 0.8870 0.8870 0.8870 0.8870 0.8870
367.396129 0.8870 0.8870 0.8870 0.8870 0.8870
372.319557 0.8850 0.8850 0.8850 0.8850 0.8830
377.242985 0.8830 0.8810 0.8800 0.8800 0.8810
382.166413 0.8810 0.8800 0.8770 0.8760 0.8750
387.089841 0.8750 0.8720 0.8710 0.8690 0.8670
392.013269 0.8670 0.8670 0.8650 0.8650 0.8650
396.936698 0.8650 0.8640 0.8610 0.8590 0.8590
401.860126 0.8570 0.8570 0.8570 0.8570 0.8560
406.783554 0.8560 0.8560 0.8550 0.8550 0.8460
411.706982 0.8440 0.8440 0.8440 0.8440 0.8420
416.630410 0.8420 0.8380 0.8360 0.8280 0.8240
421.553838 0.8220 0.8210 0.8170 0.8090 0.8040
426.477266 0.8010 0.7970 0.7900 0.7780 0.7730
431.400694 0.7650 0.7590 0.7570 0.7470 0.7420
436.324122 0.7260 0.7160 0.7100 0.7040 0.6990
441.247550 0.6960 0.6930 0.6930 0.6920 0.6930
446.170978 0.6950 0.7020 0.7080 0.7140 0.7230
451.094406 0.7310 0.7400 0.7430 0.7530 0.7610
456.017834 0.7620 0.7630 0.7660 0.7670 0.7700
460.941262 0.7740 0.7750 0.7750 0.7750 0.7750
465.864690 0.7750 0.7730 0.7690 0.7610 0.7580
470.788118 0.7480 0.7440 0.7380 0.7270 0.7180
475.711546 0.7000 0.6810 0.6650 0.6530 0.6400
480.634974 0.6320 0.6180 0.6130 0.6120 0.6130
485.558402 0.6220 0.6340 0.6380 0.6410 0.6480
490.481830 0.6560 0.6680 0.6839 0.6989 0.7139
495.405258 0.7220 0.7260 0.7400 0.7480 0.7550
500.328687 0.7590 0.7690 0.7770 0.7780 0.7820
505.252115 0.7890 0.7930 0.7970 0.7970 0.7980
510.175543 0.8060 0.8080 0.8090 0.8100 0.8130
515.098971 0.8140 0.8160 0.8160 0.8170 0.8170
520.022399 0.8180 0.8180 0.8200 0.8200 0.8200
524.945827 0.8210 0.8210 0.8210 0.8220 0.8240
529.869255 0.8250 0.8250 0.8250 0.8260 0.8280
534.792683 0.8290 0.8290 0.8300 0.8300 0.8300
539.716111 0.8300 0.8290 0.8290 0.8280 0.8280
544.639539 0.8260 0.8260 0.8260 0.8260 0.8280
549.562967 0.8280 0.8280 0.8280 0.8290 0.8290
554.486395 0.8300 0.8300 0.8300 0.8300 0.8300
559.409823 0.8300 0.8320 0.8320 0.8320 0.8320
564.333251 0.8320 0.8320 0.8320 0.8300 0.8300
569.256679 0.8300 0.8300 0.8290 0.8290 0.8280
574.180107 0.8280 0.8260 0.8240 0.8220 0.8200
579.103535 0.8170 0.8140 0.8120 0.8050 0.8000
584.026963 0.7890 0.7860 0.7850 0.7830 0.7580
588.950391 0.7310 0.7061 0.6801 0.6551 0.6291
593.873819 0.6040 0.5570 0.5340 0.5120 0.4910
598.797247 0.4690 0.4331 0.4300 0.4320 0.4559
603.720676 0.4770 0.5140 0.5420 0.5670 0.5770
608.644104 0.5930 0.6169 0.6320 0.6410 0.6460
613.567532 0.6510 0.6520 0.6530 0.6550 0.6570
618.490960 0.6610 0.6650 0.6730 0.6790 0.6850
623.414388 0.6890 0.6930 0.6930 0.6950 0.7030
628.337816 0.7100 0.7200 0.7310 0.7380 0.7390
633.261244 0.7430 0.7500 0.7540 0.7570 0.7590
638.184672 0.7630 0.7650 0.7670 0.7700 0.7740
643.108100 0.7740 0.7770 0.7780 0.7790 0.7790
648.031528 0.7810 0.7810 0.7820 0.7820 0.7820
652.954956 0.7820 0.7820 0.7820 0.7820 0.7820
657.878384 0.7810 0.7790 0.7780 0.7750 0.7700
662.801812 0.7620 0.7590 0.7540 0.7470 0.7460
667.725240 0.7440 0.7420 0.7390 0.7320 0.7240
672.648668 0.7190 0.7100 0.7020 0.6930 0.6890
677.572096 0.6890 0.6591 0.6371 0.6290 0.6171
682.495524 0.6160 0.6050 0.5830 0.5570 0.5440
687.418952 0.5280 0.5120 0.4951 0.4801 0.4651
692.342380 0.4570 0.4550 0.4450 0.4410 0.4400
697.265808 0.4400 0.4410 0.4460 0.4530 0.4749
702.189236 0.4800 0.4840 0.4870 0.4990 0.5100
707.112665 0.5200 0.5300 0.5440 0.5580 0.5700
712.036093 0.5750 0.5870 0.5940 0.6010 0.6080
716.959521 0.6140 0.6210 0.6280 0.6340 0.6410
721.882949 0.6480 0.6530 0.6650 0.6730 0.6810
726.806377 0.6870 0.6920 0.6970 0.7040 0.7070
731.729805 0.7100 0.7140 0.7190 0.7270 0.7340
736.653233 0.7420 0.7430 0.7540 0.7660 0.7770
741.576661 0.7780 0.7820 0.7850 0.7890 0.7900
746.500089 0.7930 0.7970 0.8040 0.8130 0.8170
751.423517 0.8180 0.8200 0.8220 0.8250 0.8280
756.346945 0.8300 0.8300 0.8320 0.8330 0.8340
761.270373 0.8340 0.8340 0.8340 0.8340 0.8330
766.193801 0.8330 0.8320 0.8300 0.8250 0.8200
771.117229 0.8130 0.8100 0.8100 0.8090 0.8080
776.040657 0.8060 0.8060 0.8050 0.8040 0.8020
780.964085 0.8010 0.7970 0.7940 0.7850 0.7810
785.887513 0.7790 0.7770 0.7750 0.7700 0.7571
790.810941 0.7530 0.7480 0.7440 0.7390 0.7310
795.734369 0.7260 0.7240 0.7031 0.7000 0.6970
800.657797 0.6920 0.6800 0.6690 0.6600 0.6510
805.581225 0.6420 0.6330 0.6240 0.6120 0.6000
810.504654 0.5850 0.5670 0.5470 0.5300 0.5260
815.428082 0.5030 0.4810 0.4710 0.4411 0.4181
820.351510 0.3949 0.3590 0.3550 0.3470 0.3390
825.274938 0.3300 0.3200 0.3120 0.3040 0.2990
830.198366 0.2970 0.2990 0.3060 0.3110 0.3220
835.121794 0.3340 0.3460 0.3540 0.3630 0.3849
840.045222 0.4000 0.4130 0.4140 0.4220 0.4220
844.968650 0.4180 0.4100 0.4020 0.3950 0.3850
849.892078 0.3820 0.3630 0.3300 0.3180 0.2870
854.815506 0.2640 0.2480 0.2251 0.2081 0.1701
859.738934 0.1300 0.1270 0.1140 0.1030 0.1000
864.662362 0.0990 0.0990 0.1000 0.1030 0.1259
869.585790 0.1300 0.1380 0.1460 0.1530 0.1730
874.509218 0.2060 0.2260 0.2490 0.2689 0.3039
879.432646 0.3401 0.3730 0.4020 0.4280 0.4530
884.356074 0.4750 0.4960 0.5150 0.5339 0.5529
889.279502 0.5700 0.5870 0.6130 0.6180 0.6290
894.202930 0.6370 0.6450 0.6490 0.6550 0.6610
899.126358 0.6630 0.6650 0.6650 0.6670 0.6670
904.049786 0.6680 0.6690 0.6710 0.6720 0.6800
908.973214 0.6880 0.6960 0.7100 0.7110 0.7140
913.896643 0.7140 0.7140 0.7140 0.7140 0.7120
918.820071 0.7120 0.7100 0.7070 0.7000 0.6970
923.743499 0.6840 0.6750 0.6630 0.6520 0.6420
928.666927 0.6280 0.6060 0.5710 0.5620 0.5340
933.590355 0.5160 0.4810 0.4371 0.4091 0.3901
938.513783 0.3689 0.3349 0.2770 0.2120 0.1830
943.437211 0.1820 0.1830 0.1930 0.2000 0.2120
948.360639 0.2491 0.3341 0.4100 0.4730 0.5180
953.284067 0.5390 0.5849 0.6199 0.6509 0.6769
958.207495 0.7070 0.7380 0.7670 0.7730 0.7810
963.130923 0.7950 0.8140 0.8180 0.8240 0.8290
968.054351 0.8290 0.8370 0.8510 0.8530 0.8550
972.977779 0.8560 0.8560 0.8590 0.8600 0.8630
977.901207 0.8640 0.8680 0.8720 0.8730 0.8750
982.824635 0.8760 0.8790 0.8810 0.8830 0.8830
987.748063 0.8840 0.8840 0.8870 0.8880 0.8890
992.671491 0.8910 0.8910 0.8910 0.8910 0.8910
997.594919 0.8910 0.8910 0.8890 0.8890 0.8890
1002.518347 0.8880 0.8880 0.8870 0.8870 0.8870
1007.441775 0.8870 0.8870 0.8870 0.8850 0.8850
1012.365204 0.8850 0.8840 0.8830 0.8830 0.8810
1017.288632 0.8810 0.8760 0.8720 0.8710 0.8680
1022.212060 0.8670 0.8650 0.8640 0.8630 0.8630
1027.135488 0.8610 0.8600 0.8550 0.8520 0.8520
1032.058916 0.8510 0.8520 0.8550 0.8560 0.8590
1036.982344 0.8600 0.8610 0.8600 0.8570 0.8550
1041.905772 0.8530 0.8480 0.8450 0.8440 0.8410
1046.829200 0.8370 0.8330 0.8290 0.8250 0.8210
1051.752628 0.8180 0.8140 0.8120 0.8020 0.7890
1056.676056 0.7770 0.7740 0.7550 0.7400 0.7180
1061.599484 0.6990 0.6870 0.6730 0.6600 0.6181
1066.522912 0.5859 0.5550 0.5460 0.5220 0.5220
1071.446340 0.5770 0.5780 0.6239 0.6639 0.6929
1076.369768 0.7470 0.7650 0.7750 0.8100 0.8260
1081.293196 0.8300 0.8360 0.8450 0.8520 0.8550
1086.216624 0.8560 0.8630 0.8710 0.8720 0.8760
1091.140052 0.8770 0.8770 0.8790 0.8810 0.8830
1096.063480 0.8840 0.8840 0.8850 0.8850 0.8870
1100.986908 0.8870 0.8870 0.8880 0.8880 0.8870
1105.910336 0.8870 0.8840 0.8830 0.8830 0.8800
1110.833764 0.8760 0.8730 0.8720 0.8720 0.8680
1115.757193 0.8630 0.8510 0.8450 0.8420 0.8370
1120.680621 0.8330 0.8300 0.8260 0.8250 0.8240
1125.604049 0.8250 0.8280 0.8370 0.8420 0.8460
1130.527477 0.8510 0.8560 0.8600 0.8640 0.8650
1135.450905 0.8680 0.8690 0.8710 0.8720 0.8720
1140.374333 0.8720 0.8720 0.8720 0.8710 0.8710
1145.297761 0.8690 0.8680 0.8670 0.8610 0.8590
1150.221189 0.8530 0.8420 0.8370 0.8330 0.8320
1155.144617 0.8210 0.8100 0.8010 0.7900 0.7770
1160.068045 0.7550 0.7140 0.6920 0.6710 0.6510
1164.991473 0.6259 0.5969 0.5579 0.5140 0.4610
1169.914901 0.4100 0.4080 0.4080 0.4090 0.4210
1174.838329 0.4281 0.4531 0.4850 0.4970 0.5190
1179.761757 0.5510 0.5910 0.6289 0.6599 0.6750
1184.685185 0.7000 0.7180 0.7380 0.7480 0.7610
1189.608613 0.7900 0.8050 0.8130 0.8160 0.8180
1194.532041 0.8220 0.8250 0.8320 0.8330 0.8380
1199.455469 0.8410 0.8420 0.8420 0.8440 0.8440
1204.378897 0.8440 0.8420 0.8420 0.8410 0.8400
1209.302325 0.8370 0.8360 0.8340 0.8340 0.8330
1214.225753 0.8320 0.8320 0.8280 0.8260 0.8180
1219.149182 0.8130 0.8120 0.8020 0.7970 0.7910
1224.072610 0.7790 0.7700 0.7630 0.7590 0.7530
1228.996038 0.7310 0.7100 0.6970 0.6720 0.6401
1233.919466 0.5999 0.5549 0.5099 0.4650 0.4250
1238.842894 0.3890 0.3320 0.2761 0.1612 0.1580
1243.766322 0.1611 0.2000 0.2221 0.2910 0.3590
1248.689750 0.4680 0.5509 0.6119 0.6559 0.6849
1253.613178 0.7081 0.7241 0.7500 0.7630 0.7740
1258.536606 0.7860 0.7870 0.7890 0.7890 0.7870
1263.460034 0.7860 0.7850 0.7810 0.7770 0.7730
1268.383462 0.7700 0.7670 0.7650 0.7620 0.7550
1273.306890 0.7430 0.7350 0.7260 0.7140 0.7000
1278.230318 0.6790 0.6630 0.6460 0.6280 0.6250
1283.153746 0.6250 0.6260 0.6300 0.6340 0.6380
1288.077174 0.6420 0.6530 0.6650 0.6730 0.6800
1293.000602 0.6810 0.6830 0.6870 0.6880 0.6910
1297.924030 0.7070 0.7260 0.7430 0.7550 0.7590
1302.847458 0.7700 0.7790 0.7900 0.7970 0.8040
1307.770886 0.8050 0.8200 0.8280 0.8320 0.8340
1312.694314 0.8360 0.8400 0.8410 0.8440 0.8460
1317.617742 0.8460 0.8510 0.8520 0.8550 0.8560
1322.541171 0.8570 0.8570 0.8590 0.8590 0.8590
1327.464599 0.8600 0.8600 0.8600 0.8600 0.8600
1332.388027 0.8590 0.8590 0.8590 0.8570 0.8560
1337.311455 0.8560 0.8560 0.8560 0.8550 0.8550
1342.234883 0.8530 0.8530 0.8530 0.8530 0.8550
1347.158311 0.8550 0.8570 0.8570 0.8590 0.8600
1352.081739 0.8610 0.8610 0.8630 0.8630 0.8630
1357.005167 0.8630 0.8630 0.8640 0.8640 0.8640
1361.928595 0.8650 0.8650 0.8670 0.8680 0.8680
1366.852023 0.8690 0.8690 0.8710 0.8710 0.8720
1371.775451 0.8720 0.8730 0.8730 0.8730 0.8730
1376.698879 0.8720 0.8710 0.8710 0.8720 0.8730
1381.622307 0.8750 0.8750 0.8750 0.8750 0.8750
1386.545735 0.8750 0.8750 0.8750 0.8750 0.8750
1391.469163 0.8730 0.8730 0.8730 0.8720 0.8720
1396.392591 0.8710 0.8690 0.8690 0.8680 0.8680
1401.316019 0.8670 0.8670 0.8650 0.8650 0.8650
1406.239447 0.8650 0.8650 0.8650 0.8630 0.8610
1411.162875 0.8600 0.8590 0.8570 0.8570 0.8570
1416.086303 0.8560 0.8550 0.8530 0.8530 0.8520
1421.009731 0.8510 0.8420 0.8360 0.8320 0.8280
1425.933160 0.8180 0.8130 0.8050 0.7940 0.7820
1430.856588 0.7660 0.7570 0.7459 0.7229 0.6970
1435.780016 0.6710 0.6400 0.6050 0.5650 0.5340
1440.703444 0.5200 0.5201 0.5471 0.5981 0.6601
1445.626872 0.7060 0.7280 0.7440 0.7710 0.7980
1450.550300 0.8130 0.8220 0.8290 0.8320 0.8330
1455.473728 0.8340 0.8360 0.8370 0.8370 0.8380
1460.397156 0.8400 0.8420 0.8420 0.8480 0.8520
1465.320584 0.8530 0.8530 0.8550 0.8560 0.8570
1470.244012 0.8590 0.8600 0.8610 0.8630 0.8630
1475.167440 0.8640 0.8640 0.8650 0.8650 0.8670
1480.090868 0.8670 0.8670 0.8670 0.8670 0.8670
1485.014296 0.8650 0.8650 0.8650 0.8650 0.8650
1489.937724 0.8650 0.8650 0.8650 0.8670 0.8670
1494.861152 0.8670 0.8670 0.8650 0.8650 0.8650
1499.784580 0.8640 0.8640 0.8640 0.8630 0.8630
1504.708008 0.8630 0.8610 0.8610 0.8600 0.8600
1509.631436 0.8590 0.8590 0.8590 0.8590 0.8590
1514.554864 0.8570 0.8560 0.8560 0.8550 0.8550
1519.478292 0.8530 0.8530 0.8520 0.8510 0.8510
1524.401720 0.8510 0.8480 0.8450 0.8450 0.8440
1529.325149 0.8440 0.8420 0.8410 0.8380 0.8360
1534.248577 0.8330 0.8330 0.8320 0.8300 0.8290
1539.172005 0.8260 0.8250 0.8220 0.8210 0.8180
1544.095433 0.8180 0.8170 0.8170 0.8170 0.8180
1549.018861 0.8180 0.8180 0.8180 0.8200 0.8210
1553.942289 0.8210 0.8240 0.8250 0.8260 0.8260
1558.865717 0.8290 0.8290 0.8290 0.8280 0.8280
1563.789145 0.8280 0.8260 0.8260 0.8260 0.8260
1568.712573 0.8250 0.8250 0.8250 0.8240 0.8210
1573.636001 0.8200 0.8170 0.8160 0.8140 0.8120
1578.559429 0.8080 0.8050 0.7970 0.7870 0.7790
1583.482857 0.7710 0.7690 0.7670 0.7630 0.7610
1588.406285 0.7570 0.7510 0.7460 0.7400 0.7350
1593.329713 0.7300 0.7270 0.7260 0.7260 0.7240
1598.253141 0.7180 0.7040 0.6920 0.6810 0.6730
1603.176569 0.6600 0.6440 0.6240 0.6010 0.5711
1608.099997 0.5507 0.4789 0.4408 0.3820 0.3649
1613.023425 0.3280 0.2959 0.2240 0.1690 0.1440
1617.946853 0.1199 0.0959 0.0719 0.0480 0.0460
1622.870281 0.0510 0.0760 0.1060 0.1320 0.2119
1627.793709 0.2775 0.4064 0.5201 0.5651 0.6181
1632.717138 0.6510 0.6650 0.6930 0.7120 0.7230
1637.640566 0.7321 0.7480 0.7591 0.7790 0.7870
1642.563994 0.7930 0.7950 0.7980 0.8060 0.8120
1647.487422 0.8140 0.8210 0.8240 0.8250 0.8250
1652.410850 0.8280 0.8320 0.8330 0.8330 0.8330
1657.334278 0.8340 0.8340 0.8360 0.8400 0.8420
1662.257706 0.8460 0.8460 0.8460 0.8490 0.8510
1667.181134 0.8510 0.8520 0.8520 0.8520 0.8520
1672.104562 0.8530 0.8530 0.8530 0.8530 0.8550
1677.027990 0.8550 0.8560 0.8560 0.8560 0.8570
1681.951418 0.8590 0.8600 0.8600 0.8600 0.8610
1686.874846 0.8630 0.8630 0.8640 0.8650 0.8650
1691.798274 0.8670 0.8670 0.8670 0.8680 0.8680
1696.721702 0.8680 0.8690 0.8690 0.8690 0.8690
1701.645130 0.8690 0.8690 0.8690 0.8690 0.8680
1706.568558 0.8680 0.8680 0.8670 0.8670 0.8670
1711.491986 0.8670 0.8670 0.8670 0.8650 0.8640
1716.415414 0.8640 0.8630 0.8630 0.8630 0.8630
1721.338842 0.8610 0.8610 0.8600 0.8600 0.8600
1726.262270 0.8600 0.8600 0.8600 0.8600 0.8600
1731.185698 0.8590 0.8590 0.8590 0.8590 0.8570
1736.109127 0.8570 0.8570 0.8570 0.8590 0.8590
1741.032555 0.8590 0.8590 0.8590 0.8590 0.8600
1745.955983 0.8600 0.8610 0.8610 0.8630 0.8630
1750.879411 0.8640 0.8640 0.8650 0.8650 0.8670
1755.802839 0.8670 0.8670 0.8680 0.8680 0.8690
1760.726267 0.8690 0.8690 0.8710 0.8710 0.8710
1765.649695 0.8710 0.8710 0.8690 0.8690 0.8690
1770.573123 0.8680 0.8670 0.8670 0.8650 0.8650
1775.496551 0.8640 0.8630 0.8600 0.8570 0.8550
1780.419979 0.8550 0.8520 0.8490 0.8460 0.8420
1785.343407 0.8410 0.8380 0.8370 0.8360 0.8360
1790.266835 0.8370 0.8400 0.8440 0.8480 0.8530
1795.190263 0.8560 0.8600 0.8610 0.8640 0.8650
1800.113691 0.8650 0.8650 0.8650 0.8640 0.8630
1805.037119 0.8630 0.8630 0.8630 0.8610 0.8610
1809.960547 0.8600 0.8600 0.8600 0.8600 0.8600
1814.883975 0.8610 0.8610 0.8630 0.8630 0.8640
1819.807403 0.8650 0.8670 0.8680 0.8720 0.8730
1824.730831 0.8750 0.8760 0.8770 0.8790 0.8790
1829.654259 0.8800 0.8800 0.8810 0.8810 0.8830
1834.577687 0.8830 0.8830 0.8830 0.8830 0.8830
1839.501116 0.8840 0.8850 0.8840 0.8810 0.8810
1844.424544 0.8800 0.8800 0.8790 0.8790 0.8800
1849.347972 0.8830 0.8830 0.8830 0.8830 0.8830
1854.271400 0.8850 0.8850 0.8830 0.8830 0.8830
1859.194828 0.8840 0.8850 0.8850 0.8850 0.8850
1864.118256 0.8850 0.8850 0.8850 0.8850 0.8850
1869.041684 0.8850 0.8840 0.8840 0.8850 0.8850
1873.965112 0.8870 0.8870 0.8850 0.8850 0.8840
1878.888540 0.8850 0.8850 0.8840 0.8840 0.8840
1883.811968 0.8840 0.8840 0.8840 0.8830 0.8830
1888.735396 0.8830 0.8830 0.8830 0.8830 0.8830
1893.658824 0.8830 0.8830 0.8840 0.8840 0.8840
1898.582252 0.8850 0.8850 0.8850 0.8850 0.8870
1903.505680 0.8870 0.8870 0.8880 0.8880 0.8880
1908.429108 0.8880 0.8880 0.8880 0.8890 0.8910
1913.352536 0.8910 0.8880 0.8880 0.8870 0.8870
1918.275964 0.8870 0.8870 0.8880 0.8890 0.8890
1923.199392 0.8910 0.8910 0.8910 0.8910 0.8910
1928.122820 0.8910 0.8920 0.8920 0.8910 0.8910
1933.046248 0.8910 0.8870 0.8850 0.8850 0.8840
1937.969676 0.8850 0.8870 0.8880 0.8890 0.8910
1942.893105 0.8910 0.8910 0.8910 0.8910 0.8910
1947.816533 0.8910 0.8920 0.8930 0.8920 0.8920
1952.739961 0.8920 0.8920 0.8910 0.8910 0.8890
1957.663389 0.8890 0.8890 0.8890 0.8890 0.8890
1962.586817 0.8890 0.8890 0.8890 0.8890 0.8890
1967.510245 0.8890 0.8890 0.8890 0.8890 0.8890
1972.433673 0.8910 0.8910 0.8910 0.8910 0.8910
1977.357101 0.8910 0.8910 0.8920 0.8920 0.8910
1982.280529 0.8910 0.8910 0.8890 0.8890 0.8890
1987.203957 0.8890 0.8890 0.8890 0.8910 0.8910
1992.127385 0.8910 0.8910 0.8890 0.8890 0.8880
1997.050813 0.8890 0.8890 0.8920 0.8920 0.8925
2001.974241 0.8930 0.8940 0.8950 0.8940 0.8930
2006.897669 0.8930 0.8930 0.8930 0.8930 0.8930
2011.821097 0.8930 0.8930 0.8930 0.8940 0.8950
2016.744525 0.8950 0.8950 0.8940 0.8930 0.8930
2021.667953 0.8930 0.8930 0.8930 0.8930 0.8930
2026.591381 0.8930 0.8930 0.8930 0.8930 0.8930
2031.514809 0.8930 0.8930 0.8930 0.8930 0.8930
2036.438237 0.8930 0.8930 0.8925 0.8920 0.8920
2041.361665 0.8920 0.8920 0.8920 0.8920 0.8920
2046.285094 0.8920 0.8920 0.8924 0.8929 0.8930
2051.208522 0.8930 0.8921 0.8911 0.8910 0.8910
2056.131950 0.8910 0.8910 0.8919 0.8929 0.8930
2061.055378 0.8930 0.8930 0.8930 0.8930 0.8930
2065.978806 0.8930 0.8930 0.8930 0.8930 0.8930
2070.902234 0.8930 0.8930 0.8930 0.8930 0.8930
2075.825662 0.8930 0.8930 0.8930 0.8930 0.8926
2080.749090 0.8921 0.8920 0.8920 0.8920 0.8920
2085.672518 0.8920 0.8920 0.8916 0.8911 0.8910
2090.595946 0.8910 0.8918 0.8928 0.8926 0.8921
2095.519374 0.8920 0.8920 0.8920 0.8920 0.8920
2100.442802 0.8920 0.8916 0.8911 0.8910 0.8910
2105.366230 0.8910 0.8910 0.8910 0.8910 0.8910
2110.289658 0.8910 0.8910 0.8910 0.8903 0.8893
2115.213086 0.8890 0.8890 0.8890 0.8890 0.8890
2120.136514 0.8890 0.8890 0.8890 0.8897 0.8907
2125.059942 0.8910 0.8910 0.8914 0.8919 0.8920
2129.983370 0.8920 0.8916 0.8912 0.8910 0.8910
2134.906798 0.8910 0.8910 0.8903 0.8893 0.8890
2139.830226 0.8890 0.8887 0.8882 0.8880 0.8880
2144.753654 0.8880 0.8880 0.8880 0.8880 0.8880
2149.677083 0.8880 0.8880 0.8880 0.8883 0.8888
2154.600511 0.8896 0.8906 0.8910 0.8910 0.8913
2159.523939 0.8918 0.8920 0.8920 0.8923 0.8928
2164.447367 0.8930 0.8930 0.8930 0.8930 0.8930
2169.370795 0.8930 0.8930 0.8930 0.8930 0.8930
2174.294223 0.8930 0.8930 0.8927 0.8922 0.8917
2179.217651 0.8912 0.8910 0.8910 0.8904 0.8894
2184.141079 0.8890 0.8890 0.8890 0.8890 0.8890
2189.064507 0.8890 0.8887 0.8882 0.8880 0.8880
2193.987935 0.8880 0.8880 0.8880 0.8880 0.8880
2198.911363 0.8880 0.8877 0.8872 0.8864 0.8855
2203.834791 0.8850 0.8850 0.8847 0.8842 0.8832
2208.758219 0.8817 0.8810 0.8810 0.8807 0.8802
2213.681647 0.8800 0.8800 0.8800 0.8800 0.8797
