##TITLE=IMIDAZOLE
##JCAMP-DX=4.24
##DATA TYPE=INFRARED SPECTRUM
##CLASS=COBLENTZ III
##ORIGIN=DOW CHEMICAL COMPANY
##OWNER=COBLENTZ SOC.
Collection (C) 2018 copyright by the U.S. Secretary of Commerce
on behalf of the United States of America. All rights reserved.
##DATE=1963/01/23
##NAMES=1H-imidazole
##CAS REGISTRY NO=288-32-4
##MOLFORM=C3 H4 N2
##SOURCE REFERENCE=COBLENTZ NO. 06436
##$NIST SOURCE=COBLENTZ
##$NIST IMAGE=cob6436
##SPECTROMETER/DATA SYSTEM=DOW KBr FOREPRISM-GRATING
##INSTRUMENT PARAMETERS=BLAZED AT 3.5, 12.0, 20.0 MICRON AND CHANGED AT 5.0, 7.5, 14.9 MICRON
##STATE=SOLID (SPLIT MULL)
$$ SPECTRAL FEATURE AT 1993 CM^-^1 IS PROBABLY AN ARTIFACT CAUSED BY GRATING CHANGE
##SAMPLING PROCEDURE=TRANSMISSION
##RESOLUTION=2
##DATA PROCESSING=DIGITIZED BY COBLENTZ SOCIETY (BATCH I) FROM HARD COPY
##XUNITS=1/CM
##YUNITS=TRANSMITTANCE
##XLABEL=Wavenumbers (cm-1)
##YLABEL=% Transmission
##XFACTOR=1
##YFACTOR=1
##DELTAX=1
##FIRSTX=384
##LASTX=3794
##FIRSTY=0.9251
##MAXX=3794
##MINX=384
##MAXY=0.9731
##MINY=0.0104
##NPOINTS=3411
##XYDATA=(X++(Y..Y))
384.000000 0.9251 0.9249 0.9249 0.9246 0.9243
389.000000 0.9240 0.9236 0.9228 0.9223 0.9218
394.000000 0.9218 0.9217 0.9216 0.9214 0.9215
399.000000 0.9215 0.9218 0.9221 0.9224 0.9227
404.000000 0.9232 0.9237 0.9242 0.9247 0.9252
409.000000 0.9257 0.9262 0.9266 0.9271 0.9275
414.000000 0.9280 0.9285 0.9290 0.9294 0.9297
419.000000 0.9301 0.9305 0.9308 0.9312 0.9316
424.000000 0.9318 0.9323 0.9327 0.9332 0.9336
429.000000 0.9340 0.9344 0.9348 0.9352 0.9357
434.000000 0.9361 0.9365 0.9368 0.9373 0.9378
439.000000 0.9382 0.9386 0.9391 0.9398 0.9405
444.000000 0.9411 0.9418 0.9424 0.9431 0.9438
449.000000 0.9449 0.9463 0.9477 0.9478 0.9478
454.000000 0.9478 0.9474 0.9467 0.9461 0.9454
459.000000 0.9447 0.9441 0.9435 0.9431 0.9427
464.000000 0.9421 0.9418 0.9414 0.9410 0.9405
469.000000 0.9403 0.9401 0.9406 0.9413 0.9420
474.000000 0.9431 0.9441 0.9440 0.9439 0.9438
479.000000 0.9436 0.9432 0.9428 0.9423 0.9418
484.000000 0.9413 0.9406 0.9399 0.9392 0.9385
489.000000 0.9378 0.9375 0.9373 0.9371 0.9368
494.000000 0.9365 0.9362 0.9359 0.9356 0.9356
499.000000 0.9356 0.9357 0.9358 0.9364 0.9374
504.000000 0.9384 0.9393 0.9403 0.9412 0.9420
509.000000 0.9427 0.9433 0.9434 0.9434 0.9435
514.000000 0.9431 0.9428 0.9425 0.9421 0.9418
519.000000 0.9414 0.9410 0.9407 0.9403 0.9400
524.000000 0.9396 0.9392 0.9389 0.9385 0.9383
529.000000 0.9380 0.9378 0.9378 0.9378 0.9384
534.000000 0.9390 0.9395 0.9400 0.9406 0.9411
539.000000 0.9416 0.9421 0.9425 0.9428 0.9434
544.000000 0.9438 0.9442 0.9446 0.9451 0.9455
549.000000 0.9459 0.9464 0.9464 0.9463 0.9463
554.000000 0.9462 0.9461 0.9460 0.9459 0.9457
559.000000 0.9456 0.9455 0.9453 0.9452 0.9450
564.000000 0.9448 0.9446 0.9444 0.9442 0.9441
569.000000 0.9439 0.9437 0.9443 0.9433 0.9430
574.000000 0.9425 0.9423 0.9420 0.9416 0.9413
579.000000 0.9409 0.9401 0.9394 0.9386 0.9462
584.000000 0.9552 0.9641 0.9731 0.9725 0.9718
589.000000 0.9624 0.9517 0.9411 0.9335 0.9317
594.000000 0.9299 0.9280 0.9259 0.9237 0.9214
599.000000 0.9191 0.9168 0.9151 0.9139 0.9128
604.000000 0.9116 0.9104 0.9098 0.9095 0.9093
609.000000 0.9001 0.8889 0.8785 0.8634 0.8309
614.000000 0.8098 0.7896 0.7821 0.7107 0.5985
619.000000 0.4864 0.3743 0.2953 0.2945 0.2963
624.000000 0.8445 0.8678 0.8961 0.9040 0.9063
629.000000 0.9080 0.9081 0.9049 0.9062 0.9046
634.000000 0.9027 0.9008 0.8989 0.8971 0.8948
639.000000 0.8925 0.8902 0.8878 0.8855 0.8812
644.000000 0.8768 0.8725 0.8671 0.8612 0.8533
649.000000 0.8438 0.8341 0.8165 0.7875 0.7508
654.000000 0.7067 0.5945 0.5037 0.4130 0.3223
659.000000 0.2315 0.1408 0.0501 0.0192 0.0564
664.000000 0.0209 0.2755 0.3850 0.4945 0.6041
669.000000 0.7136 0.8231 0.9155 0.9173 0.9185
674.000000 0.9185 0.9184 0.9175 0.9164 0.9132
679.000000 0.9107 0.9082 0.9056 0.9027 0.8997
684.000000 0.8967 0.8940 0.8913 0.8888 0.8864
689.000000 0.8840 0.8818 0.8804 0.8788 0.8771
694.000000 0.8757 0.8741 0.8725 0.8715 0.8705
699.000000 0.8696 0.8686 0.8677 0.8668 0.8660
704.000000 0.8652 0.8643 0.8628 0.8610 0.8580
709.000000 0.8547 0.8514 0.8470 0.8425 0.8381
714.000000 0.8332 0.8282 0.8232 0.8181 0.8115
719.000000 0.8042 0.7968 0.7837 0.7637 0.7596
724.000000 0.7585 0.7575 0.7569 0.7565 0.7547
729.000000 0.7460 0.7356 0.7258 0.6924 0.6718
734.000000 0.6540 0.6337 0.5224 0.4403 0.3582
739.000000 0.2761 0.2281 0.2256 0.3326 0.4635
744.000000 0.5750 0.5760 0.5766 0.5744 0.5529
749.000000 0.5051 0.4572 0.4094 0.3614 0.3135
754.000000 0.2658 0.2179 0.1701 0.1222 0.0741
759.000000 0.0674 0.0661 0.0669 0.1182 0.2028
764.000000 0.2875 0.3722 0.4614 0.5047 0.5753
769.000000 0.5933 0.6103 0.6288 0.6660 0.7101
774.000000 0.7218 0.7336 0.7424 0.7501 0.7564
779.000000 0.7608 0.7651 0.7697 0.7741 0.7771
784.000000 0.7796 0.7819 0.7845 0.7869 0.7891
789.000000 0.7908 0.7925 0.7941 0.7954 0.7962
794.000000 0.7971 0.7981 0.7931 0.7978 0.7969
799.000000 0.7961 0.7951 0.7943 0.7932 0.7918
804.000000 0.7904 0.7886 0.7868 0.7849 0.7828
809.000000 0.7801 0.7772 0.7746 0.7711 0.7675
814.000000 0.7640 0.7598 0.7554 0.7511 0.7453
819.000000 0.7383 0.7311 0.7230 0.7148 0.6933
824.000000 0.6522 0.5762 0.5324 0.4379 0.3434
829.000000 0.2907 0.2904 0.2913 0.3205 0.3582
834.000000 0.3959 0.4336 0.4460 0.4412 0.4412
839.000000 0.4101 0.3582 0.3062 0.2543 0.2023
844.000000 0.1602 0.1663 0.1669 0.2023 0.4409
849.000000 0.6426 0.6626 0.6857 0.7078 0.7176
854.000000 0.7231 0.7258 0.7276 0.7283 0.7283
859.000000 0.7283 0.7275 0.7264 0.7247 0.7228
864.000000 0.7208 0.7187 0.7164 0.7135 0.7094
869.000000 0.7053 0.7012 0.6972 0.6928 0.6882
874.000000 0.6835 0.6788 0.6744 0.6701 0.6651
879.000000 0.6592 0.6533 0.6474 0.6412 0.6340
884.000000 0.6267 0.6186 0.6103 0.6019 0.5918
889.000000 0.5797 0.5644 0.5391 0.5173 0.5074
894.000000 0.4983 0.4843 0.4502 0.4396 0.4372
899.000000 0.4390 0.6309 0.6445 0.6555 0.6646
904.000000 0.6725 0.6750 0.6758 0.6765 0.6743
909.000000 0.6700 0.6582 0.6371 0.6142 0.5912
914.000000 0.5682 0.5452 0.5222 0.4999 0.4867
919.000000 0.4744 0.3320 0.3157 0.3118 0.3083
924.000000 0.3050 0.3022 0.2999 0.2964 0.2889
929.000000 0.2768 0.2393 0.2018 0.1643 0.1267
934.000000 0.0892 0.0517 0.0332 0.0308 0.0270
939.000000 0.0310 0.0872 0.1459 0.2046 0.2634
944.000000 0.2781 0.2902 0.3156 0.3372 0.3518
949.000000 0.3668 0.3836 0.4005 0.4281 0.5408
954.000000 0.5588 0.5737 0.5868 0.5995 0.6130
959.000000 0.6270 0.6403 0.6517 0.6631 0.6771
964.000000 0.6881 0.6960 0.7040 0.7085 0.7126
969.000000 0.7169 0.7211 0.7257 0.7305 0.7349
974.000000 0.7388 0.7425 0.7465 0.7490 0.7511
979.000000 0.7533 0.7555 0.7568 0.7580 0.7591
984.000000 0.7603 0.7614 0.7625 0.7634 0.7643
989.000000 0.7651 0.7658 0.7664 0.7668 0.7672
994.000000 0.7678 0.7683 0.7683 0.7683 0.7683
999.000000 0.7682 0.7682 0.7682 0.7678 0.7675
1004.000000 0.7672 0.7671 0.7668 0.7660 0.7649
1009.000000 0.7639 0.7624 0.7605 0.7586 0.7567
1014.000000 0.7547 0.7528 0.7508 0.7484 0.7456
1019.000000 0.7428 0.7401 0.7368 0.7337 0.7305
1024.000000 0.7272 0.7231 0.7184 0.7138 0.7091
1029.000000 0.7045 0.6983 0.6919 0.6856 0.6791
1034.000000 0.6707 0.6622 0.6538 0.6422 0.6302
1039.000000 0.6173 0.6031 0.5890 0.5743 0.5596
1044.000000 0.5478 0.5372 0.5243 0.5051 0.4737
1049.000000 0.4223 0.2837 0.2242 0.1648 0.1053
1054.000000 0.0459 0.0173 0.0133 0.0104 0.0137
1059.000000 0.0235 0.0743 0.1250 0.1757 0.2264
1064.000000 0.2771 0.3278 0.3771 0.5076 0.5962
1069.000000 0.6690 0.7061 0.7322 0.7675 0.7799
1074.000000 0.8018 0.8150 0.8254 0.8344 0.8435
1079.000000 0.8520 0.8592 0.8615 0.8638 0.8656
1084.000000 0.8662 0.8667 0.8670 0.8674 0.8655
1089.000000 0.8632 0.8597 0.8546 0.8413 0.8263
1094.000000 0.8042 0.7887 0.7237 0.6385 0.5532
1099.000000 0.4679 0.3859 0.3862 0.3897 0.5478
1104.000000 0.7826 0.8211 0.8445 0.8582 0.8778
1109.000000 0.8925 0.8960 0.8980 0.8993 0.8995
1114.000000 0.8997 0.8992 0.8993 0.8986 0.8978
1119.000000 0.8967 0.8947 0.8927 0.8907 0.8883
1124.000000 0.8856 0.8815 0.8778 0.8745 0.8711
1129.000000 0.8671 0.8618 0.8549 0.8475 0.8371
1134.000000 0.8263 0.8108 0.7855 0.7165 0.7135
1139.000000 0.7078 0.7025 0.6969 0.6918 0.6304
1144.000000 0.5649 0.4994 0.4339 0.3718 0.3714
1149.000000 0.5275 0.7908 0.8143 0.8428 0.8607
1154.000000 0.8757 0.8853 0.8896 0.8925 0.8944
1159.000000 0.8953 0.8958 0.8943 0.8963 0.8958
1164.000000 0.8949 0.8940 0.8930 0.8920 0.8907
1169.000000 0.8884 0.8861 0.8838 0.8825 0.8813
1174.000000 0.8804 0.8799 0.8793 0.8787 0.8782
1179.000000 0.8785 0.8788 0.8791 0.8796 0.8813
1184.000000 0.8830 0.8845 0.8859 0.8861 0.8862
1189.000000 0.8863 0.8857 0.8846 0.8830 0.8814
1194.000000 0.8798 0.8784 0.8771 0.8758 0.8745
1199.000000 0.8732 0.8718 0.8706 0.8693 0.8680
1204.000000 0.8667 0.8655 0.8643 0.8630 0.8618
1209.000000 0.8606 0.8594 0.8583 0.8574 0.8565
1214.000000 0.8556 0.8547 0.8538 0.8527 0.8516
1219.000000 0.8506 0.8495 0.8484 0.8468 0.8448
1224.000000 0.8427 0.8391 0.8352 0.8306 0.8258
1229.000000 0.8216 0.8180 0.8143 0.8107 0.8058
1234.000000 0.8008 0.7958 0.7908 0.7836 0.7764
1239.000000 0.7685 0.7546 0.7117 0.6694 0.6271
1244.000000 0.5754 0.5751 0.5747 0.6132 0.6540
1249.000000 0.6947 0.7354 0.7453 0.7418 0.7251
1254.000000 0.7085 0.6918 0.6753 0.6586 0.6440
1259.000000 0.6347 0.4189 0.3591 0.2993 0.2395
1264.000000 0.1736 0.1721 0.1822 0.5068 0.7498
1269.000000 0.7953 0.8292 0.8415 0.8452 0.8471
1274.000000 0.8515 0.8492 0.8486 0.8475 0.8454
1279.000000 0.8420 0.8393 0.8366 0.8346 0.8325
1284.000000 0.8308 0.8290 0.8271 0.8254 0.8241
1289.000000 0.8228 0.8216 0.8202 0.8188 0.8172
1294.000000 0.8158 0.8144 0.8126 0.8108 0.8089
1299.000000 0.8071 0.8051 0.8034 0.8017 0.7999
1304.000000 0.7982 0.7955 0.7928 0.7901 0.7853
1309.000000 0.7800 0.7742 0.7684 0.7601 0.7501
1314.000000 0.7361 0.7230 0.7100 0.6805 0.5840
1319.000000 0.5190 0.4541 0.4062 0.3314 0.3247
1324.000000 0.3232 0.3216 0.3064 0.2817 0.2570
1329.000000 0.2374 0.7822 0.7998 0.8144 0.8158
1334.000000 0.8227 0.8187 0.8185 0.8176 0.8165
1339.000000 0.8128 0.8072 0.8024 0.8018 0.8021
1344.000000 0.7989 0.8028 0.8048 0.8068 0.8104
1349.000000 0.8150 0.8203 0.8250 0.8281 0.8288
1354.000000 0.8295 0.8302 0.8309 0.8312 0.8315
1359.000000 0.8317 0.8320 0.8333 0.8351 0.8362
1364.000000 0.8371 0.8382 0.8391 0.8400 0.8409
1369.000000 0.8417 0.8421 0.8425 0.8468 0.8435
1374.000000 0.8439 0.8443 0.8437 0.8431 0.8424
1379.000000 0.8418 0.8409 0.8400 0.8391 0.8378
1384.000000 0.8365 0.8352 0.8339 0.8332 0.8328
1389.000000 0.8325 0.8323 0.8307 0.8285 0.8263
1394.000000 0.8240 0.8217 0.8194 0.8172 0.8151
1399.000000 0.8128 0.8097 0.8065 0.8035 0.8010
1404.000000 0.7987 0.7965 0.7943 0.7921 0.7901
1409.000000 0.7883 0.7864 0.7845 0.7825 0.7806
1414.000000 0.7787 0.7768 0.7748 0.7728 0.7698
1419.000000 0.7657 0.7615 0.7574 0.7528 0.7478
1424.000000 0.7428 0.7369 0.7311 0.7251 0.7190
1429.000000 0.7115 0.7041 0.6956 0.6865 0.6775
1434.000000 0.6660 0.6511 0.6362 0.6128 0.5918
1439.000000 0.5732 0.5494 0.5245 0.4934 0.4658
1444.000000 0.4476 0.4376 0.4072 0.3438 0.2805
1449.000000 0.2459 0.2451 0.2446 0.3268 0.4271
1454.000000 0.5274 0.6278 0.7045 0.7892 0.8118
1459.000000 0.8386 0.8502 0.8548 0.8558 0.8564
1464.000000 0.8540 0.8540 0.8541 0.8527 0.8501
1469.000000 0.8450 0.8347 0.8218 0.8015 0.7624
1474.000000 0.7251 0.6880 0.6508 0.6137 0.5766
1479.000000 0.5394 0.5353 0.5343 0.5310 0.6030
1484.000000 0.6414 0.6612 0.6614 0.6606 0.6618
1489.000000 0.6468 0.6387 0.6304 0.6221 0.6138
1494.000000 0.6055 0.5973 0.5890 0.5807 0.5787
1499.000000 0.5776 0.6465 0.7161 0.7856 0.8274
1504.000000 0.8413 0.8600 0.8971 0.9085 0.9159
1509.000000 0.9215 0.9246 0.9266 0.9268 0.9268
1514.000000 0.9259 0.9239 0.9188 0.9133 0.9075
1519.000000 0.9018 0.8952 0.8880 0.8809 0.8737
1524.000000 0.8662 0.8575 0.8488 0.8373 0.8258
1529.000000 0.8086 0.7914 0.7771 0.7468 0.7310
1534.000000 0.7154 0.6844 0.6489 0.6134 0.5779
1539.000000 0.5425 0.5070 0.4715 0.4509 0.4506
1544.000000 0.4482 0.5051 0.5466 0.5881 0.6243
1549.000000 0.6461 0.6622 0.6919 0.7160 0.7451
1554.000000 0.7553 0.7597 0.7641 0.7662 0.7678
1559.000000 0.7693 0.7698 0.7697 0.7710 0.7681
1564.000000 0.7668 0.7639 0.7596 0.7543 0.7467
1569.000000 0.7358 0.7260 0.7135 0.6862 0.6676
1574.000000 0.6644 0.6653 0.6639 0.6861 0.7008
1579.000000 0.7124 0.7235 0.7375 0.7547 0.7661
1584.000000 0.7739 0.7817 0.7884 0.7943 0.8003
1589.000000 0.8067 0.8137 0.8204 0.8268 0.8325
1594.000000 0.8374 0.8427 0.8492 0.8539 0.8568
1599.000000 0.8586 0.8595 0.8603 0.8612 0.8621
1604.000000 0.8628 0.8635 0.8638 0.8642 0.8642
1609.000000 0.8642 0.8639 0.8636 0.8630 0.8625
1614.000000 0.8618 0.8613 0.8605 0.8595 0.8586
1619.000000 0.8575 0.8566 0.8557 0.8547 0.8533
1624.000000 0.8517 0.8501 0.8486 0.8471 0.8458
1629.000000 0.8444 0.8430 0.8415 0.8400 0.8385
1634.000000 0.8370 0.8355 0.8341 0.8325 0.8305
1639.000000 0.8285 0.8264 0.8244 0.8223 0.8203
1644.000000 0.8178 0.8151 0.8122 0.8095 0.8067
1649.000000 0.8038 0.8010 0.7974 0.7928 0.7882
1654.000000 0.7836 0.7786 0.7735 0.7684 0.7633
1659.000000 0.7574 0.7474 0.7374 0.7204 0.6981
1664.000000 0.6835 0.6694 0.6567 0.6514 0.6511
1669.000000 0.6524 0.6508 0.6865 0.6946 0.7028
1674.000000 0.7101 0.7168 0.7232 0.7288 0.7344
1679.000000 0.7405 0.7551 0.7668 0.7757 0.7821
1684.000000 0.7881 0.7910 0.7939 0.7968 0.7992
1689.000000 0.8003 0.8014 0.8025 0.8034 0.8042
1694.000000 0.8046 0.8050 0.8090 0.8058 0.8058
1699.000000 0.8058 0.8058 0.8058 0.8057 0.8050
1704.000000 0.8042 0.8033 0.8025 0.8015 0.8001
1709.000000 0.7987 0.7971 0.7957 0.7942 0.7926
1714.000000 0.7911 0.7895 0.7878 0.7861 0.7846
1719.000000 0.7828 0.7812 0.7796 0.7778 0.7761
1724.000000 0.7745 0.7728 0.7710 0.7698 0.7689
1729.000000 0.7678 0.7668 0.7660 0.7650 0.7641
1734.000000 0.7632 0.7624 0.7615 0.7608 0.7600
1739.000000 0.7587 0.7571 0.7557 0.7542 0.7526
1744.000000 0.7511 0.7492 0.7471 0.7449 0.7426
1749.000000 0.7406 0.7384 0.7362 0.7346 0.7328
1754.000000 0.7311 0.7295 0.7278 0.7267 0.7256
1759.000000 0.7244 0.7232 0.7219 0.7210 0.7203
1764.000000 0.7196 0.7188 0.7181 0.7174 0.7167
1769.000000 0.7160 0.7154 0.7151 0.7150 0.7148
1774.000000 0.7145 0.7146 0.7146 0.7148 0.7150
1779.000000 0.7151 0.7153 0.7153 0.7148 0.7143
1784.000000 0.7138 0.7133 0.7128 0.7122 0.7108
1789.000000 0.7092 0.7075 0.7058 0.7041 0.7017
1794.000000 0.6990 0.6962 0.6937 0.6906 0.6875
1799.000000 0.6844 0.6812 0.6782 0.6751 0.6718
1804.000000 0.6682 0.6646 0.6610 0.6574 0.6535
1809.000000 0.6494 0.6454 0.6414 0.6396 0.6382
1814.000000 0.6367 0.6352 0.6338 0.6324 0.6310
1819.000000 0.6296 0.6284 0.6282 0.6280 0.6277
1824.000000 0.6275 0.6273 0.6270 0.6268 0.6268
1829.000000 0.6269 0.6270 0.6310 0.6330 0.6347
1834.000000 0.6360 0.6379 0.6396 0.6414 0.6432
1839.000000 0.6467 0.6510 0.6555 0.6601 0.6654
1844.000000 0.6687 0.6715 0.6808 0.6754 0.6754
1849.000000 0.6751 0.6748 0.6744 0.6739 0.6733
1854.000000 0.6725 0.6719 0.6715 0.6711 0.6708
1859.000000 0.6705 0.6718 0.6699 0.6698 0.6697
1864.000000 0.6697 0.6698 0.6701 0.6706 0.6711
1869.000000 0.6715 0.6718 0.6724 0.6731 0.6741
1874.000000 0.6750 0.6760 0.6768 0.6778 0.6789
1879.000000 0.6799 0.6810 0.6821 0.6832 0.6843
1884.000000 0.6855 0.6865 0.6875 0.6885 0.6895
1889.000000 0.6904 0.6914 0.6922 0.6932 0.6938
1894.000000 0.6945 0.6951 0.6958 0.6965 0.6971
1899.000000 0.6978 0.6985 0.6992 0.6999 0.7007
1904.000000 0.7014 0.7021 0.7028 0.7037 0.7044
1909.000000 0.7051 0.7060 0.7067 0.7075 0.7082
1914.000000 0.7090 0.7097 0.7105 0.7110 0.7115
1919.000000 0.7121 0.7126 0.7133 0.7138 0.7144
1924.000000 0.7150 0.7155 0.7161 0.7167 0.7171
1929.000000 0.7175 0.7180 0.7185 0.7189 0.7193
1934.000000 0.7198 0.7201 0.7206 0.7208 0.7212
1939.000000 0.7215 0.7218 0.7222 0.7225 0.7235
1944.000000 0.7246 0.7256 0.7312 0.7388 0.7408
1949.000000 0.7408 0.7401 0.7325 0.7290 0.7282
1954.000000 0.7293 0.7307 0.7600 0.8828 0.8775
1959.000000 0.8477 0.8178 0.7880 0.7581 0.7282
1964.000000 0.7265 0.7262 0.7261 0.7260 0.7258
1969.000000 0.7258 0.7255 0.7251 0.7247 0.7244
1974.000000 0.7240 0.7236 0.7261 0.7228 0.7225
1979.000000 0.7219 0.7214 0.7207 0.7201 0.7195
1984.000000 0.7187 0.7178 0.7171 0.7161 0.7108
1989.000000 0.7028 0.6951 0.6871 0.6793 0.6745
1994.000000 0.6733 0.6884 0.7046 0.7143 0.7154
1999.000000 0.7161 0.7168 0.7175 0.7182 0.7186
2004.000000 0.7190 0.7194 0.7198 0.7201 0.7206
2009.000000 0.7208 0.7211 0.7214 0.7215 0.7218
2014.000000 0.7219 0.7221 0.7224 0.7225 0.7226
2019.000000 0.7226 0.7228 0.7228 0.7228 0.7228
2024.000000 0.7230 0.7231 0.7232 0.7232 0.7233
2029.000000 0.7378 0.7525 0.7525 0.7525 0.7508
2034.000000 0.7492 0.7443 0.7394 0.7344 0.7295
2039.000000 0.7253 0.7211 0.7208 0.7206 0.7204
2044.000000 0.7201 0.7201 0.7201 0.7205 0.7208
2049.000000 0.7211 0.7215 0.7214 0.7214 0.7211
2054.000000 0.7210 0.7207 0.7205 0.7201 0.7198
2059.000000 0.7195 0.7192 0.7185 0.7178 0.7171
2064.000000 0.7165 0.7160 0.7154 0.7147 0.7141
2069.000000 0.7135 0.7128 0.7122 0.7117 0.7111
2074.000000 0.7105 0.7099 0.7093 0.7087 0.7082
2079.000000 0.7075 0.7071 0.7065 0.7058 0.7054
2084.000000 0.7049 0.7043 0.7038 0.7032 0.7026
2089.000000 0.7021 0.7015 0.7010 0.7005 0.7000
2094.000000 0.6995 0.6989 0.6984 0.6976 0.6969
2099.000000 0.6962 0.6957 0.6950 0.6943 0.6936
2104.000000 0.6928 0.6921 0.6915 0.6908 0.6901
2109.000000 0.6895 0.6889 0.6884 0.6878 0.6872
2114.000000 0.6868 0.6862 0.6858 0.6851 0.6847
2119.000000 0.6842 0.6837 0.6831 0.6825 0.6821
2124.000000 0.6815 0.6810 0.6805 0.6799 0.6794
2129.000000 0.6788 0.6783 0.6776 0.6771 0.6767
2134.000000 0.6761 0.6756 0.6751 0.6745 0.6740
2139.000000 0.6734 0.6728 0.6722 0.6717 0.6710
2144.000000 0.6703 0.6697 0.6691 0.6685 0.6678
2149.000000 0.6671 0.6665 0.6660 0.6654 0.6648
2154.000000 0.6642 0.6636 0.6630 0.6622 0.6617
2159.000000 0.6611 0.6605 0.6599 0.6593 0.6587
2164.000000 0.6581 0.6574 0.6568 0.6561 0.6555
2169.000000 0.6547 0.6539 0.6531 0.6524 0.6515
2174.000000 0.6508 0.6500 0.6493 0.6485 0.6478
2179.000000 0.6469 0.6461 0.6454 0.6447 0.6439
2184.000000 0.6431 0.6422 0.6415 0.6408 0.6403
2189.000000 0.6396 0.6390 0.6383 0.6377 0.6370
2194.000000 0.6364 0.6357 0.6351 0.6344 0.6338
2199.000000 0.6331 0.6325 0.6318 0.6312 0.6305
2204.000000 0.6299 0.6292 0.6286 0.6279 0.6273
2209.000000 0.6266 0.6260 0.6254 0.6248 0.6241
2214.000000 0.6235 0.6228 0.6222 0.6215 0.6209
2219.000000 0.6201 0.6194 0.6186 0.6178 0.6170
2224.000000 0.6162 0.6155 0.6147 0.6139 0.6132
2229.000000 0.6124 0.6116 0.6106 0.6096 0.6082
2234.000000 0.6069 0.6055 0.6041 0.6027 0.6012
2239.000000 0.6000 0.5987 0.5974 0.5960 0.5948
2244.000000 0.5935 0.5922 0.5909 0.5896 0.5883
2249.000000 0.5870 0.5857 0.5844 0.5832 0.5821
2254.000000 0.5810 0.5798 0.5787 0.5773 0.5760
2259.000000 0.5747 0.5734 0.5720 0.5707 0.5694
2264.000000 0.5681 0.5667 0.5654 0.5641 0.5628
2269.000000 0.5610 0.5592 0.5573 0.5554 0.5535
2274.000000 0.5516 0.5497 0.5478 0.5459 0.5440
2279.000000 0.5420 0.5400 0.5373 0.5347 0.5336
2284.000000 0.5326 0.5328 0.5331 0.5333 0.5336
2289.000000 0.5338 0.5341 0.5343 0.5346 0.5347
2294.000000 0.5348 0.5349 0.5351 0.5352 0.5353
2299.000000 0.5354 0.5356 0.5347 0.5339 0.5321
2304.000000 0.5304 0.5280 0.5256 0.5232 0.5208
2309.000000 0.5184 0.5160 0.5136 0.5112 0.5082
2314.000000 0.5052 0.5021 0.4991 0.4960 0.4931
2319.000000 0.4901 0.4872 0.4842 0.4812 0.4782
2324.000000 0.4753 0.4727 0.4702 0.4687 0.4673
2329.000000 0.4659 0.4645 0.4631 0.4617 0.4602
2334.000000 0.4588 0.4574 0.4560 0.4555 0.4551
2339.000000 0.4547 0.4544 0.4540 0.4537 0.4533
2344.000000 0.4529 0.4512 0.4497 0.4465 0.4433
2349.000000 0.4410 0.4387 0.4365 0.4344 0.4323
2354.000000 0.4302 0.4284 0.4267 0.4252 0.4237
2359.000000 0.4222 0.4207 0.4197 0.4191 0.4190
2364.000000 0.4190 0.4194 0.4199 0.4205 0.4212
2369.000000 0.4218 0.4224 0.4230 0.4236 0.4242
2374.000000 0.4249 0.4255 0.4262 0.4272 0.4282
2379.000000 0.4312 0.4345 0.4354 0.4364 0.4366
2384.000000 0.4366 0.4366 0.4366 0.4365 0.4365
2389.000000 0.4364 0.4362 0.4360 0.4357 0.4347
2394.000000 0.4337 0.4323 0.4354 0.4291 0.4272
2399.000000 0.4256 0.4241 0.4226 0.4210 0.4197
2404.000000 0.4184 0.4170 0.4157 0.4144 0.4131
