##TITLE=PYRAZOLE
##JCAMP-DX=4.24
##DATA TYPE=INFRARED SPECTRUM
##CLASS=COBLENTZ III
##ORIGIN=DOW CHEMICAL COMPANY
##OWNER=COBLENTZ SOC.
Collection (C) 2018 copyright by the U.S. Secretary of Commerce
on behalf of the United States of America. All rights reserved.
##DATE=1965/06/09
##NAMES=1H-pyrazole
##CAS REGISTRY NO=288-13-1
##MOLFORM=C3 H4 N2
##MP=70 C
##SOURCE REFERENCE=COBLENTZ NO. 06435
##$NIST SOURCE=COBLENTZ
##$NIST IMAGE=cob6435
##SPECTROMETER/DATA SYSTEM=BECKMAN IR-9 (GRATING)
##INSTRUMENT PARAMETERS=ORDER CHANGES: 670, 1200, 2000 CM^-^1
##STATE=SOLUTION (5% CCl4 FOR 3800-1335, 5% CS2 FOR 1335-400)
##PATH LENGTH=0.011 CM, 0.012 CM
$$SPECTRAL CONTAMINATION DUE TO CCl4 AROUND 1555, AND AN UNKNOWN AROUND 400 CM^-^1
##SAMPLING PROCEDURE=TRANSMISSION
##RESOLUTION=2
##DATA PROCESSING=DIGITIZED BY COBLENTZ SOCIETY (BATCH I) FROM HARD COPY
##XUNITS=1/CM
##YUNITS=TRANSMITTANCE
##XLABEL=Wavenumbers (cm-1)
##YLABEL=% Transmission
##XFACTOR=1
##YFACTOR=1
##DELTAX=1
##FIRSTX=400
##LASTX=3794
##FIRSTY=0.151
##MAXX=3794
##MINX=400
##MAXY=0.9187
##MINY=0.001
##NPOINTS=3395
##XYDATA=(X++(Y..Y))
400.000000 0.1510 0.1499 0.1489 0.1482 0.1483
405.000000 0.1483 0.1486 0.1622 0.1918 0.2315
410.000000 0.2529 0.2933 0.3157 0.3350 0.3544
415.000000 0.3738 0.3930 0.4125 0.4262 0.4434
420.000000 0.4588 0.4710 0.4834 0.4981 0.5138
425.000000 0.5260 0.5403 0.5601 0.5817 0.6012
430.000000 0.6186 0.6272 0.6358 0.6442 0.6503
435.000000 0.6562 0.6617 0.6667 0.6717 0.6758
440.000000 0.6800 0.6841 0.6882 0.6921 0.6962
445.000000 0.7004 0.7074 0.7147 0.7219 0.7293
450.000000 0.7347 0.7396 0.7444 0.7492 0.7541
455.000000 0.7588 0.7622 0.7657 0.7691 0.7725
460.000000 0.7760 0.7795 0.7828 0.7871 0.7915
465.000000 0.7960 0.8005 0.8049 0.8093 0.8134
470.000000 0.8172 0.8213 0.8252 0.8292 0.8323
475.000000 0.8351 0.8380 0.8408 0.8432 0.8455
480.000000 0.8477 0.8500 0.8520 0.8533 0.8546
485.000000 0.8559 0.8566 0.8568 0.8570 0.8571
490.000000 0.8574 0.8575 0.8575 0.8573 0.8571
495.000000 0.8571 0.8570 0.8568 0.8568 0.8568
500.000000 0.8570 0.8571 0.8574 0.8575 0.8575
505.000000 0.8575 0.8575 0.8575 0.8575 0.8575
510.000000 0.8574 0.8574 0.8564 0.8548 0.8531
515.000000 0.8514 0.8489 0.8460 0.8431 0.8398
520.000000 0.8365 0.8331 0.8298 0.8264 0.8228
525.000000 0.8194 0.8158 0.8126 0.8099 0.8071
530.000000 0.8051 0.8049 0.8056 0.8074 0.8092
535.000000 0.8108 0.8128 0.8149 0.8169 0.8190
540.000000 0.8213 0.8239 0.8264 0.8290 0.8315
545.000000 0.8341 0.8370 0.8401 0.8432 0.8463
550.000000 0.8490 0.8515 0.8540 0.8557 0.8567
555.000000 0.8578 0.8588 0.8598 0.8597 0.8597
560.000000 0.8597 0.8597 0.8597 0.8595 0.8593
565.000000 0.8591 0.8571 0.8586 0.8584 0.8581
570.000000 0.8578 0.8575 0.8571 0.8566 0.8561
575.000000 0.8556 0.8551 0.8546 0.8541 0.8531
580.000000 0.8518 0.8507 0.8496 0.8480 0.8457
585.000000 0.8434 0.8411 0.8385 0.8351 0.8316
590.000000 0.8278 0.8224 0.8168 0.8114 0.8046
595.000000 0.7978 0.7891 0.7803 0.7711 0.7618
600.000000 0.7525 0.7414 0.7301 0.7178 0.7033
605.000000 0.6875 0.6535 0.6243 0.5956 0.4464
610.000000 0.2890 0.1352 0.1341 0.1342 0.1370
615.000000 0.4267 0.6354 0.7382 0.7635 0.7880
620.000000 0.8003 0.8090 0.8171 0.8248 0.8334
625.000000 0.8398 0.8439 0.8478 0.8500 0.8523
630.000000 0.8528 0.8534 0.8539 0.8516 0.8527
635.000000 0.8512 0.8497 0.8481 0.8466 0.8442
640.000000 0.8416 0.8385 0.8353 0.8315 0.8273
645.000000 0.8231 0.8156 0.8072 0.7998 0.7925
650.000000 0.7838 0.7715 0.7672 0.7649 0.7644
655.000000 0.7637 0.7641 0.7648 0.7678 0.7778
660.000000 0.7997 0.8065 0.8093 0.8104 0.8114
665.000000 0.8118 0.8118 0.8118 0.8118 0.8081
670.000000 0.8042 0.7980 0.7912 0.7845 0.7821
675.000000 0.7811 0.7808 0.7815 0.7840 0.7915
680.000000 0.7992 0.8039 0.8086 0.8125 0.8164
685.000000 0.8199 0.8230 0.8247 0.8263 0.8280
690.000000 0.8296 0.8313 0.8324 0.8335 0.8347
695.000000 0.8358 0.8362 0.8363 0.8364 0.8366
700.000000 0.8367 0.8367 0.8363 0.8335 0.8353
705.000000 0.8349 0.8344 0.8340 0.8328 0.8314
710.000000 0.8296 0.8277 0.8259 0.8239 0.8217
715.000000 0.8196 0.8175 0.8153 0.8125 0.8095
720.000000 0.8065 0.8037 0.8007 0.7974 0.7939
725.000000 0.7905 0.7865 0.7810 0.7753 0.7696
730.000000 0.7622 0.7547 0.7469 0.7391 0.7271
735.000000 0.7153 0.7028 0.6905 0.6238 0.5966
740.000000 0.5578 0.5328 0.5042 0.4778 0.4574
745.000000 0.3244 0.2620 0.1994 0.1371 0.0747
750.000000 0.0178 0.0120 0.0087 0.0065 0.0050
755.000000 0.0048 0.0010 0.0303 0.0702 0.1101
760.000000 0.1446 0.1573 0.1700 0.1862 0.2327
765.000000 0.2634 0.2794 0.2956 0.3121 0.3254
770.000000 0.3380 0.3474 0.3559 0.3646 0.3718
775.000000 0.3780 0.3844 0.3906 0.3964 0.4025
780.000000 0.4084 0.4131 0.4172 0.4212 0.4254
785.000000 0.4290 0.4323 0.4356 0.4390 0.4417
790.000000 0.4433 0.4449 0.4457 0.4453 0.4450
795.000000 0.4446 0.4447 0.4408 0.4388 0.4368
800.000000 0.4348 0.4327 0.4297 0.4268 0.4238
805.000000 0.4195 0.4150 0.4108 0.4070 0.4032
810.000000 0.3994 0.3956 0.3923 0.3890 0.3857
815.000000 0.3824 0.3791 0.3759 0.3727 0.3696
820.000000 0.3668 0.3649 0.3648 0.3638 0.3662
825.000000 0.4020 0.4352 0.4684 0.5017 0.5349
830.000000 0.5510 0.5730 0.5977 0.6174 0.6290
835.000000 0.6366 0.6411 0.6437 0.6443 0.6493
840.000000 0.6135 0.5902 0.5670 0.5437 0.5205
845.000000 0.4972 0.4740 0.4507 0.4275 0.4042
850.000000 0.3787 0.3555 0.3355 0.3222 0.3124
855.000000 0.3026 0.2909 0.2824 0.2769 0.2733
860.000000 0.2698 0.2662 0.2627 0.2594 0.2563
865.000000 0.2531 0.2500 0.2471 0.2445 0.2419
870.000000 0.2392 0.2364 0.2334 0.2184 0.1907
875.000000 0.1631 0.1555 0.1557 0.1569 0.2245
880.000000 0.2658 0.2853 0.3054 0.3321 0.3497
885.000000 0.3777 0.3910 0.4044 0.4159 0.4275
890.000000 0.4416 0.4560 0.4657 0.4739 0.4821
895.000000 0.4916 0.5014 0.5112 0.5208 0.5297
900.000000 0.5369 0.5434 0.5485 0.5536 0.5570
905.000000 0.5598 0.5620 0.5634 0.5616 0.5622
910.000000 0.5581 0.5299 0.5016 0.4733 0.4451
915.000000 0.4371 0.4382 0.4704 0.5059 0.5085
920.000000 0.5088 0.4975 0.4629 0.4284 0.3938
925.000000 0.3593 0.3248 0.2902 0.2557 0.2211
930.000000 0.1866 0.1521 0.1430 0.1408 0.1492
935.000000 0.2044 0.2597 0.3150 0.3702 0.4255
940.000000 0.5127 0.6374 0.6545 0.6731 0.6917
945.000000 0.7041 0.7164 0.7253 0.7317 0.7380
950.000000 0.7444 0.7507 0.7551 0.7594 0.7637
955.000000 0.7683 0.7730 0.7775 0.7822 0.7869
960.000000 0.7912 0.7946 0.7978 0.8011 0.8045
965.000000 0.8078 0.8103 0.8126 0.8151 0.8175
970.000000 0.8199 0.8214 0.8228 0.8245 0.8260
975.000000 0.8275 0.8287 0.8296 0.8306 0.8315
980.000000 0.8324 0.8328 0.8328 0.8328 0.8314
985.000000 0.8325 0.8321 0.8316 0.8311 0.8306
990.000000 0.8298 0.8291 0.8283 0.8275 0.8266
995.000000 0.8256 0.8246 0.8230 0.8213 0.8196
1000.000000 0.8178 0.8162 0.8142 0.8108 0.8075
1005.000000 0.8037 0.7980 0.7921 0.7861 0.7794
1010.000000 0.7726 0.7660 0.7590 0.7518 0.7443
1015.000000 0.7351 0.7261 0.7175 0.7093 0.7011
1020.000000 0.6926 0.6835 0.6717 0.6588 0.6448
1025.000000 0.6271 0.6085 0.5805 0.4729 0.4238
1030.000000 0.3747 0.3256 0.2764 0.2273 0.1782
1035.000000 0.1291 0.0800 0.0708 0.0706 0.1463
1040.000000 0.3205 0.4493 0.4493 0.4493 0.4320
1045.000000 0.3862 0.3404 0.2946 0.2489 0.2031
1050.000000 0.1573 0.1388 0.2080 0.3088 0.4097
1055.000000 0.5105 0.5883 0.6174 0.6465 0.7308
1060.000000 0.7458 0.7545 0.7633 0.7678 0.7725
1065.000000 0.7769 0.7814 0.7851 0.7889 0.7925
1070.000000 0.7962 0.7999 0.8030 0.8061 0.8093
1075.000000 0.8124 0.8148 0.8171 0.8194 0.8217
1080.000000 0.8239 0.8262 0.8285 0.8302 0.8318
1085.000000 0.8335 0.8352 0.8368 0.8383 0.8396
1090.000000 0.8409 0.8421 0.8435 0.8443 0.8449
1095.000000 0.8455 0.8461 0.8463 0.8464 0.8465
1100.000000 0.8461 0.8457 0.8449 0.8440 0.8431
1105.000000 0.8421 0.8407 0.8388 0.8368 0.8343
1110.000000 0.8318 0.8290 0.8246 0.8201 0.8148
1115.000000 0.8072 0.7971 0.7844 0.7694 0.7504
1120.000000 0.7312 0.7122 0.6932 0.6742 0.6551
1125.000000 0.6360 0.6170 0.5980 0.5789 0.5673
1130.000000 0.5666 0.5659 0.5546 0.5144 0.4742
1135.000000 0.4340 0.3938 0.3536 0.3134 0.2733
1140.000000 0.2637 0.3070 0.4020 0.4970 0.5920
1145.000000 0.6504 0.6506 0.6498 0.5905 0.5310
1150.000000 0.4718 0.4125 0.3593 0.3595 0.3571
1155.000000 0.4076 0.5072 0.6068 0.7064 0.8030
1160.000000 0.8169 0.8224 0.8258 0.8292 0.8318
1165.000000 0.8342 0.8390 0.8635 0.8664 0.8668
1170.000000 0.8673 0.8678 0.8681 0.8683 0.8685
1175.000000 0.8687 0.8689 0.8691 0.8692 0.8693
1180.000000 0.8698 0.8702 0.8712 0.8725 0.8741
1185.000000 0.8758 0.8774 0.8783 0.8791 0.8800
1190.000000 0.8806 0.8812 0.8817 0.8816 0.8814
1195.000000 0.8812 0.8810 0.8809 0.8843 0.8805
1200.000000 0.8801 0.8796 0.8792 0.8788 0.8789
1205.000000 0.8792 0.8796 0.8799 0.8799 0.8798
1210.000000 0.8796 0.8785 0.8775 0.8764 0.8753
1215.000000 0.8755 0.8758 0.8759 0.8760 0.8755
1220.000000 0.8749 0.8743 0.8737 0.8728 0.8711
1225.000000 0.8694 0.8678 0.8682 0.8690 0.8703
1230.000000 0.8715 0.8739 0.8761 0.8775 0.8784
1235.000000 0.8785 0.8787 0.8788 0.8787 0.8786
1240.000000 0.8782 0.8777 0.8768 0.8756 0.8743
1245.000000 0.8727 0.8708 0.8688 0.8668 0.8648
1250.000000 0.8620 0.8588 0.8557 0.8520 0.8471
1255.000000 0.8425 0.8377 0.8324 0.8271 0.8218
1260.000000 0.8164 0.8103 0.8042 0.8018 0.7972
1265.000000 0.8015 0.8040 0.8074 0.8126 0.8184
1270.000000 0.8232 0.8280 0.8333 0.8395 0.8523
1275.000000 0.8595 0.8654 0.8690 0.8708 0.8718
1280.000000 0.8728 0.8737 0.8739 0.8742 0.8744
1285.000000 0.8746 0.8748 0.8755 0.8744 0.8742
1290.000000 0.8740 0.8739 0.8739 0.8738 0.8737
1295.000000 0.8736 0.8736 0.8728 0.8723 0.8716
1300.000000 0.8709 0.8703 0.8696 0.8690 0.8686
1305.000000 0.8682 0.8678 0.8678 0.8678 0.8682
1310.000000 0.8685 0.8689 0.8695 0.8701 0.8707
1315.000000 0.8707 0.8706 0.8705 0.8704 0.8700
1320.000000 0.8690 0.8675 0.8659 0.8642 0.8625
1325.000000 0.8605 0.8583 0.8558 0.8525 0.8492
1330.000000 0.8460 0.8488 0.8550 0.8612 0.8649
1335.000000 0.8640 0.8628 0.8614 0.8578 0.8525
1340.000000 0.8450 0.8373 0.8275 0.8178 0.8095
1345.000000 0.8018 0.7937 0.7844 0.7746 0.7561
1350.000000 0.7282 0.6921 0.6699 0.6408 0.6096
1355.000000 0.5658 0.5265 0.4799 0.4333 0.3866
1360.000000 0.3400 0.3142 0.3163 0.3384 0.3948
1365.000000 0.4512 0.5076 0.5639 0.6203 0.6704
1370.000000 0.7104 0.7451 0.7626 0.7701 0.7775
1375.000000 0.7805 0.7828 0.7821 0.7821 0.7818
1380.000000 0.7748 0.7703 0.7674 0.7657 0.7631
1385.000000 0.7599 0.7562 0.7325 0.6918 0.6512
1390.000000 0.6106 0.5700 0.5294 0.4888 0.4482
1395.000000 0.4076 0.3670 0.2752 0.2858 0.2781
1400.000000 0.2781 0.3300 0.4535 0.5131 0.5242
1405.000000 0.5317 0.5340 0.5343 0.5345 0.5350
1410.000000 0.5357 0.5362 0.5374 0.5427 0.5587
1415.000000 0.5939 0.6292 0.6645 0.6997 0.7286
1420.000000 0.7371 0.7456 0.7536 0.7608 0.7651
1425.000000 0.7678 0.7704 0.7731 0.7761 0.7795
1430.000000 0.7815 0.7833 0.7849 0.7856 0.7858
1435.000000 0.7861 0.7865 0.7867 0.7869 0.7895
1440.000000 0.7875 0.7875 0.7874 0.7872 0.7867
1445.000000 0.7856 0.7845 0.7833 0.7790 0.7774
1450.000000 0.7765 0.7767 0.7768 0.7771 0.7775
1455.000000 0.7775 0.7775 0.7730 0.7690 0.7650
1460.000000 0.7611 0.7578 0.7548 0.7518 0.7488
1465.000000 0.7445 0.7383 0.7325 0.7271 0.7218
1470.000000 0.7165 0.7101 0.7034 0.6919 0.6812
1475.000000 0.6674 0.6585 0.6543 0.6536 0.6528
1480.000000 0.6525 0.6524 0.6539 0.6574 0.6606
1485.000000 0.6628 0.6646 0.6661 0.6668 0.6674
1490.000000 0.6675 0.6675 0.6675 0.6671 0.6654
1495.000000 0.6636 0.6618 0.6631 0.6671 0.6694
1500.000000 0.6715 0.6725 0.6721 0.6710 0.6689
1505.000000 0.6665 0.6640 0.6605 0.6571 0.6542
1510.000000 0.6512 0.6483 0.6454 0.6418 0.6385
1515.000000 0.6351 0.6305 0.6252 0.6200 0.6146
1520.000000 0.6091 0.6037 0.5981 0.5923 0.5865
1525.000000 0.5807 0.5727 0.5645 0.5568 0.5497
1530.000000 0.5426 0.5352 0.5274 0.5196 0.5118
1535.000000 0.5012 0.4904 0.4796 0.4689 0.4594
1540.000000 0.4519 0.4444 0.4369 0.4294 0.4219
1545.000000 0.4147 0.4077 0.4007 0.3948 0.3891
1550.000000 0.3823 0.3739 0.3714 0.3736 0.3740
1555.000000 0.3744 0.3750 0.3759 0.3778 0.3814
1560.000000 0.3950 0.4099 0.4304 0.4422 0.4533
1565.000000 0.4626 0.4692 0.4758 0.4817 0.4862
1570.000000 0.4906 0.4951 0.4996 0.5046 0.5098
1575.000000 0.5150 0.5200 0.5248 0.5295 0.5335
1580.000000 0.5353 0.5372 0.5384 0.5395 0.5406
1585.000000 0.5416 0.5424 0.5432 0.5439 0.5460
1590.000000 0.5505 0.5595 0.5688 0.5833 0.5989
1595.000000 0.6112 0.6178 0.6244 0.6314 0.6393
1600.000000 0.6461 0.6508 0.6554 0.6599 0.6650
1605.000000 0.6706 0.6760 0.6810 0.6858 0.6907
1610.000000 0.6939 0.6971 0.7001 0.7034 0.7068
1615.000000 0.7105 0.7142 0.7175 0.7208 0.7241
1620.000000 0.7272 0.7306 0.7321 0.7325 0.7328
1625.000000 0.7331 0.7336 0.7343 0.7355 0.7375
1630.000000 0.7397 0.7418 0.7439 0.7460 0.7482
1635.000000 0.7504 0.7525 0.7548 0.7569 0.7593
1640.000000 0.7617 0.7638 0.7653 0.7668 0.7684
1645.000000 0.7701 0.7728 0.7738 0.7747 0.7757
1650.000000 0.7764 0.7769 0.7775 0.7781 0.7787
1655.000000 0.7792 0.7796 0.7800 0.7800 0.7800
1660.000000 0.7800 0.7800 0.7799 0.7794 0.7789
1665.000000 0.7783 0.7775 0.7767 0.7760 0.7751
1670.000000 0.7744 0.7737 0.7728 0.7721 0.7712
1675.000000 0.7705 0.7697 0.7691 0.7685 0.7678
1680.000000 0.7672 0.7667 0.7661 0.7656 0.7654
1685.000000 0.7651 0.7648 0.7649 0.7649 0.7651
1690.000000 0.7654 0.7624 0.7658 0.7661 0.7664
1695.000000 0.7667 0.7669 0.7672 0.7675 0.7678
1700.000000 0.7682 0.7685 0.7688 0.7693 0.7698
1705.000000 0.7704 0.7708 0.7714 0.7718 0.7724
1710.000000 0.7728 0.7734 0.7740 0.7746 0.7751
1715.000000 0.7757 0.7761 0.7768 0.7772 0.7778
1720.000000 0.7787 0.7795 0.7804 0.7811 0.7819
1725.000000 0.7828 0.7837 0.7845 0.7856 0.7869
1730.000000 0.7885 0.7899 0.7914 0.7928 0.7944
1735.000000 0.7958 0.7960 0.7962 0.7965 0.7968
1740.000000 0.7969 0.7997 0.7975 0.7972 0.7971
1745.000000 0.7969 0.7961 0.7954 0.7933 0.7907
1750.000000 0.7881 0.7846 0.7810 0.7784 0.7760
1755.000000 0.7751 0.7748 0.7747 0.7747 0.7748
1760.000000 0.7761 0.7778 0.7814 0.7855 0.7911
1765.000000 0.7968 0.8024 0.8071 0.8115 0.8155
1770.000000 0.8187 0.8218 0.8242 0.8264 0.8283
1775.000000 0.8293 0.8304 0.8314 0.8324 0.8335
1780.000000 0.8345 0.8356 0.8366 0.8375 0.8383
1785.000000 0.8390 0.8398 0.8405 0.8413 0.8421
1790.000000 0.8428 0.8436 0.8444 0.8451 0.8457
1795.000000 0.8464 0.8471 0.8477 0.8484 0.8491
1800.000000 0.8497 0.8504 0.8510 0.8514 0.8517
1805.000000 0.8521 0.8525 0.8528 0.8532 0.8536
1810.000000 0.8539 0.8543 0.8547 0.8550 0.8553
1815.000000 0.8556 0.8558 0.8561 0.8564 0.8567
1820.000000 0.8570 0.8571 0.8575 0.8578 0.8581
1825.000000 0.8584 0.8587 0.8589 0.8592 0.8595
1830.000000 0.8599 0.8602 0.8605 0.8608 0.8611
1835.000000 0.8615 0.8621 0.8627 0.8632 0.8638
1840.000000 0.8644 0.8649 0.8655 0.8661 0.8666
1845.000000 0.8671 0.8678 0.8683 0.8689 0.8695
1850.000000 0.8702 0.8708 0.8714 0.8720 0.8725
1855.000000 0.8731 0.8737 0.8743 0.8749 0.8755
1860.000000 0.8762 0.8768 0.8775 0.8783 0.8790
1865.000000 0.8797 0.8804 0.8811 0.8818 0.8825
1870.000000 0.8832 0.8839 0.8847 0.8854 0.8861
1875.000000 0.8868 0.8875 0.8881 0.8888 0.8895
1880.000000 0.8902 0.8910 0.8918 0.8927 0.8935
1885.000000 0.8944 0.8952 0.8960 0.8968 0.8975
1890.000000 0.8982 0.8988 0.8993 0.8999 0.9005
1895.000000 0.9010 0.9016 0.9021 0.9028 0.9030
1900.000000 0.9031 0.9032 0.9033 0.9034 0.9035
1905.000000 0.9037 0.9038 0.9039 0.9045 0.9052
1910.000000 0.9059 0.9066 0.9074 0.9078 0.9083
1915.000000 0.9087 0.9091 0.9095 0.9099 0.9103
1920.000000 0.9108 0.9112 0.9116 0.9120 0.9124
1925.000000 0.9128 0.9133 0.9133 0.9134 0.9134
1930.000000 0.9135 0.9135 0.9136 0.9136 0.9137
1935.000000 0.9137 0.9138 0.9138 0.9139 0.9139
1940.000000 0.9139 0.9139 0.9139 0.9140 0.9140
1945.000000 0.9140 0.9140 0.9140 0.9140 0.9141
1950.000000 0.9141 0.9141 0.9140 0.9140 0.9140
1955.000000 0.9139 0.9139 0.9138 0.9138 0.9137
1960.000000 0.9137 0.9137 0.9136 0.9136 0.9137
1965.000000 0.9138 0.9139 0.9139 0.9140 0.9141
1970.000000 0.9142 0.9142 0.9143 0.9144 0.9145
1975.000000 0.9146 0.9146 0.9147 0.9148 0.9149
1980.000000 0.9149 0.9150 0.9150 0.9151 0.9151
1985.000000 0.9152 0.9152 0.9153 0.9153 0.9154
1990.000000 0.9154 0.9154 0.9154 0.9154 0.9153
1995.000000 0.9153 0.9153 0.9152 0.9152 0.9151
2000.000000 0.9151 0.9150 0.9150 0.9149 0.9149
2005.000000 0.9149 0.9149 0.9148 0.9148 0.9148
2010.000000 0.9148 0.9148 0.9148 0.9147 0.9147
2015.000000 0.9147 0.9147 0.9146 0.9146 0.9146
2020.000000 0.9146 0.9145 0.9145 0.9145 0.9145
2025.000000 0.9144 0.9144 0.9144 0.9144 0.9144
2030.000000 0.9144 0.9143 0.9143 0.9143 0.9143
2035.000000 0.9143 0.9143 0.9142 0.9142 0.9142
2040.000000 0.9142 0.9142 0.9142 0.9141 0.9141
2045.000000 0.9141 0.9141 0.9141 0.9140 0.9140
2050.000000 0.9140 0.9140 0.9140 0.9139 0.9139
2055.000000 0.9137 0.9136 0.9134 0.9133 0.9131
2060.000000 0.9128 0.9127 0.9125 0.9124 0.9123
2065.000000 0.9121 0.9118 0.9117 0.9116 0.9114
2070.000000 0.9113 0.9111 0.9110 0.9108 0.9106
2075.000000 0.9104 0.9103 0.9100 0.9098 0.9094
2080.000000 0.9090 0.9086 0.9083 0.9078 0.9075
2085.000000 0.9071 0.9068 0.9064 0.9060 0.9056
2090.000000 0.9053 0.9050 0.9048 0.9045 0.9043
2095.000000 0.9041 0.9042 0.9043 0.9048 0.9054
2100.000000 0.9060 0.9066 0.9071 0.9078 0.9084
2105.000000 0.9091 0.9099 0.9110 0.9121 0.9132
2110.000000 0.9143 0.9153 0.9163 0.9166 0.9168
2115.000000 0.9171 0.9175 0.9178 0.9182 0.9184
2120.000000 0.9187 0.9186 0.9185 0.9184 0.9183
2125.000000 0.9182 0.9181 0.9180 0.9178 0.9177
2130.000000 0.9175 0.9175 0.9174 0.9171 0.9171
2135.000000 0.9170 0.9168 0.9167 0.9166 0.9165
2140.000000 0.9164 0.9162 0.9161 0.9160 0.9159
2145.000000 0.9157 0.9156 0.9155 0.9154 0.9152
2150.000000 0.9151 0.9149 0.9148 0.9147 0.9146
2155.000000 0.9144 0.9143 0.9141 0.9140 0.9139
2160.000000 0.9138 0.9136 0.9135 0.9133 0.9132
2165.000000 0.9128 0.9125 0.9121 0.9118 0.9116
2170.000000 0.9113 0.9110 0.9107 0.9105 0.9103
2175.000000 0.9103 0.9103 0.9103 0.9103 0.9103
2180.000000 0.9103 0.9103 0.9103 0.9105 0.9108
2185.000000 0.9112 0.9117 0.9120 0.9123 0.9125
2190.000000 0.9128 0.9132 0.9136 0.9140 0.9144
2195.000000 0.9148 0.9152 0.9156 0.9160 0.9163
2200.000000 0.9167 0.9170 0.9174 0.9175 0.9178
2205.000000 0.9180 0.9181 0.9181 0.9182 0.9183
2210.000000 0.9184 0.9184 0.9185 0.9185 0.9185
2215.000000 0.9183 0.9181 0.9178 0.9177 0.9175
2220.000000 0.9173 0.9171 0.9168 0.9167 0.9166
2225.000000 0.9164 0.9162 0.9160 0.9158 0.9156
2230.000000 0.9154 0.9152 0.9151 0.9149 0.9148
2235.000000 0.9146 0.9145 0.9143 0.9142 0.9140
2240.000000 0.9139 0.9137 0.9136 0.9134 0.9133
2245.000000 0.9131 0.9128 0.9125 0.9124 0.9121
2250.000000 0.9118 0.9117 0.9115 0.9108 0.9101
2255.000000 0.9093 0.9085 0.9077 0.9068 0.9061
2260.000000 0.9053 0.9044 0.9036 0.9027 0.9018
2265.000000 0.9009 0.9000 0.8990 0.8981 0.8971
2270.000000 0.8963 0.8953 0.8944 0.8935 0.8925
2275.000000 0.8917 0.8908 0.8899 0.8890 0.8881
2280.000000 0.8873 0.8864 0.8855 0.8846 0.8838
2285.000000 0.8828 0.8821 0.8812 0.8804 0.8795
2290.000000 0.8787 0.8780 0.8773 0.8766 0.8759
2295.000000 0.8751 0.8744 0.8737 0.8730 0.8723
2300.000000 0.8717 0.8717 0.8718 0.8718 0.8735
2305.000000 0.8721 0.8724 0.8733 0.8742 0.8750
2310.000000 0.8759 0.8767 0.8775 0.8783 0.8791
2315.000000 0.8798 0.8806 0.8812 0.8818 0.8825
2320.000000 0.8831 0.8837 0.8843 0.8849 0.8855
2325.000000 0.8861 0.8867 0.8873 0.8878 0.8885
2330.000000 0.8892 0.8898 0.8904 0.8910 0.8916
2335.000000 0.8921 0.8928 0.8933 0.8938 0.8943
2340.000000 0.8948 0.8953 0.8958 0.8963 0.8968
2345.000000 0.8971 0.8975 0.8978 0.8983 0.8986
2350.000000 0.8990 0.8993 0.8997 0.8999 0.9002
2355.000000 0.9003 0.9005 0.9006 0.9007 0.9008
2360.000000 0.9009 0.9010 0.9012 0.9013 0.9014
2365.000000 0.9015 0.9017 0.9018 0.9020 0.9023
2370.000000 0.9027 0.9030 0.9034 0.9037 0.9041
2375.000000 0.9044 0.9048 0.9049 0.9049 0.9048
2380.000000 0.9059 0.9044 0.9042 0.9027 0.9012
2385.000000 0.8997 0.8982 0.8966 0.8951 0.8933
2390.000000 0.8916 0.8897 0.8878 0.8856 0.8835
2395.000000 0.8812 0.8790 0.8758 0.8727 0.8689
2400.000000 0.8652 0.8647 0.8642 0.8636 0.8631
2405.000000 0.8625 0.8621 0.8618 0.8618 0.8618
2410.000000 0.8621 0.8623 0.8625 0.8627 0.8630
2415.000000 0.8637 0.8645 0.8653 0.8661 0.8668
