##TITLE=Pyridazine
##JCAMP-DX=4.24
$$ By DXEDIT 1.05 (RS McDonald)
##DATA TYPE=INFRARED SPECTRUM
##CLASS=COBLENTZ
##ORIGIN=DOW CHEMICAL COMPANY
##OWNER=COPYRIGHT (C) 1988 by COBLENTZ SOCIETY INC.
Collection (C) 2018 copyright by the U.S. Secretary of Commerce
on behalf of the United States of America. All rights reserved.
##DATE=1965/11/10
##CAS REGISTRY NO=289-80-5
##MOLFORM=C4 H4 N2
##SOURCE REFERENCE=COBLENTZ NO. 06364
##$NIST SOURCE=COBLENTZ
##$NIST IMAGE=cob6364
##SPECTROMETER/DATA SYSTEM=BECKMAN IR-9 (GRATING)
##INSTRUMENT PARAMETERS=ORDER CHANGES: 670, 1200, 2000 CM^-^1
##STATE=LIQUID (NEAT)
##PATH LENGTH=CAPILLARY
$$SPECTRAL CONTAMINATION DUE TO H2O AROUND 1670, 3450 AND AN UNKNOWN AROUND 400 CM^-^1
##SAMPLING PROCEDURE=TRANSMISSION
##RESOLUTION=2
##DATA PROCESSING=DIGITIZED BY COBLENTZ SOCIETY (BATCH I) FROM HARD COPY
##XUNITS=1/CM
##YUNITS=TRANSMITTANCE
##XFACTOR=1
##YFACTOR=1
##DELTAX=1
##FIRSTX=3814
##LASTX=417
##FIRSTY=0.8882
##MAXX=3814
##MINX=417
##MAXY=0.926
##MINY=0.0504
##NPOINTS=3398
##XYDATA=(X++(Y..Y))
3814.000000 0.8882 0.8881 0.8881 0.8880 0.8878
3809.000000 0.8878 0.8878 0.8877 0.8875 0.8875
3804.000000 0.8874 0.8873 0.8873 0.8871 0.8871
3799.000000 0.8870 0.8870 0.8868 0.8868 0.8866
3794.000000 0.8864 0.8861 0.8859 0.8857 0.8855
3789.000000 0.8853 0.8851 0.8848 0.8846 0.8844
3784.000000 0.8842 0.8839 0.8837 0.8834 0.8832
3779.000000 0.8828 0.8827 0.8823 0.8818 0.8814
3774.000000 0.8810 0.8805 0.8801 0.8796 0.8792
3769.000000 0.8787 0.8783 0.8778 0.8773 0.8770
3764.000000 0.8768 0.8767 0.8767 0.8766 0.8765
3759.000000 0.8764 0.8764 0.8763 0.8762 0.8761
3754.000000 0.8760 0.8759 0.8759 0.8758 0.8757
3749.000000 0.8757 0.8757 0.8757 0.8759 0.8761
3744.000000 0.8763 0.8764 0.8766 0.8768 0.8770
3739.000000 0.8771 0.8775 0.8777 0.8780 0.8782
3734.000000 0.8784 0.8786 0.8789 0.8790 0.8790
3729.000000 0.8790 0.8789 0.8788 0.8788 0.8787
3724.000000 0.8780 0.8785 0.8784 0.8783 0.8783
3719.000000 0.8782 0.8782 0.8782 0.8782 0.8781
3714.000000 0.8781 0.8778 0.8775 0.8773 0.8771
3709.000000 0.8768 0.8767 0.8761 0.8755 0.8748
3704.000000 0.8742 0.8730 0.8718 0.8712 0.8705
3699.000000 0.8700 0.8695 0.8690 0.8685 0.8680
3694.000000 0.8675 0.8670 0.8665 0.8660 0.8655
3689.000000 0.8648 0.8641 0.8634 0.8627 0.8620
3684.000000 0.8613 0.8606 0.8599 0.8592 0.8585
3679.000000 0.8577 0.8568 0.8556 0.8544 0.8532
3674.000000 0.8520 0.8507 0.8495 0.8483 0.8471
3669.000000 0.8459 0.8447 0.8435 0.8424 0.8412
3664.000000 0.8400 0.8388 0.8377 0.8365 0.8353
3659.000000 0.8341 0.8330 0.8317 0.8305 0.8292
3654.000000 0.8280 0.8267 0.8254 0.8241 0.8228
3649.000000 0.8216 0.8203 0.8190 0.8178 0.8165
3644.000000 0.8154 0.8141 0.8128 0.8115 0.8104
3639.000000 0.8091 0.8078 0.8067 0.8055 0.8044
3634.000000 0.8034 0.8022 0.8012 0.8001 0.7992
3629.000000 0.7981 0.7971 0.7960 0.7950 0.7939
3624.000000 0.7928 0.7918 0.7908 0.7897 0.7887
3619.000000 0.7875 0.7865 0.7855 0.7845 0.7835
3614.000000 0.7825 0.7815 0.7807 0.7797 0.7788
3609.000000 0.7778 0.7769 0.7760 0.7751 0.7741
3604.000000 0.7732 0.7721 0.7712 0.7704 0.7695
3599.000000 0.7685 0.7675 0.7665 0.7655 0.7645
3594.000000 0.7635 0.7625 0.7615 0.7605 0.7595
3589.000000 0.7584 0.7574 0.7564 0.7554 0.7544
3584.000000 0.7534 0.7522 0.7512 0.7501 0.7491
3579.000000 0.7480 0.7468 0.7457 0.7446 0.7435
3574.000000 0.7424 0.7412 0.7401 0.7391 0.7380
3569.000000 0.7368 0.7358 0.7347 0.7336 0.7325
3564.000000 0.7314 0.7303 0.7292 0.7281 0.7271
3559.000000 0.7260 0.7249 0.7238 0.7226 0.7215
3554.000000 0.7205 0.7194 0.7183 0.7171 0.7161
3549.000000 0.7151 0.7141 0.7130 0.7119 0.7108
3544.000000 0.7099 0.7088 0.7078 0.7065 0.7051
3539.000000 0.7039 0.7025 0.7012 0.7000 0.6987
3534.000000 0.6974 0.6961 0.6949 0.6938 0.6928
3529.000000 0.6917 0.6907 0.6896 0.6886 0.6875
3524.000000 0.6864 0.6853 0.6843 0.6832 0.6821
3519.000000 0.6811 0.6801 0.6790 0.6778 0.6768
3514.000000 0.6757 0.6743 0.6728 0.6715 0.6701
3509.000000 0.6688 0.6674 0.6660 0.6647 0.6633
3504.000000 0.6618 0.6601 0.6583 0.6565 0.6549
3499.000000 0.6535 0.6521 0.6515 0.6510 0.6505
3494.000000 0.6500 0.6495 0.6490 0.6485 0.6480
3489.000000 0.6475 0.6469 0.6465 0.6460 0.6455
3484.000000 0.6450 0.6445 0.6441 0.6436 0.6432
3479.000000 0.6426 0.6422 0.6418 0.6412 0.6408
3474.000000 0.6404 0.6399 0.6395 0.6391 0.6388
3469.000000 0.6384 0.6381 0.6378 0.6375 0.6372
3464.000000 0.6369 0.6365 0.6362 0.6359 0.6356
3459.000000 0.6353 0.6352 0.6351 0.6353 0.6354
3454.000000 0.6356 0.6357 0.6359 0.6360 0.6362
3449.000000 0.6364 0.6366 0.6368 0.6371 0.6374
3444.000000 0.6377 0.6380 0.6383 0.6386 0.6389
3439.000000 0.6391 0.6394 0.6397 0.6400 0.6403
3434.000000 0.6406 0.6408 0.6411 0.6415 0.6421
3429.000000 0.6425 0.6430 0.6435 0.6440 0.6445
3424.000000 0.6450 0.6454 0.6458 0.6464 0.6468
3419.000000 0.6472 0.6478 0.6486 0.6495 0.6503
3414.000000 0.6511 0.6519 0.6528 0.6537 0.6545
3409.000000 0.6553 0.6561 0.6569 0.6578 0.6587
3404.000000 0.6596 0.6605 0.6614 0.6622 0.6632
3399.000000 0.6641 0.6650 0.6658 0.6668 0.6676
3394.000000 0.6686 0.6695 0.6704 0.6712 0.6721
3389.000000 0.6731 0.6740 0.6749 0.6758 0.6769
3384.000000 0.6781 0.6791 0.6801 0.6812 0.6824
3379.000000 0.6835 0.6846 0.6856 0.6867 0.6878
3374.000000 0.6889 0.6900 0.6911 0.6921 0.6933
3369.000000 0.6943 0.6954 0.6965 0.6975 0.6986
3364.000000 0.6997 0.7008 0.7018 0.7028 0.7040
3359.000000 0.7051 0.7061 0.7071 0.7083 0.7094
3354.000000 0.7105 0.7115 0.7125 0.7136 0.7147
3349.000000 0.7158 0.7168 0.7178 0.7189 0.7197
3344.000000 0.7205 0.7211 0.7219 0.7226 0.7235
3339.000000 0.7243 0.7251 0.7258 0.7265 0.7274
3334.000000 0.7282 0.7289 0.7297 0.7304 0.7311
3329.000000 0.7319 0.7328 0.7335 0.7343 0.7351
3324.000000 0.7358 0.7365 0.7374 0.7381 0.7389
3319.000000 0.7397 0.7405 0.7411 0.7419 0.7428
3314.000000 0.7436 0.7443 0.7451 0.7458 0.7467
3309.000000 0.7474 0.7482 0.7489 0.7497 0.7505
3304.000000 0.7512 0.7519 0.7528 0.7536 0.7544
3299.000000 0.7551 0.7558 0.7567 0.7575 0.7581
3294.000000 0.7588 0.7593 0.7599 0.7605 0.7611
3289.000000 0.7617 0.7622 0.7628 0.7634 0.7640
3284.000000 0.7646 0.7651 0.7657 0.7662 0.7668
3279.000000 0.7675 0.7681 0.7686 0.7692 0.7698
3274.000000 0.7704 0.7708 0.7715 0.7718 0.7722
3269.000000 0.7726 0.7732 0.7736 0.7740 0.7744
3264.000000 0.7749 0.7753 0.7757 0.7761 0.7765
3259.000000 0.7769 0.7774 0.7778 0.7783 0.7787
3254.000000 0.7791 0.7795 0.7800 0.7804 0.7808
3249.000000 0.7811 0.7815 0.7818 0.7822 0.7826
3244.000000 0.7831 0.7834 0.7838 0.7841 0.7845
3239.000000 0.7848 0.7851 0.7856 0.7860 0.7862
3234.000000 0.7865 0.7867 0.7868 0.7871 0.7872
3229.000000 0.7875 0.7876 0.7878 0.7881 0.7882
3224.000000 0.7882 0.7883 0.7883 0.7883 0.7883
3219.000000 0.7883 0.7883 0.7882 0.7882 0.7882
3214.000000 0.7882 0.7883 0.7884 0.7886 0.7888
3209.000000 0.7889 0.7891 0.7892 0.7893 0.7894
3204.000000 0.7896 0.7897 0.7898 0.7899 0.7900
3199.000000 0.7901 0.7903 0.7904 0.7921 0.7906
3194.000000 0.7907 0.7907 0.7907 0.7907 0.7907
3189.000000 0.7906 0.7906 0.7906 0.7906 0.7901
3184.000000 0.7898 0.7892 0.7887 0.7881 0.7875
3179.000000 0.7871 0.7865 0.7860 0.7855 0.7849
3174.000000 0.7844 0.7837 0.7831 0.7825 0.7818
3169.000000 0.7812 0.7807 0.7792 0.7778 0.7758
3164.000000 0.7741 0.7711 0.7683 0.7660 0.7637
3159.000000 0.7615 0.7594 0.7582 0.7569 0.7558
3154.000000 0.7549 0.7540 0.7532 0.7526 0.7522
3149.000000 0.7524 0.7525 0.7538 0.7550 0.7560
3144.000000 0.7569 0.7576 0.7584 0.7591 0.7598
3139.000000 0.7605 0.7611 0.7618 0.7625 0.7630
3134.000000 0.7634 0.7638 0.7643 0.7641 0.7640
3129.000000 0.7637 0.7634 0.7631 0.7628 0.7625
3124.000000 0.7622 0.7619 0.7618 0.7614 0.7611
3119.000000 0.7604 0.7598 0.7591 0.7584 0.7574
3114.000000 0.7564 0.7548 0.7532 0.7511 0.7492
3109.000000 0.7467 0.7442 0.7415 0.7388 0.7361
3104.000000 0.7336 0.7318 0.7301 0.7285 0.7268
3099.000000 0.7242 0.7215 0.7180 0.7145 0.7108
3094.000000 0.7071 0.7031 0.6990 0.6949 0.6908
3089.000000 0.6847 0.6787 0.6728 0.6669 0.6593
3084.000000 0.6517 0.6371 0.6225 0.6135 0.6046
3079.000000 0.5956 0.5867 0.5777 0.5688 0.5598
3074.000000 0.5508 0.5449 0.5391 0.5364 0.5338
3069.000000 0.5331 0.5316 0.5321 0.5319 0.5318
3064.000000 0.5317 0.5316 0.5316 0.5329 0.5342
3059.000000 0.5360 0.5378 0.5432 0.5487 0.5554
3054.000000 0.5621 0.5698 0.5776 0.5912 0.6051
3049.000000 0.6171 0.6292 0.6411 0.6532 0.6651
3044.000000 0.6771 0.6892 0.7012 0.7087 0.7161
3039.000000 0.7203 0.7246 0.7284 0.7322 0.7356
3034.000000 0.7390 0.7421 0.7453 0.7476 0.7501
3029.000000 0.7522 0.7544 0.7562 0.7582 0.7597
3024.000000 0.7612 0.7628 0.7645 0.7660 0.7675
3019.000000 0.7692 0.7708 0.7724 0.7740 0.7754
3014.000000 0.7768 0.7778 0.7789 0.7797 0.7805
3009.000000 0.7808 0.7811 0.7811 0.7812 0.7814
3004.000000 0.7815 0.7815 0.7815 0.7815 0.7817
2999.000000 0.7817 0.7817 0.7815 0.7814 0.7790
2994.000000 0.7767 0.7739 0.7711 0.7680 0.7650
2989.000000 0.7634 0.7618 0.7610 0.7601 0.7595
2984.000000 0.7589 0.7585 0.7581 0.7575 0.7571
2979.000000 0.7567 0.7518 0.7558 0.7555 0.7551
2974.000000 0.7549 0.7549 0.7550 0.7554 0.7558
2969.000000 0.7561 0.7565 0.7603 0.7640 0.7660
2964.000000 0.7680 0.7700 0.7719 0.7740 0.7761
2959.000000 0.7778 0.7798 0.7815 0.7833 0.7848
2954.000000 0.7864 0.7871 0.7878 0.7885 0.7892
2949.000000 0.7899 0.7906 0.7912 0.7919 0.7924
2944.000000 0.7928 0.7933 0.7938 0.7950 0.7961
2939.000000 0.7978 0.7995 0.8011 0.8028 0.8047
2934.000000 0.8065 0.8083 0.8101 0.8119 0.8139
2929.000000 0.8157 0.8175 0.8191 0.8206 0.8221
2924.000000 0.8237 0.8252 0.8267 0.8282 0.8297
2919.000000 0.8310 0.8324 0.8338 0.8352 0.8365
2914.000000 0.8378 0.8387 0.8396 0.8404 0.8412
2909.000000 0.8420 0.8428 0.8435 0.8443 0.8445
2904.000000 0.8448 0.8450 0.8452 0.8447 0.8443
2899.000000 0.8438 0.8434 0.8428 0.8421 0.8415
2894.000000 0.8408 0.8400 0.8393 0.8387 0.8382
2889.000000 0.8381 0.8381 0.8381 0.8381 0.8380
2884.000000 0.8380 0.8382 0.8384 0.8389 0.8394
2879.000000 0.8399 0.8404 0.8409 0.8415 0.8420
2874.000000 0.8425 0.8430 0.8435 0.8442 0.8449
2869.000000 0.8458 0.8467 0.8475 0.8485 0.8494
2864.000000 0.8503 0.8511 0.8520 0.8528 0.8538
2859.000000 0.8547 0.8556 0.8565 0.8575 0.8584
2854.000000 0.8594 0.8603 0.8613 0.8621 0.8631
2849.000000 0.8640 0.8650 0.8658 0.8667 0.8675
2844.000000 0.8684 0.8693 0.8702 0.8710 0.8718
2839.000000 0.8725 0.8732 0.8738 0.8745 0.8751
2834.000000 0.8758 0.8764 0.8771 0.8775 0.8781
2829.000000 0.8783 0.8786 0.8789 0.8792 0.8794
2824.000000 0.8797 0.8799 0.8802 0.8804 0.8807
2819.000000 0.8809 0.8812 0.8813 0.8815 0.8815
2814.000000 0.8816 0.8816 0.8816 0.8817 0.8818
2809.000000 0.8821 0.8824 0.8827 0.8830 0.8833
2804.000000 0.8836 0.8842 0.8848 0.8855 0.8863
2799.000000 0.8871 0.8878 0.8886 0.8894 0.8901
2794.000000 0.8909 0.8916 0.8923 0.8928 0.8934
2789.000000 0.8940 0.8946 0.8951 0.8957 0.8960
2784.000000 0.8963 0.8965 0.8967 0.8968 0.8971
2779.000000 0.8974 0.8975 0.8978 0.8980 0.8982
2774.000000 0.8984 0.8984 0.8985 0.8986 0.8987
2769.000000 0.8987 0.8988 0.8988 0.8988 0.8985
2764.000000 0.8983 0.8980 0.8978 0.8975 0.8973
2759.000000 0.8968 0.8966 0.8963 0.8960 0.8957
2754.000000 0.8954 0.8951 0.8949 0.8948 0.8947
2749.000000 0.8945 0.8944 0.8943 0.8943 0.8944
2744.000000 0.8945 0.8946 0.8947 0.8948 0.8949
2739.000000 0.8950 0.8951 0.8954 0.8957 0.8961
2734.000000 0.8966 0.8970 0.8975 0.8978 0.8984
2729.000000 0.8988 0.8992 0.8995 0.8998 0.9001
2724.000000 0.9004 0.9007 0.9010 0.9012 0.9015
2719.000000 0.9018 0.9021 0.9024 0.9027 0.9028
2714.000000 0.9032 0.9035 0.9038 0.9041 0.9044
2709.000000 0.9047 0.9050 0.9052 0.9055 0.9058
2704.000000 0.9061 0.9064 0.9067 0.9067 0.9068
2699.000000 0.9068 0.9070 0.9070 0.9071 0.9071
2694.000000 0.9073 0.9074 0.9075 0.9075 0.9077
2689.000000 0.9078 0.9078 0.9080 0.9081 0.9081
2684.000000 0.9082 0.9082 0.9083 0.9083 0.9084
2679.000000 0.9084 0.9085 0.9085 0.9086 0.9086
2674.000000 0.9087 0.9087 0.9088 0.9088 0.9089
2669.000000 0.9089 0.9089 0.9090 0.9091 0.9092
2664.000000 0.9093 0.9093 0.9094 0.9095 0.9096
2659.000000 0.9097 0.9098 0.9098 0.9098 0.9097
2654.000000 0.9096 0.9094 0.9093 0.9092 0.9091
2649.000000 0.9089 0.9088 0.9087 0.9086 0.9084
2644.000000 0.9083 0.9081 0.9078 0.9075 0.9071
2639.000000 0.9067 0.9063 0.9059 0.9055 0.9051
2634.000000 0.9048 0.9044 0.9040 0.9036 0.9033
2629.000000 0.9028 0.9023 0.9017 0.9012 0.9007
2624.000000 0.9002 0.8998 0.8994 0.8990 0.8987
2619.000000 0.8983 0.8980 0.8977 0.8975 0.8973
2614.000000 0.8971 0.8968 0.8966 0.8964 0.8962
2609.000000 0.8968 0.8974 0.8986 0.8998 0.9009
2604.000000 0.9021 0.9032 0.9043 0.9052 0.9061
2599.000000 0.9063 0.9066 0.9068 0.9070 0.9071
2594.000000 0.9075 0.9077 0.9080 0.9082 0.9085
2589.000000 0.9087 0.9090 0.9091 0.9093 0.9094
2584.000000 0.9096 0.9097 0.9099 0.9099 0.9100
2579.000000 0.9100 0.9101 0.9101 0.9101 0.9101
2574.000000 0.9102 0.9102 0.9102 0.9102 0.9103
2569.000000 0.9103 0.9103 0.9103 0.9104 0.9104
2564.000000 0.9105 0.9105 0.9105 0.9105 0.9106
2559.000000 0.9106 0.9106 0.9106 0.9107 0.9107
2554.000000 0.9107 0.9107 0.9108 0.9108 0.9109
2549.000000 0.9109 0.9109 0.9109 0.9110 0.9110
2544.000000 0.9110 0.9110 0.9111 0.9111 0.9111
2539.000000 0.9111 0.9112 0.9112 0.9112 0.9112
2534.000000 0.9113 0.9113 0.9114 0.9114 0.9114
2529.000000 0.9114 0.9115 0.9115 0.9115 0.9115
2524.000000 0.9116 0.9116 0.9116 0.9116 0.9117
2519.000000 0.9117 0.9118 0.9118 0.9118 0.9118
2514.000000 0.9118 0.9118 0.9118 0.9118 0.9120
2509.000000 0.9120 0.9120 0.9120 0.9121 0.9121
2504.000000 0.9121 0.9120 0.9118 0.9116 0.9114
2499.000000 0.9111 0.9109 0.9101 0.9094 0.9088
2494.000000 0.9083 0.9078 0.9075 0.9068 0.9063
2489.000000 0.9056 0.9049 0.9041 0.9034 0.9027
2484.000000 0.9021 0.9014 0.9008 0.9006 0.9006
2479.000000 0.9005 0.9006 0.9007 0.9008 0.9011
2474.000000 0.9015 0.9021 0.9028 0.9034 0.9041
2469.000000 0.9047 0.9054 0.9060 0.9067 0.9073
2464.000000 0.9078 0.9085 0.9091 0.9093 0.9096
2459.000000 0.9096 0.9096 0.9095 0.9095 0.9095
2454.000000 0.9095 0.9094 0.9094 0.9094 0.9094
2449.000000 0.9094 0.9094 0.9093 0.9093 0.9094
2444.000000 0.9095 0.9096 0.9097 0.9098 0.9100
2439.000000 0.9101 0.9103 0.9104 0.9105 0.9106
2434.000000 0.9108 0.9112 0.9117 0.9123 0.9128
2429.000000 0.9135 0.9142 0.9148 0.9155 0.9161
2424.000000 0.9167 0.9173 0.9180 0.9185 0.9190
2419.000000 0.9191 0.9171 0.9195 0.9197 0.9197
2414.000000 0.9197 0.9197 0.9195 0.9193 0.9192
2409.000000 0.9190 0.9189 0.9187 0.9185 0.9183
2404.000000 0.9182 0.9181 0.9181 0.9185 0.9190
2399.000000 0.9194 0.9199 0.9203 0.9207 0.9211
2394.000000 0.9216 0.9220 0.9225 0.9228 0.9234
2389.000000 0.9238 0.9242 0.9246 0.9251 0.9253
2384.000000 0.9256 0.9256 0.9257 0.9258 0.9259
2379.000000 0.9259 0.9260 0.9260 0.9260 0.9260
2374.000000 0.9260 0.9260 0.9260 0.9259 0.9259
2369.000000 0.9249 0.9239 0.9228 0.9220 0.9212
2364.000000 0.9205 0.9198 0.9191 0.9184 0.9177
2359.000000 0.9170 0.9164 0.9157 0.9150 0.9143
2354.000000 0.9136 0.9128 0.9121 0.9115 0.9109
2349.000000 0.9102 0.9095 0.9088 0.9081 0.9074
2344.000000 0.9068 0.9061 0.9054 0.9045 0.9037
2339.000000 0.9028 0.9020 0.9011 0.9003 0.8994
2334.000000 0.8986 0.8977 0.8968 0.8959 0.8951
2329.000000 0.8939 0.8927 0.8914 0.8902 0.8890
2324.000000 0.8878 0.8868 0.8858 0.8847 0.8855
2319.000000 0.8839 0.8841 0.8843 0.8846 0.8848
2314.000000 0.8850 0.8853 0.8857 0.8862 0.8867
2309.000000 0.8871 0.8877 0.8882 0.8888 0.8893
2304.000000 0.8898 0.8903 0.8909 0.8915 0.8921
2299.000000 0.8927 0.8934 0.8939 0.8944 0.8941
2294.000000 0.8939 0.8937 0.8935 0.8932 0.8930
2289.000000 0.8925 0.8923 0.8920 0.8917 0.8916
2284.000000 0.8915 0.8914 0.8914 0.8915 0.8916
2279.000000 0.8920 0.8924 0.8928 0.8935 0.8942
2274.000000 0.8950 0.8957 0.8965 0.8973 0.8981
2269.000000 0.8987 0.8993 0.8999 0.9006 0.9012
2264.000000 0.9018 0.9023 0.9028 0.9033 0.9037
2259.000000 0.9041 0.9045 0.9048 0.9052 0.9053
2254.000000 0.9055 0.9056 0.9057 0.9057 0.9058
2249.000000 0.9057 0.9054 0.9046 0.9038 0.9031
2244.000000 0.9025 0.9018 0.9014 0.9010 0.9006
2239.000000 0.9002 0.8998 0.8994 0.8990 0.8986
2234.000000 0.8982 0.8978 0.8974 0.8971 0.8970
2229.000000 0.8968 0.8968 0.8967 0.8966 0.8964
2224.000000 0.8963 0.8961 0.8974 0.8963 0.8967
2219.000000 0.8971 0.8975 0.8980 0.8985 0.8990
2214.000000 0.8995 0.9000 0.9005 0.9010 0.9015
2209.000000 0.9020 0.9025 0.9031 0.9036 0.9041
2204.000000 0.9047 0.9051 0.9056 0.9059 0.9063
2199.000000 0.9066 0.9070 0.9073 0.9077 0.9077
2194.000000 0.9077 0.9077 0.9077 0.9075 0.9075
2189.000000 0.9075 0.9075 0.9075 0.9075 0.9074
2184.000000 0.9073 0.9071 0.9071 0.9070 0.9070
2179.000000 0.9068 0.9068 0.9067 0.9067 0.9066
2174.000000 0.9066 0.9066 0.9066 0.9065 0.9065
2169.000000 0.9065 0.9065 0.9065 0.9065 0.9064
2164.000000 0.9063 0.9061 0.9060 0.9059 0.9058
2159.000000 0.9056 0.9055 0.9053 0.9051 0.9049
2154.000000 0.9047 0.9043 0.9040 0.9032 0.9025
2149.000000 0.9016 0.9008 0.8996 0.8985 0.8973
2144.000000 0.8962 0.8948 0.8934 0.8918 0.8902
2139.000000 0.8885 0.8868 0.8852 0.8835 0.8818
2134.000000 0.8801 0.8786 0.8771 0.8763 0.8755
2129.000000 0.8750 0.8745 0.8744 0.8718 0.8741
2124.000000 0.8739 0.8752 0.8766 0.8789 0.8812
2119.000000 0.8831 0.8851 0.8865 0.8880 0.8894
2114.000000 0.8909 0.8921 0.8936 0.8950 0.8964
2109.000000 0.8975 0.8987 0.8990 0.8994 0.8998
2104.000000 0.9002 0.9004 0.9007 0.9008 0.9009
2099.000000 0.9010 0.9011 0.9012 0.9013 0.9014
2094.000000 0.9015 0.9016 0.9017 0.9018 0.9018
2089.000000 0.9020 0.9021 0.9021 0.9023 0.9023
2084.000000 0.9024 0.9023 0.9021 0.9018 0.9016
2079.000000 0.9012 0.9009 0.9005 0.9001 0.8997
2074.000000 0.8994 0.8990 0.8987 0.8983 0.8980
2069.000000 0.8975 0.8953 0.8970 0.8967 0.8965
2064.000000 0.8964 0.8962 0.8961 0.8959 0.8958
2059.000000 0.8956 0.8955 0.8953 0.8952 0.8950
2054.000000 0.8948 0.8945 0.8942 0.8938 0.8935
2049.000000 0.8931 0.8927 0.8923 0.8918 0.8915
2044.000000 0.8911 0.8907 0.8903 0.8899 0.8895
2039.000000 0.8880 0.8866 0.8851 0.8836 0.8824
2034.000000 0.8813 0.8801 0.8790 0.8780 0.8771
2029.000000 0.8763 0.8755 0.8748 0.8741 0.8736
2024.000000 0.8736 0.8736 0.8740 0.8744 0.8749
2019.000000 0.8752 0.8756 0.8759 0.8763 0.8766
2014.000000 0.8768 0.8771 0.8774 0.8773 0.8771
2009.000000 0.8768 0.8765 0.8758 0.8752 0.8746
2004.000000 0.8740 0.8733 0.8725 0.8705 0.8684
1999.000000 0.8659 0.8634 0.8616 0.8607 0.8599
1994.000000 0.8592 0.8588 0.8584 0.8580 0.8577
1989.000000 0.8575 0.8575 0.8575 0.8574 0.8573
1984.000000 0.8571 0.8571 0.8570 0.8567 0.8565
1979.000000 0.8565 0.8565 0.8568 0.8571 0.8575
1974.000000 0.8582 0.8587 0.8593 0.8599 0.8602
1969.000000 0.8605 0.8608 0.8614 0.8620 0.8627
1964.000000 0.8633 0.8630 0.8627 0.8628 0.8628
1959.000000 0.8648 0.8667 0.8681 0.8684 0.8691
1954.000000 0.8689 0.8678 0.8668 0.8659 0.8649
1949.000000 0.8640 0.8633 0.8625 0.8618 0.8613
1944.000000 0.8616 0.8623 0.8628 0.8636 0.8642
1939.000000 0.8648 0.8654 0.8660 0.8661 0.8661
1934.000000 0.8660 0.8659 0.8658 0.8656 0.8652
1929.000000 0.8648 0.8643 0.8638 0.8633 0.8628
1924.000000 0.8625 0.8621 0.8618 0.8615 0.8612
1919.000000 0.8611 0.8611 0.8611 0.8617 0.8624
1914.000000 0.8630 0.8637 0.8642 0.8648 0.8655
1909.000000 0.8661 0.8670 0.8680 0.8690 0.8700
1904.000000 0.8710 0.8718 0.8728 0.8739 0.8750
1899.000000 0.8763 0.8775 0.8789 0.8800 0.8810
1894.000000 0.8820 0.8830 0.8841 0.8851 0.8861
1889.000000 0.8871 0.8881 0.8889 0.8896 0.8903
1884.000000 0.8910 0.8917 0.8924 0.8931 0.8938
1879.000000 0.8945 0.8952 0.8959 0.8966 0.8973
1874.000000 0.8978 0.8986 0.8992 0.8997 0.9002
1869.000000 0.9006 0.9011 0.9016 0.9021 0.9025
1864.000000 0.9030 0.9034 0.9038 0.9042 0.9046
1859.000000 0.9050 0.9054 0.9057 0.9059 0.9061
1854.000000 0.9063 0.9066 0.9068 0.9070 0.9073
1849.000000 0.9075 0.9077 0.9080 0.9082 0.9085
1844.000000 0.9087 0.9087 0.9088 0.9087 0.9085
1839.000000 0.9082 0.9078 0.9075 0.9071 0.9067
1834.000000 0.9063 0.9059 0.9056 0.9053 0.9050
1829.000000 0.9047 0.9044 0.9041 0.9036 0.9032
1824.000000 0.9028 0.9028 0.9027 0.9025 0.9025
1819.000000 0.9024 0.9023 0.9023 0.9024 0.9024
1814.000000 0.9024 0.9025 0.9025 0.9025 0.9025
1809.000000 0.9025 0.9025 0.9025 0.9025 0.9025
1804.000000 0.9025 0.9025 0.9025 0.9024 0.9024
