##TITLE=Pyrazine
##JCAMP-DX=4.24
$$ By DXEDIT 1.05 (RS McDonald)
##DATA TYPE=INFRARED SPECTRUM
##CLASS=COBLENTZ III
##ORIGIN=DOW CHEMICAL COMPANY
##OWNER=COPYRIGHT (C) 1988 by COBLENTZ SOCIETY INC.
Collection (C) 2018 copyright by the U.S. Secretary of Commerce
on behalf of the United States of America. All rights reserved.
##DATE=1965/11/12
##CAS REGISTRY NO=290-37-9
##MOLFORM=C4 H4 N2
##MP=53 C
##BP=116 C
##SOURCE REFERENCE=COBLENTZ NO. 5739
##$NIST SOURCE=COBLENTZ
##$NIST IMAGE=cob5739
##SPECTROMETER/DATA SYSTEM=BECKMAN IR-9 (GRATING)
##INSTRUMENT PARAMETERS=ORDER CHANGES: 670, 1200, 2000 CM^-^1
##STATE=SOLUTION (10% CCl4 FOR 2.6-7.5, 10% CS2 FOR 7.5-24 MICRON)
##PATH LENGTH=0.012 CM, 0.012 CM
$$SPECTRAL CONTAMINATION DUE TO CS2 AROUND 400, 850 AND CCl4 AROUND 1550 CM^-^1 HAVE BEEN SUBTRACTED
##SAMPLING PROCEDURE=TRANSMISSION
##RESOLUTION=2
##DATA PROCESSING=DIGITIZED BY COBLENTZ SOCIETY (BATCH I) FROM HARD COPY
##XUNITS=1/CM
##YUNITS=TRANSMITTANCE
##XFACTOR=1
##YFACTOR=1
##DELTAX=1
##FIRSTX=3800
##LASTX=408
##FIRSTY=0.9189
##MAXX=3800
##MINX=408
##MAXY=0.9624
##MINY=0.0002
##NPOINTS=3393
##XYDATA=(X++(Y..Y))
3800.000000 0.9189 0.9185 0.9182 0.9177 0.9179
3795.000000 0.9163 0.9168 0.9161 0.9155 0.9151
3790.000000 0.9147 0.9145 0.9144 0.9144 0.9146
3785.000000 0.9147 0.9140 0.9136 0.9138 0.9151
3780.000000 0.9158 0.9151 0.9163 0.9170 0.9174
3775.000000 0.9164 0.9181 0.9184 0.9188 0.9191
3770.000000 0.9196 0.9201 0.9206 0.9210 0.9216
3765.000000 0.9222 0.9227 0.9232 0.9237 0.9242
3760.000000 0.9255 0.9258 0.9257 0.9259 0.9264
3755.000000 0.9266 0.9269 0.9274 0.9277 0.9280
3750.000000 0.9283 0.9284 0.9284 0.9284 0.9282
3745.000000 0.9279 0.9277 0.9273 0.9269 0.9266
3740.000000 0.9265 0.9265 0.9272 0.9265 0.9260
3735.000000 0.9254 0.9242 0.9228 0.9230 0.9230
3730.000000 0.9223 0.9218 0.9212 0.9206 0.9200
3725.000000 0.9190 0.9178 0.9168 0.9160 0.9149
3720.000000 0.9139 0.9114 0.9106 0.9122 0.9126
3715.000000 0.9137 0.9149 0.9160 0.9175 0.9193
3710.000000 0.9200 0.9218 0.9228 0.9236 0.9244
3705.000000 0.9243 0.9241 0.9237 0.9236 0.9233
3700.000000 0.9231 0.9227 0.9225 0.9222 0.9208
3695.000000 0.9203 0.9201 0.9198 0.9196 0.9195
3690.000000 0.9194 0.9195 0.9197 0.9196 0.9187
3685.000000 0.9189 0.9191 0.9192 0.9194 0.9196
3680.000000 0.9199 0.9201 0.9203 0.9205 0.9206
3675.000000 0.9209 0.9211 0.9213 0.9215 0.9216
3670.000000 0.9231 0.9223 0.9223 0.9226 0.9228
3665.000000 0.9230 0.9232 0.9234 0.9236 0.9238
3660.000000 0.9240 0.9242 0.9244 0.9246 0.9248
3655.000000 0.9248 0.9248 0.9248 0.9248 0.9248
3650.000000 0.9248 0.9247 0.9247 0.9247 0.9247
3645.000000 0.9246 0.9246 0.9246 0.9246 0.9245
3640.000000 0.9245 0.9244 0.9244 0.9244 0.9244
3635.000000 0.9243 0.9243 0.9244 0.9256 0.9255
3630.000000 0.9250 0.9240 0.9244 0.9251 0.9251
3625.000000 0.9250 0.9250 0.9249 0.9248 0.9247
3620.000000 0.9247 0.9246 0.9246 0.9245 0.9244
3615.000000 0.9243 0.9243 0.9242 0.9242 0.9241
3610.000000 0.9240 0.9238 0.9226 0.9238 0.9237
3605.000000 0.9237 0.9237 0.9232 0.9227 0.9235
3600.000000 0.9230 0.9221 0.9228 0.9234 0.9234
3595.000000 0.9233 0.9233 0.9232 0.9232 0.9232
3590.000000 0.9232 0.9231 0.9231 0.9229 0.9229
3585.000000 0.9229 0.9229 0.9229 0.9229 0.9228
3580.000000 0.9228 0.9228 0.9228 0.9226 0.9222
3575.000000 0.9216 0.9225 0.9223 0.9217 0.9208
3570.000000 0.9208 0.9208 0.9208 0.9206 0.9206
3565.000000 0.9204 0.9204 0.9203 0.9203 0.9202
3560.000000 0.9202 0.9201 0.9201 0.9200 0.9200
3555.000000 0.9212 0.9198 0.9199 0.9211 0.9210
3550.000000 0.9206 0.9199 0.9209 0.9207 0.9207
3545.000000 0.9200 0.9198 0.9204 0.9204 0.9203
3540.000000 0.9194 0.9197 0.9193 0.9197 0.9201
3535.000000 0.9200 0.9199 0.9198 0.9198 0.9197
3530.000000 0.9196 0.9181 0.9181 0.9180 0.9179
3525.000000 0.9178 0.9177 0.9176 0.9176 0.9175
3520.000000 0.9173 0.9172 0.9171 0.9170 0.9170
3515.000000 0.9169 0.9168 0.9165 0.9162 0.9158
3510.000000 0.9154 0.9148 0.9144 0.9140 0.9136
3505.000000 0.9131 0.9126 0.9121 0.9117 0.9112
3500.000000 0.9106 0.9098 0.9089 0.9079 0.9070
3495.000000 0.9060 0.9050 0.9041 0.9031 0.9017
3490.000000 0.9002 0.8980 0.8959 0.8942 0.8927
3485.000000 0.8911 0.8895 0.8879 0.8862 0.8841
3480.000000 0.8821 0.8807 0.8792 0.8779 0.8768
3475.000000 0.8758 0.8748 0.8741 0.8706 0.8727
3470.000000 0.8720 0.8713 0.8706 0.8705 0.8704
3465.000000 0.8703 0.8703 0.8715 0.8726 0.8744
3460.000000 0.8764 0.8778 0.8793 0.8808 0.8824
3455.000000 0.8838 0.8854 0.8869 0.8884 0.8896
3450.000000 0.8910 0.8922 0.8936 0.8948 0.8962
3445.000000 0.8975 0.8989 0.8997 0.9004 0.9014
3440.000000 0.9022 0.9029 0.9038 0.9046 0.9053
3435.000000 0.9062 0.9070 0.9078 0.9087 0.9094
3430.000000 0.9101 0.9103 0.9106 0.9105 0.9109
3425.000000 0.9097 0.9109 0.9112 0.9113 0.9114
3420.000000 0.9116 0.9117 0.9118 0.9119 0.9120
3415.000000 0.9120 0.9120 0.9120 0.9120 0.9120
3410.000000 0.9120 0.9120 0.9120 0.9127 0.9126
3405.000000 0.9119 0.9119 0.9119 0.9119 0.9119
3400.000000 0.9119 0.9119 0.9119 0.9118 0.9117
3395.000000 0.9117 0.9116 0.9114 0.9114 0.9115
3390.000000 0.9118 0.9121 0.9124 0.9127 0.9130
3385.000000 0.9133 0.9136 0.9139 0.9142 0.9145
3380.000000 0.9148 0.9149 0.9150 0.9153 0.9155
3375.000000 0.9156 0.9157 0.9159 0.9160 0.9163
3370.000000 0.9177 0.9167 0.9168 0.9169 0.9171
3365.000000 0.9171 0.9173 0.9173 0.9174 0.9174
3360.000000 0.9174 0.9173 0.9175 0.9175 0.9176
3355.000000 0.9176 0.9177 0.9177 0.9178 0.9178
3350.000000 0.9178 0.9178 0.9179 0.9179 0.9180
3345.000000 0.9192 0.9195 0.9184 0.9197 0.9186
3340.000000 0.9188 0.9189 0.9205 0.9206 0.9206
3335.000000 0.9195 0.9197 0.9198 0.9200 0.9201
3330.000000 0.9203 0.9204 0.9208 0.9209 0.9211
3325.000000 0.9212 0.9214 0.9215 0.9216 0.9216
3320.000000 0.9216 0.9216 0.9217 0.9217 0.9218
3315.000000 0.9218 0.9218 0.9218 0.9233 0.9233
3310.000000 0.9234 0.9234 0.9232 0.9224 0.9235
3305.000000 0.9235 0.9231 0.9222 0.9223 0.9223
3300.000000 0.9223 0.9223 0.9224 0.9224 0.9225
3295.000000 0.9225 0.9226 0.9226 0.9226 0.9226
3290.000000 0.9226 0.9226 0.9226 0.9226 0.9226
3285.000000 0.9226 0.9226 0.9240 0.9238 0.9226
3280.000000 0.9228 0.9239 0.9236 0.9226 0.9230
3275.000000 0.9239 0.9239 0.9239 0.9239 0.9239
3270.000000 0.9239 0.9239 0.9239 0.9239 0.9239
3265.000000 0.9239 0.9239 0.9239 0.9239 0.9239
3260.000000 0.9239 0.9239 0.9239 0.9238 0.9225
3255.000000 0.9238 0.9238 0.9237 0.9237 0.9236
3250.000000 0.9236 0.9236 0.9236 0.9235 0.9235
3245.000000 0.9227 0.9227 0.9234 0.9234 0.9233
3240.000000 0.9233 0.9233 0.9233 0.9232 0.9232
3235.000000 0.9231 0.9231 0.9231 0.9231 0.9229
3230.000000 0.9229 0.9228 0.9228 0.9226 0.9215
3225.000000 0.9217 0.9226 0.9224 0.9224 0.9224
3220.000000 0.9224 0.9223 0.9223 0.9221 0.9221
3215.000000 0.9221 0.9221 0.9220 0.9220 0.9219
3210.000000 0.9219 0.9217 0.9205 0.9202 0.9202
3205.000000 0.9200 0.9200 0.9200 0.9200 0.9199
3200.000000 0.9201 0.9209 0.9200 0.9207 0.9200
3195.000000 0.9209 0.9208 0.9207 0.9206 0.9205
3190.000000 0.9197 0.9197 0.9202 0.9200 0.9190
3185.000000 0.9184 0.9183 0.9182 0.9181 0.9178
3180.000000 0.9177 0.9176 0.9175 0.9173 0.9172
3175.000000 0.9169 0.9167 0.9165 0.9163 0.9160
3170.000000 0.9157 0.9154 0.9152 0.9149 0.9147
3165.000000 0.9144 0.9148 0.9152 0.9143 0.9141
3160.000000 0.9145 0.9142 0.9130 0.9133 0.9124
3155.000000 0.9118 0.9126 0.9124 0.9108 0.9116
3150.000000 0.9111 0.9108 0.9090 0.9086 0.9082
3145.000000 0.9078 0.9074 0.9070 0.9065 0.9065
3140.000000 0.9071 0.9065 0.9059 0.9055 0.9050
3135.000000 0.9044 0.9039 0.9033 0.9027 0.9018
3130.000000 0.9010 0.9000 0.8992 0.8983 0.8974
3125.000000 0.8965 0.8956 0.8945 0.8933 0.8920
3120.000000 0.8906 0.8892 0.8878 0.8864 0.8850
3115.000000 0.8836 0.8823 0.8809 0.8794 0.8778
3110.000000 0.8761 0.8740 0.8720 0.8707 0.8691
3105.000000 0.8670 0.8649 0.8618 0.8588 0.8552
3100.000000 0.8527 0.8488 0.8446 0.8426 0.8406
3095.000000 0.8394 0.8369 0.8342 0.8318 0.8269
3090.000000 0.8229 0.8164 0.8104 0.8062 0.8023
3085.000000 0.7959 0.7900 0.7850 0.7799 0.7741
3080.000000 0.7683 0.7408 0.7140 0.6673 0.6197
3075.000000 0.5768 0.5346 0.5039 0.4724 0.4695
3070.000000 0.4666 0.4643 0.4633 0.2849 0.1089
3065.000000 0.1071 0.1073 0.1072 0.1074 0.1213
3060.000000 0.1352 0.1593 0.1833 0.2071 0.2309
3055.000000 0.2548 0.2789 0.3027 0.3266 0.3508
3050.000000 0.3750 0.3989 0.4229 0.4469 0.4714
3045.000000 0.4955 0.5202 0.5450 0.5700 0.5950
3040.000000 0.6202 0.6443 0.6685 0.6924 0.7155
3035.000000 0.7387 0.7626 0.7758 0.7893 0.7911
3030.000000 0.7924 0.7923 0.7928 0.7924 0.7919
3025.000000 0.7921 0.7922 0.7913 0.7904 0.7850
3020.000000 0.7797 0.7732 0.7660 0.7627 0.7584
3015.000000 0.7590 0.7594 0.7698 0.7804 0.7910
3010.000000 0.8073 0.8042 0.8069 0.8008 0.7960
3005.000000 0.7893 0.7817 0.7802 0.7785 0.7815
3000.000000 0.7852 0.7956 0.8055 0.8159 0.8263
2995.000000 0.8368 0.8472 0.8534 0.8590 0.8596
2990.000000 0.8642 0.8608 0.8613 0.8615 0.8615
2985.000000 0.8615 0.8613 0.8604 0.8595 0.8584
2980.000000 0.8577 0.8567 0.8543 0.8516 0.8500
2975.000000 0.8371 0.8241 0.7891 0.7544 0.7194
2970.000000 0.6117 0.6508 0.6168 0.6165 0.6162
2965.000000 0.6227 0.6292 0.6640 0.6989 0.7336
2960.000000 0.7685 0.8036 0.8374 0.8494 0.8627
2955.000000 0.8680 0.8737 0.8798 0.8850 0.8887
2950.000000 0.8925 0.8953 0.8983 0.8976 0.8969
2945.000000 0.8968 0.8976 0.8973 0.8977 0.8973
2940.000000 0.8980 0.8985 0.8987 0.8990 0.8993
2935.000000 0.8993 0.9006 0.9018 0.9032 0.9045
2930.000000 0.9058 0.9071 0.9084 0.9097 0.9110
2925.000000 0.9118 0.9127 0.9133 0.9133 0.9129
2920.000000 0.9135 0.9140 0.9145 0.9149 0.9168
2915.000000 0.9160 0.9165 0.9166 0.9168 0.9168
2910.000000 0.9168 0.9168 0.9180 0.9182 0.9169
2905.000000 0.9167 0.9167 0.9167 0.9168 0.9169
2900.000000 0.9170 0.9171 0.9172 0.9172 0.9173
2895.000000 0.9174 0.9175 0.9176 0.9177 0.9178
2890.000000 0.9179 0.9180 0.9182 0.9186 0.9191
2885.000000 0.9195 0.9200 0.9205 0.9209 0.9214
2880.000000 0.9219 0.9222 0.9223 0.9211 0.9224
2875.000000 0.9224 0.9224 0.9224 0.9224 0.9224
2870.000000 0.9224 0.9223 0.9223 0.9223 0.9223
2865.000000 0.9223 0.9223 0.9223 0.9223 0.9223
2860.000000 0.9223 0.9222 0.9222 0.9222 0.9222
2855.000000 0.9222 0.9210 0.9208 0.9208 0.9208
2850.000000 0.9208 0.9207 0.9207 0.9209 0.9221
2845.000000 0.9221 0.9217 0.9210 0.9219 0.9218
2840.000000 0.9211 0.9208 0.9214 0.9213 0.9206
2835.000000 0.9197 0.9196 0.9194 0.9194 0.9191
2830.000000 0.9191 0.9184 0.9158 0.9142 0.9120
2825.000000 0.9095 0.9082 0.9097 0.9087 0.9100
2820.000000 0.9103 0.9110 0.9108 0.9118 0.9127
2815.000000 0.9136 0.9147 0.9156 0.9167 0.9173
2810.000000 0.9180 0.9187 0.9201 0.9213 0.9220
2805.000000 0.9226 0.9231 0.9231 0.9231 0.9231
2800.000000 0.9231 0.9230 0.9230 0.9230 0.9230
2795.000000 0.9230 0.9230 0.9230 0.9227 0.9218
2790.000000 0.9225 0.9213 0.9212 0.9208 0.9206
2785.000000 0.9209 0.9215 0.9205 0.9194 0.9198
2780.000000 0.9203 0.9200 0.9197 0.9195 0.9193
2775.000000 0.9189 0.9186 0.9183 0.9181 0.9178
2770.000000 0.9176 0.9174 0.9172 0.9169 0.9167
2765.000000 0.9165 0.9163 0.9161 0.9160 0.9158
2760.000000 0.9155 0.9154 0.9151 0.9149 0.9147
2755.000000 0.9144 0.9143 0.9141 0.9139 0.9137
2750.000000 0.9135 0.9132 0.9130 0.9128 0.9126
2745.000000 0.9124 0.9122 0.9121 0.9121 0.9121
2740.000000 0.9122 0.9122 0.9123 0.9124 0.9125
2735.000000 0.9125 0.9126 0.9126 0.9127 0.9128
2730.000000 0.9129 0.9129 0.9130 0.9130 0.9131
2725.000000 0.9132 0.9133 0.9135 0.9137 0.9139
2720.000000 0.9142 0.9144 0.9146 0.9147 0.9150
2715.000000 0.9151 0.9154 0.9157 0.9159 0.9162
2710.000000 0.9166 0.9170 0.9175 0.9179 0.9183
2705.000000 0.9188 0.9193 0.9196 0.9202 0.9206
2700.000000 0.9212 0.9216 0.9220 0.9224 0.9229
2695.000000 0.9234 0.9239 0.9243 0.9247 0.9251
2690.000000 0.9255 0.9259 0.9263 0.9265 0.9268
2685.000000 0.9270 0.9273 0.9275 0.9278 0.9281
2680.000000 0.9284 0.9286 0.9289 0.9291 0.9294
2675.000000 0.9296 0.9299 0.9300 0.9303 0.9307
2670.000000 0.9310 0.9313 0.9316 0.9318 0.9321
2665.000000 0.9322 0.9324 0.9325 0.9326 0.9326
2660.000000 0.9327 0.9328 0.9331 0.9343 0.9345
2655.000000 0.9346 0.9347 0.9347 0.9348 0.9344
2650.000000 0.9336 0.9336 0.9343 0.9352 0.9353
2645.000000 0.9345 0.9340 0.9340 0.9351 0.9345
2640.000000 0.9341 0.9341 0.9342 0.9342 0.9342
2635.000000 0.9342 0.9357 0.9357 0.9356 0.9343
2630.000000 0.9346 0.9358 0.9358 0.9358 0.9359
2625.000000 0.9359 0.9359 0.9359 0.9360 0.9360
2620.000000 0.9361 0.9361 0.9361 0.9361 0.9362
2615.000000 0.9362 0.9362 0.9362 0.9363 0.9363
2610.000000 0.9364 0.9364 0.9364 0.9366 0.9368
2605.000000 0.9369 0.9372 0.9373 0.9376 0.9379
2600.000000 0.9382 0.9384 0.9387 0.9389 0.9391
2595.000000 0.9393 0.9396 0.9398 0.9400 0.9402
2590.000000 0.9406 0.9408 0.9410 0.9412 0.9415
2585.000000 0.9415 0.9416 0.9417 0.9418 0.9418
2580.000000 0.9418 0.9418 0.9420 0.9420 0.9421
2575.000000 0.9421 0.9423 0.9423 0.9424 0.9424
2570.000000 0.9425 0.9425 0.9427 0.9427 0.9428
2565.000000 0.9428 0.9428 0.9430 0.9431 0.9431
2560.000000 0.9432 0.9434 0.9435 0.9435 0.9436
2555.000000 0.9437 0.9438 0.9439 0.9440 0.9440
2550.000000 0.9441 0.9442 0.9443 0.9443 0.9444
2545.000000 0.9445 0.9446 0.9446 0.9447 0.9447
2540.000000 0.9448 0.9448 0.9449 0.9449 0.9449
2535.000000 0.9449 0.9449 0.9446 0.9444 0.9441
2530.000000 0.9438 0.9435 0.9433 0.9428 0.9424
2525.000000 0.9416 0.9410 0.9404 0.9397 0.9391
2520.000000 0.9385 0.9375 0.9368 0.9362 0.9354
2515.000000 0.9347 0.9339 0.9331 0.9323 0.9318
2510.000000 0.9314 0.9314 0.9315 0.9315 0.9317
2505.000000 0.9323 0.9330 0.9336 0.9344 0.9350
2500.000000 0.9356 0.9362 0.9370 0.9372 0.9375
2495.000000 0.9377 0.9378 0.9379 0.9381 0.9382
2490.000000 0.9384 0.9384 0.9384 0.9384 0.9381
2485.000000 0.9378 0.9375 0.9372 0.9367 0.9373
2480.000000 0.9376 0.9373 0.9370 0.9367 0.9365
2475.000000 0.9362 0.9360 0.9357 0.9355 0.9353
2470.000000 0.9351 0.9349 0.9347 0.9344 0.9342
2465.000000 0.9340 0.9338 0.9335 0.9333 0.9329
2460.000000 0.9328 0.9324 0.9315 0.9314 0.9315
2455.000000 0.9315 0.9322 0.9338 0.9351 0.9358
2450.000000 0.9355 0.9369 0.9378 0.9385 0.9395
2445.000000 0.9403 0.9411 0.9419 0.9427 0.9433
2440.000000 0.9443 0.9446 0.9449 0.9451 0.9453
2435.000000 0.9455 0.9459 0.9461 0.9461 0.9462
2430.000000 0.9462 0.9461 0.9461 0.9460 0.9460
2425.000000 0.9458 0.9458 0.9457 0.9456 0.9455
2420.000000 0.9455 0.9454 0.9454 0.9453 0.9453
2415.000000 0.9453 0.9453 0.9453 0.9453 0.9453
2410.000000 0.9453 0.9456 0.9462 0.9457 0.9467
2405.000000 0.9467 0.9468 0.9469 0.9470 0.9470
2400.000000 0.9471 0.9472 0.9473 0.9475 0.9478
2395.000000 0.9480 0.9482 0.9484 0.9486 0.9488
2390.000000 0.9490 0.9505 0.9507 0.9510 0.9511
2385.000000 0.9516 0.9532 0.9535 0.9544 0.9558
2380.000000 0.9562 0.9571 0.9584 0.9593 0.9604
2375.000000 0.9605 0.9614 0.9621 0.9622 0.9623
2370.000000 0.9624 0.9609 0.9601 0.9596 0.9592
2365.000000 0.9588 0.9583 0.9578 0.9575 0.9571
2360.000000 0.9581 0.9578 0.9587 0.9585 0.9596
2355.000000 0.9603 0.9598 0.9594 0.9590 0.9580
2350.000000 0.9567 0.9563 0.9565 0.9576 0.9578
2345.000000 0.9574 0.9560 0.9549 0.9544 0.9537
2340.000000 0.9532 0.9513 0.9519 0.9514 0.9495
2335.000000 0.9488 0.9497 0.9490 0.9485 0.9481
2330.000000 0.9486 0.9481 0.9475 0.9472 0.9477
2325.000000 0.9476 0.9479 0.9472 0.9464 0.9456
2320.000000 0.9447 0.9439 0.9430 0.9421 0.9413
2315.000000 0.9403 0.9396 0.9384 0.9373 0.9361
2310.000000 0.9350 0.9338 0.9326 0.9314 0.9302
2305.000000 0.9283 0.9264 0.9239 0.9215 0.9189
2300.000000 0.9162 0.9150 0.9120 0.9139 0.9135
2295.000000 0.9158 0.9183 0.9223 0.9264 0.9282
2290.000000 0.9301 0.9317 0.9326 0.9341 0.9359
2285.000000 0.9375 0.9391 0.9387 0.9395 0.9404
2280.000000 0.9412 0.9420 0.9415 0.9424 0.9430
2275.000000 0.9428 0.9436 0.9445 0.9449 0.9447
2270.000000 0.9457 0.9459 0.9460 0.9468 0.9477
2265.000000 0.9477 0.9480 0.9488 0.9497 0.9494
2260.000000 0.9497 0.9502 0.9497 0.9501 0.9506
2255.000000 0.9513 0.9506 0.9511 0.9517 0.9522
2250.000000 0.9516 0.9521 0.9526 0.9533 0.9540
2245.000000 0.9537 0.9531 0.9532 0.9533 0.9534
2240.000000 0.9535 0.9536 0.9537 0.9538 0.9539
2235.000000 0.9530 0.9527 0.9528 0.9529 0.9530
2230.000000 0.9531 0.9532 0.9533 0.9534 0.9534
2225.000000 0.9534 0.9533 0.9532 0.9524 0.9514
2220.000000 0.9515 0.9514 0.9512 0.9511 0.9510
2215.000000 0.9509 0.9509 0.9508 0.9507 0.9506
2210.000000 0.9505 0.9504 0.9503 0.9502 0.9501
2205.000000 0.9500 0.9499 0.9498 0.9496 0.9495
2200.000000 0.9495 0.9494 0.9493 0.9492 0.9490
2195.000000 0.9478 0.9490 0.9487 0.9476 0.9475
2190.000000 0.9475 0.9475 0.9475 0.9473 0.9473
2185.000000 0.9473 0.9481 0.9477 0.9471 0.9470
2180.000000 0.9470 0.9468 0.9479 0.9482 0.9482
2175.000000 0.9481 0.9481 0.9479 0.9479 0.9479
2170.000000 0.9479 0.9477 0.9464 0.9464 0.9464
2165.000000 0.9463 0.9463 0.9462 0.9462 0.9462
2160.000000 0.9462 0.9461 0.9461 0.9460 0.9460
2155.000000 0.9460 0.9460 0.9459 0.9458 0.9457
2150.000000 0.9457 0.9457 0.9457 0.9456 0.9456
2145.000000 0.9455 0.9455 0.9455 0.9455 0.9454
2140.000000 0.9454 0.9453 0.9453 0.9452 0.9452
2135.000000 0.9451 0.9450 0.9449 0.9448 0.9447
2130.000000 0.9446 0.9445 0.9443 0.9442 0.9441
2125.000000 0.9439 0.9438 0.9437 0.9424 0.9432
2120.000000 0.9432 0.9430 0.9428 0.9425 0.9422
2115.000000 0.9421 0.9419 0.9415 0.9414 0.9412
2110.000000 0.9410 0.9405 0.9402 0.9397 0.9393
2105.000000 0.9388 0.9383 0.9378 0.9374 0.9369
2100.000000 0.9364 0.9359 0.9345 0.9336 0.9343
2095.000000 0.9339 0.9321 0.9325 0.9320 0.9314
2090.000000 0.9309 0.9301 0.9294 0.9282 0.9272
2085.000000 0.9260 0.9250 0.9238 0.9228 0.9216
2080.000000 0.9205 0.9194 0.9183 0.9171 0.9159
2075.000000 0.9148 0.9136 0.9125 0.9113 0.9110
2070.000000 0.9107 0.9115 0.9125 0.9147 0.9169
2065.000000 0.9199 0.9230 0.9251 0.9273 0.9289
2060.000000 0.9306 0.9317 0.9329 0.9336 0.9350
2055.000000 0.9355 0.9359 0.9362 0.9360 0.9362
2050.000000 0.9372 0.9365 0.9361 0.9362 0.9362
2045.000000 0.9362 0.9364 0.9365 0.9366 0.9366
2040.000000 0.9368 0.9369 0.9369 0.9369 0.9371
2035.000000 0.9372 0.9373 0.9373 0.9374 0.9374
2030.000000 0.9373 0.9372 0.9375 0.9378 0.9369
2025.000000 0.9373 0.9379 0.9379 0.9378 0.9377
2020.000000 0.9375 0.9375 0.9374 0.9372 0.9372
2015.000000 0.9370 0.9368 0.9365 0.9361 0.9357
2010.000000 0.9354 0.9345 0.9335 0.9321 0.9309
2005.000000 0.9290 0.9272 0.9255 0.9238 0.9239
2000.000000 0.9241 0.9252 0.9253 0.9247 0.9248
1995.000000 0.9248 0.9249 0.9248 0.9245 0.9245
1990.000000 0.9244 0.9243 0.9243 0.9242 0.9229
1985.000000 0.9226 0.9223 0.9220 0.9217 0.9214
1980.000000 0.9211 0.9206 0.9192 0.9188 0.9185
1975.000000 0.9182 0.9180 0.9176 0.9173 0.9170
1970.000000 0.9167 0.9165 0.9162 0.9162 0.9171
1965.000000 0.9148 0.9136 0.9133 0.9119 0.9099
1960.000000 0.9080 0.9061 0.9032 0.8995 0.8959
1955.000000 0.8914 0.8847 0.8794 0.8685 0.8562
1950.000000 0.8438 0.8219 0.8034 0.7847 0.7661
1945.000000 0.7475 0.7323 0.7275 0.7350 0.7504
1940.000000 0.7656 0.7808 0.7960 0.8114 0.8267
1935.000000 0.8420 0.8562 0.8692 0.8793 0.8890
1930.000000 0.8967 0.9029 0.9074 0.9097 0.9117
1925.000000 0.9137 0.9156 0.9169 0.9176 0.9173
1920.000000 0.9138 0.9168 0.9164 0.9156 0.9146
1915.000000 0.9135 0.9125 0.9113 0.9103 0.9085
1910.000000 0.9067 0.9048 0.9019 0.8991 0.8955
1905.000000 0.8906 0.8855 0.8803 0.8649 0.8520
1900.000000 0.8390 0.8263 0.8257 0.8253 0.8290
1895.000000 0.8357 0.8508 0.8618 0.8715 0.8797
1890.000000 0.8872 0.8947 0.9029 0.9077 0.9078
1885.000000 0.9081 0.9092 0.9097 0.9095 0.9094
1880.000000 0.9085 0.9055 0.9018 0.8982 0.8952
1875.000000 0.8950 0.8947 0.8956 0.8975 0.9002
1870.000000 0.9053 0.9116 0.9151 0.9176 0.9190
1865.000000 0.9202 0.9203 0.9204 0.9203 0.9204
1860.000000 0.9205 0.9205 0.9206 0.9210 0.9200
1855.000000 0.9188 0.9178 0.9180 0.9184 0.9188
1850.000000 0.9191 0.9195 0.9200 0.9206 0.9211
1845.000000 0.9216 0.9215 0.9214 0.9213 0.9212
1840.000000 0.9215 0.9217 0.9222 0.9229 0.9230
1835.000000 0.9226 0.9234 0.9240 0.9246 0.9252
1830.000000 0.9259 0.9262 0.9264 0.9266 0.9269
1825.000000 0.9271 0.9273 0.9275 0.9275 0.9275
1820.000000 0.9275 0.9289 0.9289 0.9289 0.9285
1815.000000 0.9281 0.9276 0.9272 0.9268 0.9264
1810.000000 0.9260 0.9251 0.9238 0.9233 0.9232
1805.000000 0.9229 0.9218 0.9219 0.9227 0.9234
1800.000000 0.9239 0.9242 0.9245 0.9249 0.9251
