##TITLE=Cyclobutanol
##JCAMP-DX=4.24
##DATA TYPE=INFRARED SPECTRUM
##ORIGIN=EPA-IR VAPOR PHASE LIBRARY
##OWNER=SRD/NIST
Collection (C) 2018 copyright by the U.S. Secretary of Commerce
on behalf of the United States of America. All rights reserved.
##CAS REGISTRY NO=2919-23-5
##MOLFORM=C 4 H 8 O
##$NIST SOURCE=MSDC-IR
##STATE=gas
##XUNITS=1/CM
##YUNITS=ABSORBANCE
##XFACTOR=1.
##YFACTOR=0.001
##DELTAX=1.92898
##FIRSTX=549.8
##LASTX=4000.7
##FIRSTY=2.1257
##MAXX=4000.7
##MINX=549.759
##MAXY=0.139816
##MINY=0
##NPOINTS=1790
##XYDATA=(X++(Y..Y))
549.759 2.1257 2.1957 2.3857 2.3357 2.2657 2.2757 2.1457 1.9557 1.8257 1.7857
569.049 1.8257 2.0057 2.0557 2.1657 2.5757 2.7557 2.5457 2.5057 2.8957 3.2257
588.339 3.1657 2.8257 2.6557 2.7157 2.7957 2.8057 3.2857 3.6557 3.5557 3.4757
607.628 3.3657 3.2557 3.3757 3.6957 3.7657 3.7357 3.6857 3.2157 2.9457 2.9557
626.918 2.7157 2.4857 2.5057 2.4957 2.4257 2.3757 2.2457 2.0857 2.0157 2.0157
646.208 2.0557 2.0157 1.8857 1.9557 1.7957 1.6357 1.4757 1.4757 1.6257 1.6157
665.498 1.6657 1.5557 1.4657 1.5257 1.6457 1.7157 1.7357 1.6357 1.5857 1.6857
684.787 1.5257 1.4157 1.6057 1.6257 1.6357 1.6957 1.6457 1.4657 1.4057 1.6157
704.077 1.8157 1.9757 1.8857 1.8857 2.0057 1.7857 1.7457 1.8257 1.8957 1.9657
723.367 1.9657 1.9957 1.9457 2.0757 2.2557 2.3157 2.4357 2.5257 2.7057 2.8057
742.657 2.8757 2.9357 2.9157 3.0357 3.1057 3.0857 2.8957 2.8057 2.8357 2.7757
761.947 2.7257 2.7457 2.7357 2.6357 2.5757 2.6057 2.5657 2.5157 2.5357 2.4857
781.236 2.3657 2.3157 2.3657 2.3557 2.3857 2.4357 2.3757 2.0757 2.0657 2.2757
800.526 2.2557 1.9957 1.9557 2.0157 1.9257 2.0357 2.1357 2.1257 2.0657 2.0057
819.816 2.0357 2.0357 1.9357 1.8957 1.6857 1.6557 1.7357 1.8357 1.9057 2.0157
839.106 2.1557 2.1757 2.1457 2.0357 1.9957 2.1157 2.2557 2.1957 2.2257 2.3357
858.395 2.4557 2.5757 2.5857 2.7357 2.8157 2.8957 3.0157 3.0857 3.2957 3.4757
877.685 3.6057 3.6857 3.5457 3.6157 3.8057 3.8557 4.1657 4.4357 4.5057 4.7657
896.975 5.1657 5.3957 5.6657 5.9557 6.1957 6.6457 6.9657 7.4757 8.0657 8.4757
916.265 8.9457 9.2757 9.6757 10.0557 10.3757 10.7857 11.2657 11.8757 12.4957 13.1757
935.555 13.9357 14.4557 15.0357 15.5557 15.7757 15.7657 15.4957 15.0657 14.6757 14.2157
954.844 13.8357 13.8757 13.8957 13.6957 13.1357 11.8357 10.6257 10.2457 10.3257 10.4057
974.134 9.9557 9.2657 8.7657 8.0457 7.2757 6.8057 6.4757 6.2457 6.1057 5.9357
993.424 6.1457 6.5257 6.8157 7.2557 7.6857 8.0957 8.4157 8.8657 9.6757 10.2357
1012.714 10.6657 11.2957 11.8557 12.7357 13.6257 13.9257 14.2257 14.8257 15.5857 16.3457
1032.003 17.3457 18.3457 18.9457 19.6457 20.6857 22.0357 23.4357 24.5857 25.9557 27.4457
1051.293 29.3857 31.3057 32.8557 34.7757 36.3057 37.8157 39.6257 41.5457 43.7057 46.0657
1070.583 48.3557 49.8157 50.1157 51.0857 53.2857 54.8957 56.4857 58.4057 59.8157 61.1457
1089.873 62.2057 62.7857 63.9157 65.3457 66.4957 67.7157 68.4057 68.3657 68.0357 67.8357
1109.163 67.2257 66.2757 65.5857 65.2257 64.7957 63.4657 61.1457 58.1757 56.7557 56.8857
1128.452 56.3057 54.5157 51.3757 47.6457 44.0657 40.6757 37.5457 34.3157 31.2957 29.1557
1147.742 27.0557 24.3757 21.9557 20.0957 18.6657 17.1557 15.7157 14.9657 14.3957 13.7757
1167.032 13.2657 12.8157 12.5157 12.4157 12.2757 12.0857 12.2157 12.5357 12.5657 12.6857
1186.322 13.0057 13.0157 13.2657 13.5757 13.7357 13.8557 13.8757 14.0957 14.7557 15.2657
1205.611 15.6857 16.5757 17.6757 19.2757 20.9857 22.0557 23.4157 24.9757 26.4357 27.9357
1224.901 28.5057 28.7357 29.2957 29.6457 29.6857 30.0057 30.4857 30.6357 30.5457 29.9857
1244.191 29.2657 28.9557 29.1257 29.3257 28.8757 27.9657 26.8757 25.7357 24.4557 23.1657
1263.481 21.9957 20.7857 19.7957 18.9957 18.5357 18.2257 17.9757 17.7257 17.7057 17.6757
1282.771 17.3657 17.2657 17.1957 17.0857 16.9957 16.8857 16.6657 16.2857 15.8557 15.5057
1302.060 15.2557 15.0257 14.8257 14.4357 14.0057 13.7157 13.4157 13.2057 13.0257 12.7357
1321.350 12.5057 12.3057 12.0357 11.7857 11.6757 11.5957 11.5057 11.4357 11.4557 11.5857
1340.640 11.7257 11.9657 12.2857 12.5957 12.8857 13.2257 13.6357 13.9657 14.2857 14.7157
1359.930 15.1757 15.6257 16.1657 16.7857 17.4157 18.0557 18.5957 19.1157 19.6057 20.0457
1379.219 20.3557 20.4357 20.4057 20.2757 19.9157 19.4857 19.1457 19.4257 19.3757 18.0657
1398.509 17.1157 16.6757 16.2857 15.9657 15.5357 14.9757 14.3057 13.5557 12.8257 12.1557
1417.799 11.4957 10.8357 10.3157 9.9557 9.5557 9.2157 8.9657 8.7457 8.5857 8.3357
1437.089 8.0057 7.8757 8.1157 8.5257 9.0157 9.7657 10.6857 11.2457 10.4757 9.2857
1456.378 8.9357 8.7357 8.5057 8.3557 8.2057 8.1357 8.1757 8.0057 7.4457 6.7357
1475.668 6.2857 6.0957 5.9057 5.6657 5.2957 4.8857 4.4457 3.9657 3.5157 3.1157
1494.958 2.7957 2.5757 2.4057 2.1357 1.9557 1.8757 1.7257 1.6357 1.5657 1.5257
1514.248 1.4857 1.4057 1.3757 1.4257 1.4157 1.3757 1.3757 1.3357 1.2857 1.1957
1533.538 1.1157 1.1657 1.1757 1.0712 1.0497 1.1157 1.1257 1.1457 1.1557 1.1457
1552.827 1.1057 1.0957 1.2057 1.2057 1.1657 1.1657 1.1557 1.1657 1.1857 1.1257
1572.117 1.008 0.9729 1.0717 1.0679 0.9843 0.9595 0.9208 0.9591 0.9943 0.9963
1591.407 0.9741 0.8883 0.8771 0.865 0.8307 0.8402 0.8719 0.8582 0.8394 0.8239
1610.697 0.7248 0.7255 0.7065 0.6972 0.8167 0.8305 0.8154 0.8046 0.7544 0.7849
1629.986 0.707 0.5733 0.5603 0.6365 0.6586 0.6583 0.694 0.6576 0.7228 0.7449
1649.276 0.657 0.6783 0.7533 0.7008 0.7054 0.7299 0.7338 0.7705 0.7435 0.7641
1668.566 0.8073 0.8222 0.8917 0.8529 0.8205 0.899 0.944 0.9783 1.0094 0.9913
1687.856 0.9685 1.0264 1.0407 1.0096 0.9819 0.9932 1.0297 1.1057 1.1757 1.1157
1707.146 1.0857 1.1757 1.2357 1.1557 1.1057 1.1357 1.0957 1.0664 1.1057 1.1057
1726.435 1.1057 1.0857 1.0461 1.0497 1.0198 1.013 0.9953 0.9295 0.9229 0.9195
1745.725 0.8772 0.8138 0.8046 0.8472 0.8454 0.8226 0.7607 0.7185 0.7368 0.7357
1765.015 0.7017 0.6874 0.6609 0.635 0.5991 0.5436 0.5563 0.5811 0.616 0.606
1784.305 0.5547 0.5796 0.5993 0.6136 0.6334 0.6177 0.6006 0.6249 0.6626 0.6768
1803.594 0.6908 0.7513 0.7888 0.7484 0.8012 0.8697 0.8868 0.9266 0.956 1.0146
1822.884 1.0957 1.1257 1.1357 1.1557 1.1757 1.1857 1.1957 1.2457 1.2657 1.2757
1842.174 1.2757 1.2957 1.3057 1.2757 1.3057 1.2857 1.2557 1.2557 1.2357 1.1357
1861.464 1.0418 1.028 1.0635 1.1157 1.0757 1.0262 0.9935 0.9791 0.9818 0.9291
1880.754 0.9061 0.9225 0.9088 0.8693 0.89 0.8649 0.771 0.7953 0.7958 0.7355
1900.043 0.7463 0.7808 0.782 0.7749 0.7548 0.7772 0.8248 0.8205 0.7865 0.7531
1919.333 0.7196 0.6721 0.6639 0.6684 0.7265 0.7559 0.7032 0.6788 0.7096 0.7134
1938.623 0.6531 0.6257 0.6195 0.7007 0.6839 0.6378 0.6493 0.6254 0.6408 0.6574
1957.913 0.6668 0.6613 0.6924 0.6775 0.6011 0.5918 0.5864 0.5539 0.584 0.6229
1977.202 0.6296 0.6909 0.6725 0.6737 0.7185 0.6382 0.6532 0.6364 0.618 0.6882
1996.492 0.6756 0.6878 0.6608 0.656 0.6823 0.6482 0.6468 0.633 0.6173 0.6088
2015.782 0.6393 0.7098 0.728 0.753 0.7576 0.7699 0.7559 0.793 0.8894 0.9101
2035.072 0.8604 0.7978 0.8033 0.8669 0.9248 0.9566 1.0108 1.0309 1.0236 1.0209
2054.362 1.0209 1.0492 1.1257 1.1157 1.1357 1.1857 1.1457 1.1357 1.1157 1.0234
2073.651 1.0356 1.0599 1.0362 1.0757 1.0658 1.0616 1.0651 1.0757 1.0857 1.0857
2092.941 1.0857 1.0251 1.0286 1.0211 1.0083 0.9589 0.9609 1.0081 1.0315 1.1057
2112.231 1.1657 1.1457 1.1257 1.2257 1.2857 1.3057 1.3157 1.2957 1.2857 1.3357
2131.521 1.3957 1.4357 1.4457 1.4257 1.4457 1.4657 1.4257 1.3557 1.3257 1.3557
2150.810 1.3857 1.3957 1.3757 1.3357 1.2957 1.3057 1.3057 1.2657 1.2957 1.3057
2170.100 1.3357 1.3757 1.3257 1.3257 1.3657 1.3457 1.3357 1.2757 1.3257 1.3957
2189.390 1.3757 1.4457 1.4657 1.4157 1.4257 1.5157 1.4757 1.3857 1.3657 1.3357
2208.680 1.3957 1.4457 1.4757 1.4557 1.3857 1.4057 1.3757 1.3057 1.2257 1.1557
2227.970 1.1557 1.1557 1.1457 1.1457 1.0857 0.9826 0.8803 0.8903 0.8864 0.8868
2247.259 0.8988 0.8486 0.8399 0.8663 0.8339 0.6805 0.6215 0.6637 0.696 0.6671
2266.549 0.6067 0.6591 0.7376 0.7224 0.6071 0.5848 0.656 0.6598 0.6787 0.6556
2285.839 0.5727 0.5657 0.5713 0.5636 0.5994 0.6422 0.6563 0.6505 0.6949 0.7048
2305.129 0.5899 0.5168 0.5639 0.5569 0.591 0.6071 0.5836 0.6634 0.6123 0.5763
2324.418 0.5783 0.6113 0.6515 0.6049 0.689 0.7196 0.6424 0.6449 0.6694 0.6701
2343.708 0.6891 0.6741 0.7385 0.8293 0.7753 0.6973 0.7806 0.8109 0.7328 0.7969
2362.998 0.804 0.7413 0.706 0.8162 0.8715 0.7223 0.7021 0.7702 0.7783 0.7611
2382.288 0.772 0.7862 0.7409 0.6921 0.7389 0.7976 0.7559 0.725 0.7103 0.6479
2401.578 0.6794 0.6553 0.6274 0.6716 0.6458 0.6701 0.6905 0.6777 0.6677 0.6688
2420.867 0.6332 0.6483 0.6841 0.5858 0.5844 0.6491 0.6651 0.7178 0.6994 0.6602
2440.157 0.6431 0.6712 0.7144 0.7 0.6951 0.6879 0.6986 0.6964 0.6372 0.6531
2459.447 0.7214 0.7331 0.7133 0.6825 0.7028 0.7269 0.6643 0.5766 0.6203 0.6224
2478.737 0.616 0.6135 0.5325 0.5672 0.6236 0.6253 0.5593 0.4645 0.5578 0.6589
2498.026 0.6284 0.6396 0.5907 0.5323 0.5565 0.5649 0.534 0.5742 0.6234 0.5923
2517.316 0.5654 0.6064 0.632 0.5961 0.552 0.525 0.616 0.6589 0.5991 0.6336
2536.606 0.6807 0.6758 0.6266 0.6071 0.6351 0.6592 0.6634 0.7302 0.8002 0.69
2555.896 0.6059 0.6156 0.6371 0.635 0.7036 0.6995 0.6632 0.7588 0.7178 0.6213
2575.186 0.6788 0.7183 0.6972 0.6394 0.5738 0.6173 0.6648 0.656 0.7023 0.7443
2594.475 0.6962 0.6308 0.5965 0.629 0.619 0.5624 0.558 0.5458 0.6379 0.7151
2613.765 0.6457 0.709 0.7112 0.6504 0.6509 0.6311 0.6485 0.6813 0.7112 0.7234
2633.055 0.7753 0.8065 0.7996 0.8154 0.7713 0.8023 0.925 0.9621 0.9592 0.9323
2652.345 0.8544 0.7859 0.8227 0.9078 0.9609 0.956 0.9363 0.9935 1.0957 1.0564
2671.634 1.0757 1.1157 1.0597 1.1457 1.2657 1.3157 1.2257 1.1757 1.2157 1.3057
2690.924 1.2557 1.1457 1.1957 1.2557 1.3857 1.3957 1.3457 1.3757 1.3357 1.3057
2710.214 1.3657 1.3957 1.4857 1.5957 1.4657 1.4157 1.4157 1.3857 1.4457 1.4157
2729.504 1.4057 1.4157 1.4757 1.4557 1.4157 1.5357 1.4857 1.3157 1.3057 1.3357
2748.794 1.3457 1.4157 1.5157 1.4657 1.4657 1.5757 1.4557 1.3857 1.4457 1.5357
2768.083 1.5957 1.4757 1.4457 1.5857 1.6257 1.6257 1.5957 1.5157 1.5657 1.6457
2787.373 1.7157 1.6557 1.6757 1.7957 1.8257 1.7857 1.7057 1.8757 2.0957 2.2157
2806.663 2.2857 2.2957 2.4057 2.5257 2.7357 3.0357 3.2657 3.5157 3.7657 4.0457
2825.953 4.4557 4.7757 5.1457 5.6957 6.2457 6.6757 7.1357 7.8757 8.6157 9.2857
2845.242 10.1457 11.0657 11.9557 12.9357 14.1257 15.3957 16.5157 17.8257 19.2757 20.6357
2864.532 21.9257 22.8357 23.5657 24.4957 25.8157 27.4257 28.9857 30.3757 31.6157 32.9257
2883.822 34.4157 35.8357 36.7557 37.0657 37.4957 38.6157 40.2257 41.8857 43.2757 44.5857
2903.112 45.8057 46.6857 47.4257 47.9057 48.1857 48.4557 48.8157 49.5857 50.7057 52.0257
2922.401 53.3957 54.8657 56.5157 58.0957 59.6557 61.1957 62.6457 64.2857 66.0757 67.7457
2941.691 69.6357 71.7557 74.1957 77.0357 79.9257 82.8557 86.2257 89.9357 93.6857 97.4557
2960.981 100.896 103.726 105.566 106.506 107.116 106.706 104.956 102.896 101.386 101.226
2980.271 101.666 101.096 100.976 103.866 111.626 126.926 139.816 121.116 89.0957 74.9757
2999.561 69.0057 63.7857 59.1257 54.7757 50.6157 46.6757 43.2657 39.9557 36.5057 33.0257
3018.850 29.5957 26.1957 23.0457 20.0557 17.2157 14.6357 12.4157 10.3057 8.6157 7.4257
3038.140 6.4157 5.4957 4.8057 4.3657 3.9257 3.7557 3.5657 3.2957 3.2157 3.1057
3057.430 3.0157 2.8657 2.8557 2.8357 2.6557 2.6257 2.4557 2.2557 2.2257 2.2757
3076.720 2.3157 2.2557 2.2057 2.1357 2.0257 2.0457 1.9757 1.7557 1.6957 1.7057
3096.009 1.6757 1.5557 1.5257 1.5357 1.4057 1.3857 1.4257 1.4357 1.4357 1.3557
3115.299 1.1957 1.2257 1.3357 1.1457 1.0607 1.1457 1.1157 1.1157 1.0644 0.9008
3134.589 0.8363 0.8449 1.0221 1.0857 0.9939 0.9426 0.8196 0.7494 0.8792 0.9212
3153.879 0.8864 0.7915 0.7206 0.8088 0.743 0.649 0.6244 0.4979 0.497 0.6163
3173.169 0.5392 0.447 0.4572 0.3195 0.2742 0.2568 0.1911 0.2274 0.2512 0.3565
3192.458 0.3746 0.4422 0.4022 0.2416 0.2296 0.254 0.2595 0.2626 0.3134 0.14802
3211.748 0.0522 0.1858 0.2378 0.3284 0.3403 0.2213 0.15461 0.16486 0.11621 0.12232
3231.038 0.2432 0.3285 0.3142 0.2621 0.10273 0 0.16735 0.2151 0.15025 0.2038
3250.328 0.16814 0.2717 0.3296 0.2529 0.3503 0.245 0.2742 0.2044 0.080071 0.16286
3269.617 0.078391 0.2181 0.2907 0.16612 0.1713 0.16851 0.3386 0.4558 0.3482 0.303
3288.907 0.22 0.2872 0.4391 0.4725 0.4382 0.3218 0.3735 0.6585 0.6193 0.4784
3308.197 0.4399 0.3515 0.3331 0.2723 0.17234 0.0131 0.0756644 0.232 0.424 0.4951
3327.487 0.4917 0.4451 0.405 0.5443 0.5697 0.5445 0.525 0.5051 0.493 0.4306
3346.777 0.3359 0.3598 0.3169 0.2789 0.3411 0.4341 0.3799 0.335 0.3929 0.4463
3366.066 0.5811 0.6083 0.3577 0.3798 0.5352 0.489 0.6107 0.6241 0.617 0.6294
3385.356 0.5806 0.6322 0.7543 0.834 0.705 0.6031 0.8573 0.9636 0.8374 0.8482
3404.646 0.8377 0.6596 0.6236 0.7732 0.8055 0.9204 0.9242 0.8622 1.0857 1.1657
3423.936 1.1057 1.1257 0.9843 1.0857 1.1857 1.0026 0.9837 0.9666 0.946 0.9423
3443.225 1.032 1.1557 1.0018 0.9131 0.96 0.9352 0.9916 0.9092 0.7841 0.8413
3462.515 0.8884 0.946 0.8164 0.9175 1.1657 0.9951 1.0262 1.0093 0.888 1.0118
3481.805 1.0342 1.026 1.1357 1.0146 1.0297 1.2257 1.0857 1.0214 0.9707 0.9229
3501.095 1.0518 1.0469 0.9626 0.8852 0.8098 0.7824 0.8146 0.8749 0.8642 0.9567
3520.385 0.9134 0.8771 0.9882 0.7355 0.659 0.7176 0.7753 0.9042 0.9196 0.6906
3539.674 0.4962 0.7237 0.8217 0.7217 0.6415 0.6057 0.7429 0.804 0.7009 0.8251
3558.964 0.9328 0.8863 0.6397 0.698 0.9549 0.9432 0.9631 0.9742 1.0194 1.2257
3578.254 1.1957 0.9355 0.9719 1.1157 1.1457 1.0618 1.0407 1.3857 1.5157 1.3757
3597.544 1.5757 1.7157 1.7657 1.7657 1.8857 2.1257 2.2557 2.5157 2.7657 2.9957
3616.833 3.1857 3.4757 4.0657 4.6657 5.1157 5.8257 6.7557 7.5057 8.3957 9.2857
3636.123 10.3257 11.5157 13.0157 14.8457 15.2157 14.5257 14.4757 14.8557 15.3457 15.4557
3655.413 15.5857 15.9057 15.6457 14.9357 14.3357 14.0757 13.6257 13.0357 12.4857 11.8757
3674.703 11.0457 10.2157 9.3157 8.0257 6.8857 5.9057 4.8457 3.9557 3.3057 2.8457
3693.993 2.6557 2.3057 1.9357 1.7757 1.5757 1.3757 1.3657 1.3757 1.2757 1.2857
3713.282 1.1957 1.1757 1.2157 1.2257 1.2357 1.0672 1.2157 1.2757 0.9348 0.9797
3732.572 0.9889 0.9628 1.1157 1.0616 1.0257 0.8519 0.6664 0.7705 0.6904 0.7724
3751.862 1.0374 0.8396 0.7538 0.9024 0.9537 0.8866 0.8945 0.896 0.8467 0.817
3771.152 0.6986 0.8277 0.8 0.7533 0.9013 1.0028 1.0111 0.7511 0.9006 1.1257
3790.441 1.0643 1.0672 1.0164 1.0081 1.0522 1.0857 1.0622 1.0857 1.0631 1.024
3809.731 1.0304 1.1757 1.3257 1.1357 0.979 1.0957 1.0857 0.9781 1.1057 1.2557
3829.021 1.3957 1.3257 1.2157 1.1757 0.9521 1.2757 1.5757 1.2357 1.1157 1.3657
3848.311 1.6057 1.4857 1.2957 1.2157 1.1457 1.2357 1.2157 1.3057 1.2357 1.0403
3867.601 1.1757 1.0524 0.8744 1.1057 1.1757 1.0575 1.0957 1.0857 1.1157 1.2057
3886.890 1.2257 1.0857 0.9635 1.0957 1.1457 0.9113 0.7484 0.8877 1.0149 0.9031
3906.180 0.8007 0.846 0.7432 0.7174 0.8708 0.9447 0.9078 0.8949 0.7844 0.7602
3925.470 0.7612 0.8835 0.957 0.8675 0.7725 0.4887 0.332 0.4657 0.5086 0.3926
3944.760 0.4428 0.5866 0.6735 0.5687 0.5695 0.5708 0.6102 0.6244 0.5277 0.3058
3964.049 0.3211 0.4962 0.4144 0.5136 0.593 0.3584 0.3078 0.4096 0.5488 0.7343
3983.339 0.576 0.4476 0.3908 0.3151 0.3187 0.3671 0.5628 0.5431 0.3498 0.5059
##END=
