##TITLE=3,3-Dichloro-2-propene-1-ol
##JCAMP-DX=4.24
##DATA TYPE=INFRARED SPECTRUM
##CLASS=COBLENTZ III
##ORIGIN=DOW CORNING CORP.
##OWNER=Copyright (C) 1987 by the Coblentz Society
Collection (C) 2018 copyright by the U.S. Secretary of Commerce
on behalf of the United States of America. All rights reserved.
##DATE=1968/10/15
##NAMES=3,3-dichloro-2-propen-1-ol
##CAS REGISTRY NO=3039-55-2
##MOLFORM=C3 H4 Cl2 O
##SOURCE REFERENCE=COBLENTZ NO. 6217
##$NIST SOURCE=COBLENTZ
##$NIST IMAGE=cob6217
##SPECTROMETER/DATA SYSTEM=PERKIN-ELMER 521 (GRATING)
##INSTRUMENT PARAMETERS=FILTERS AT 3150, 2500, 2000, 1150, 700, 410. GRATING CHANGES: 2000, 630
##STATE=SOLUTION (10% CCl4 FOR 3800-1300, 11% CS2 FOR 1300-630, AND 10% CCl4 FOR 630-250) VS SOLVENT
##PATH LENGTH=0.012 CM, 0.010 CM, AND 0.010 CM
##RESOLUTION=2
##DATA PROCESSING=(ADJUSTED \subtractcm-1\only3600\)
##XUNITS=1/CM
##YUNITS=TRANSMITTANCE
##XFACTOR=1.0
##YFACTOR=1
##DELTAX=0.981772
##FIRSTX=250
##LASTX=3760.82
##FIRSTY=0.7341
##MAXX=3760.82
##MINX=250
##MAXY=0.946497
##MINY=0
##NPOINTS=3577
##XYDATA=(X++(Y..Y))
250.000000 0.7341 0.7343 0.7344 0.7345 0.7346
254.908862 0.7346 0.7344 0.7341 0.7337 0.7329
259.817724 0.7321 0.7313 0.7305 0.7296 0.7286
264.726587 0.7275 0.7266 0.7256 0.7248 0.7242
269.635449 0.7238 0.7235 0.7231 0.7227 0.7224
274.544311 0.7221 0.7218 0.7215 0.7213 0.7210
279.453173 0.7207 0.7208 0.7215 0.7228 0.7241
284.362035 0.7254 0.7270 0.7287 0.7303 0.7320
289.270897 0.7337 0.7353 0.7369 0.7386 0.7402
294.179760 0.7419 0.7435 0.7451 0.7468 0.7484
299.088622 0.7500 0.7516 0.7534 0.7551 0.7568
303.997484 0.7586 0.7603 0.7620 0.7638 0.7652
308.906346 0.7666 0.7679 0.7692 0.7705 0.7718
313.815208 0.7730 0.7741 0.7752 0.7764 0.7775
318.724070 0.7787 0.7798 0.7810 0.7821 0.7833
323.632933 0.7844 0.7854 0.7865 0.7875 0.7886
328.541795 0.7897 0.7907 0.7915 0.7923 0.7931
333.450657 0.7939 0.7946 0.7953 0.7957 0.7960
338.359519 0.7963 0.7966 0.7969 0.7972 0.7975
343.268381 0.7978 0.7980 0.7983 0.7985 0.7986
348.177244 0.7989 0.7991 0.7993 0.7995 0.7997
353.086106 0.7998 0.7999 0.7999 0.7999 0.8000
357.994968 0.8000 0.7997 0.7993 0.7989 0.7985
362.903830 0.7982 0.7978 0.7973 0.7965 0.7958
367.812692 0.7951 0.7943 0.7936 0.7924 0.7911
372.721554 0.7899 0.7887 0.7873 0.7859 0.7844
377.630417 0.7830 0.7815 0.7800 0.7785 0.7771
382.539279 0.7756 0.7741 0.7725 0.7711 0.7696
387.448141 0.7680 0.7665 0.7648 0.7627 0.7606
392.357003 0.7588 0.7578 0.7567 0.7557 0.7549
397.265865 0.7544 0.7542 0.7541 0.7540 0.7542
402.174727 0.7550 0.7561 0.7582 0.7605 0.7632
407.083590 0.7674 0.7696 0.7703 0.7706 0.7706
411.992452 0.7702 0.7714 0.7693 0.7685 0.7676
416.901314 0.7665 0.7653 0.7635 0.7616 0.7597
421.810176 0.7573 0.7548 0.7523 0.7497 0.7468
426.719038 0.7438 0.7408 0.7376 0.7345 0.7314
431.627900 0.7284 0.7254 0.7224 0.7197 0.7172
436.536763 0.7150 0.7133 0.7118 0.7103 0.7090
441.445625 0.7084 0.7085 0.7085 0.7083 0.7084
446.354487 0.7098 0.7109 0.7118 0.7125 0.7134
451.263349 0.7145 0.7157 0.7170 0.7190 0.7212
456.172211 0.7235 0.7257 0.7282 0.7313 0.7345
461.081074 0.7380 0.7411 0.7435 0.7459 0.7480
465.989936 0.7495 0.7511 0.7521 0.7526 0.7530
470.898798 0.7530 0.7529 0.7535 0.7528 0.7524
475.807660 0.7522 0.7520 0.7517 0.7515 0.7512
480.716522 0.7509 0.7506 0.7502 0.7498 0.7494
485.625384 0.7491 0.7488 0.7486 0.7483 0.7480
490.534247 0.7478 0.7475 0.7473 0.7471 0.7468
495.443109 0.7466 0.7465 0.7466 0.7466 0.7466
500.351971 0.7467 0.7468 0.7470 0.7472 0.7474
505.260833 0.7476 0.7477 0.7479 0.7481 0.7483
510.169695 0.7485 0.7487 0.7489 0.7489 0.7488
515.078557 0.7487 0.7485 0.7484 0.7483 0.7482
519.987420 0.7481 0.7476 0.7471 0.7466 0.7461
524.896282 0.7457 0.7453 0.7448 0.7443 0.7437
529.805144 0.7430 0.7422 0.7414 0.7407 0.7399
534.714006 0.7391 0.7383 0.7376 0.7368 0.7361
539.622868 0.7354 0.7347 0.7340 0.7333 0.7327
544.531731 0.7320 0.7313 0.7307 0.7300 0.7293
549.440593 0.7286 0.7281 0.7277 0.7274 0.7271
554.349455 0.7268 0.7265 0.7262 0.7259 0.7256
559.258317 0.7254 0.7255 0.7257 0.7258 0.7259
564.167179 0.7260 0.7261 0.7263 0.7264 0.7264
569.076041 0.7264 0.7263 0.7261 0.7244 0.7226
573.984904 0.7207 0.7190 0.7172 0.7153 0.7136
578.893766 0.7117 0.7098 0.7080 0.7060 0.7041
583.802628 0.7023 0.7004 0.6985 0.6964 0.6941
588.711490 0.6918 0.6894 0.6870 0.6846 0.6823
593.620352 0.6799 0.6774 0.6748 0.6722 0.6694
598.529214 0.6661 0.6626 0.6590 0.6555 0.6520
603.438077 0.6484 0.6450 0.6419 0.6389 0.6359
608.346939 0.6334 0.6316 0.6299 0.6281 0.6259
613.255801 0.6232 0.6204 0.6175 0.6147 0.6126
618.164663 0.6107 0.6089 0.6078 0.6071 0.6056
623.073525 0.6061 0.6058 0.6094 0.6176 0.6253
627.982387 0.6244 0.6234 0.6226 0.6220 0.6211
632.891250 0.6197 0.6187 0.6178 0.6171 0.6167
637.800112 0.6164 0.6162 0.6161 0.6161 0.6161
642.708974 0.6162 0.6163 0.6167 0.6150 0.6165
647.617836 0.6184 0.6193 0.6203 0.6213 0.6227
652.526698 0.6250 0.6277 0.6316 0.6374 0.6436
657.435561 0.6498 0.6553 0.6600 0.6647 0.6692
662.344423 0.6735 0.6780 0.6826 0.6873 0.6920
667.253285 0.6969 0.7018 0.7063 0.7095 0.7123
672.162147 0.7153 0.7182 0.7212 0.7240 0.7270
677.071009 0.7298 0.7326 0.7346 0.7360 0.7376
681.979871 0.7392 0.7406 0.7422 0.7438 0.7454
686.888734 0.7468 0.7480 0.7491 0.7502 0.7514
691.797596 0.7525 0.7536 0.7547 0.7558 0.7566
696.706458 0.7572 0.7578 0.7584 0.7590 0.7596
701.615320 0.7602 0.7608 0.7612 0.7617 0.7621
706.524182 0.7625 0.7629 0.7634 0.7644 0.7656
711.433044 0.7668 0.7680 0.7693 0.7705 0.7719
716.341907 0.7734 0.7750 0.7766 0.7780 0.7792
721.250769 0.7803 0.7815 0.7826 0.7837 0.7848
726.159631 0.7860 0.7870 0.7875 0.7880 0.7884
731.068493 0.7888 0.7892 0.7897 0.7903 0.7908
735.977355 0.7914 0.7919 0.7925 0.7930 0.7935
740.886218 0.7940 0.7946 0.7951 0.7956 0.7959
745.795080 0.7961 0.7963 0.7966 0.7967 0.7970
750.703942 0.7972 0.7975 0.7977 0.7977 0.7992
755.612804 0.7984 0.7973 0.7972 0.7969 0.7953
760.521666 0.7927 0.7902 0.7877 0.7851 0.7824
765.430528 0.7797 0.7768 0.7733 0.7692 0.7649
770.339391 0.7606 0.7564 0.7521 0.7477 0.7433
775.248253 0.7390 0.7348 0.7308 0.7268 0.7229
780.157115 0.7189 0.7148 0.7106 0.7059 0.7012
785.065977 0.6965 0.6915 0.6866 0.6830 0.6798
789.974839 0.6766 0.6739 0.6713 0.6687 0.6662
794.883701 0.6635 0.6607 0.6578 0.6550 0.6517
799.792564 0.6484 0.6451 0.6410 0.6364 0.6317
804.701426 0.6273 0.6230 0.6187 0.6144 0.6101
809.610288 0.6058 0.6016 0.5978 0.5941 0.5905
814.519150 0.5869 0.5831 0.5790 0.5746 0.5686
819.428012 0.5619 0.5577 0.5557 0.5556 0.5572
824.336874 0.5585 0.5615 0.5663 0.5717 0.5785
829.245737 0.5875 0.5960 0.6031 0.6086 0.6127
834.154599 0.6155 0.6181 0.6189 0.6192 0.6197
839.063461 0.6196 0.6188 0.6176 0.6161 0.6143
843.972323 0.6112 0.6055 0.5974 0.5845 0.5724
848.881185 0.5619 0.5490 0.5364 0.5253 0.5142
853.790048 0.4892 0.4553 0.4197 0.3842 0.3486
858.698910 0.3131 0.2776 0.2420 0.2065 0.1709
863.607772 0.1356 0.1121 0.0946 0.0783 0.0649
868.516634 0.0538 0.0465 0.0430 0.0408 0.0403
873.425496 0.0415 0.0424 0.0441 0.0468 0.0507
878.334358 0.0567 0.0713 0.1101 0.1683 0.2228
883.243221 0.2774 0.3320 0.3866 0.4366 0.4654
888.152083 0.4841 0.4965 0.5108 0.5327 0.5666
893.060945 0.6165 0.6526 0.6680 0.6789 0.6888
897.969807 0.6998 0.7112 0.7218 0.7322 0.7419
902.878669 0.7502 0.7567 0.7610 0.7641 0.7670
907.787531 0.7693 0.7710 0.7725 0.7740 0.7755
912.696394 0.7758 0.7755 0.7752 0.7748 0.7745
917.605256 0.7739 0.7730 0.7718 0.7707 0.7692
922.514118 0.7674 0.7651 0.7625 0.7593 0.7547
927.422980 0.7491 0.7435 0.7376 0.7312 0.7246
932.331842 0.7176 0.7089 0.6963 0.6826 0.6661
937.240705 0.6392 0.6052 0.5822 0.5665 0.5516
942.149567 0.5370 0.5238 0.5104 0.4954 0.4897
947.058429 0.4884 0.4872 0.4860 0.4849 0.4826
951.967291 0.4774 0.4695 0.4596 0.4481 0.4354
956.876153 0.4174 0.3966 0.3778 0.3735 0.3767
961.785015 0.3819 0.4011 0.4248 0.4526 0.4809
966.693878 0.5044 0.5236 0.5472 0.5680 0.5871
971.602740 0.6077 0.6279 0.6425 0.6527 0.6619
976.511602 0.6700 0.6761 0.6792 0.6802 0.6797
981.420464 0.6793 0.6794 0.6784 0.6768 0.6739
986.329326 0.6692 0.6625 0.6549 0.6474 0.6409
991.238188 0.6348 0.6281 0.6203 0.6124 0.6037
996.147051 0.5926 0.5695 0.5462 0.5229 0.4995
1001.055913 0.4763 0.4529 0.4295 0.4063 0.3829
1005.964775 0.3596 0.3363 0.3130 0.2851 0.2609
1010.873637 0.2434 0.2285 0.2150 0.2013 0.1896
1015.782499 0.1788 0.1657 0.1578 0.1524 0.1464
1020.691361 0.1417 0.1394 0.1385 0.1380 0.1384
1025.600224 0.1385 0.1389 0.1404 0.1429 0.1458
1030.509086 0.1490 0.1522 0.1554 0.1587 0.1626
1035.417948 0.1669 0.1723 0.1801 0.1901 0.1999
1040.326810 0.2081 0.2168 0.2267 0.2379 0.2523
1045.235672 0.2730 0.2915 0.3105 0.3264 0.3430
1050.144535 0.3601 0.3764 0.3917 0.4074 0.4221
1055.053397 0.4356 0.4496 0.4634 0.4782 0.4839
1059.962259 0.4851 0.4855 0.4856 0.4843 0.4832
1064.871121 0.4788 0.4735 0.4674 0.4612 0.4557
1069.779983 0.4506 0.4456 0.4390 0.4323 0.4266
1074.688845 0.4212 0.4150 0.4080 0.4028 0.4010
1079.597708 0.3979 0.3994 0.4024 0.4039 0.4068
1084.506570 0.4103 0.4141 0.4205 0.4325 0.4462
1089.415432 0.4616 0.4796 0.4959 0.5130 0.5259
1094.324294 0.5438 0.5723 0.6013 0.6264 0.6577
1099.233156 0.6849 0.6975 0.7070 0.7167 0.7276
1104.142018 0.7400 0.7526 0.7616 0.7687 0.7756
1109.050881 0.7818 0.7863 0.7909 0.7953 0.7995
1113.959743 0.8032 0.8068 0.8104 0.8140 0.8177
1118.868605 0.8206 0.8234 0.8261 0.8289 0.8313
1123.777467 0.8334 0.8355 0.8376 0.8395 0.8416
1128.686329 0.8436 0.8455 0.8473 0.8492 0.8507
1133.595192 0.8514 0.8517 0.8519 0.8521 0.8523
1138.504054 0.8524 0.8524 0.8512 0.8507 0.8515
1143.412916 0.8510 0.8503 0.8495 0.8486 0.8476
1148.321778 0.8465 0.8454 0.8443 0.8431 0.8417
1153.230640 0.8403 0.8389 0.8374 0.8358 0.8338
1158.139502 0.8313 0.8288 0.8262 0.8237 0.8211
1163.048365 0.8186 0.8160 0.8136 0.8110 0.8086
1167.957227 0.8060 0.8031 0.8001 0.7972 0.7920
1172.866089 0.7865 0.7812 0.7762 0.7712 0.7647
1177.774951 0.7575 0.7501 0.7428 0.7363 0.7307
1182.683813 0.7254 0.7213 0.7182 0.7153 0.7124
1187.592675 0.7098 0.7073 0.7048 0.7022 0.6995
1192.501538 0.6968 0.6938 0.6904 0.6859 0.6804
1197.410400 0.6745 0.6682 0.6609 0.6532 0.6450
1202.319262 0.6356 0.6255 0.6151 0.6067 0.5998
1207.228124 0.5928 0.5858 0.5780 0.5692 0.5673
1212.136986 0.5664 0.5663 0.5666 0.5661 0.5662
1217.045848 0.5667 0.5673 0.5708 0.5747 0.5786
1221.954711 0.5839 0.5892 0.5945 0.5998 0.6063
1226.863573 0.6152 0.6236 0.6314 0.6389 0.6463
1231.772435 0.6535 0.6607 0.6646 0.6652 0.6647
1236.681297 0.6664 0.6648 0.6633 0.6629 0.6625
1241.590159 0.6620 0.6611 0.6600 0.6589 0.6573
1246.499022 0.6552 0.6531 0.6508 0.6482 0.6452
1251.407884 0.6424 0.6401 0.6381 0.6362 0.6346
1256.316746 0.6332 0.6322 0.6322 0.6326 0.6328
1261.225608 0.6332 0.6350 0.6362 0.6376 0.6396
1266.134470 0.6419 0.6448 0.6492 0.6543 0.6599
1271.043332 0.6657 0.6716 0.6766 0.6816 0.6856
1275.952195 0.6896 0.6935 0.6976 0.7014 0.7044
1280.861057 0.7072 0.7100 0.7124 0.7148 0.7172
1285.769919 0.7192 0.7210 0.7226 0.7239 0.7250
1290.678781 0.7253 0.7270 0.7285 0.7296 0.7243
1295.587643 0.7140 0.7033 0.6980 0.6968 0.6957
1300.496505 0.6945 0.6931 0.6918 0.6905 0.6895
1305.405368 0.6885 0.6874 0.6865 0.6855 0.6846
1310.314230 0.6836 0.6828 0.6821 0.6815 0.6809
1315.223092 0.6803 0.6797 0.6790 0.6784 0.6778
1320.131954 0.6773 0.6769 0.6765 0.6760 0.6755
1325.040816 0.6752 0.6750 0.6747 0.6745 0.6743
1329.949679 0.6741 0.6739 0.6737 0.6735 0.6733
1334.858541 0.6731 0.6729 0.6727 0.6725 0.6724
1339.767403 0.6722 0.6721 0.6719 0.6712 0.6702
1344.676265 0.6690 0.6673 0.6652 0.6628 0.6604
1349.585127 0.6578 0.6546 0.6510 0.6471 0.6432
1354.493989 0.6392 0.6351 0.6310 0.6270 0.6229
1359.402852 0.6188 0.6148 0.6107 0.6066 0.6025
1364.311714 0.5984 0.5943 0.5901 0.5860 0.5819
1369.220576 0.5778 0.5738 0.5705 0.5696 0.5702
1374.129438 0.5693 0.5702 0.5712 0.5733 0.5761
1379.038300 0.5787 0.5820 0.5853 0.5887 0.5925
1383.947162 0.5961 0.5993 0.6021 0.6049 0.6076
1388.856025 0.6104 0.6131 0.6157 0.6165 0.6167
1393.764887 0.6167 0.6168 0.6168 0.6169 0.6170
1398.673749 0.6171 0.6172 0.6173 0.6174 0.6175
1403.582611 0.6176 0.6177 0.6178 0.6179 0.6182
1408.491473 0.6185 0.6191 0.6200 0.6209 0.6218
1413.400335 0.6228 0.6239 0.6255 0.6271 0.6288
1418.309198 0.6307 0.6326 0.6343 0.6359 0.6376
1423.218060 0.6394 0.6412 0.6430 0.6448 0.6468
1428.126922 0.6488 0.6507 0.6527 0.6547 0.6568
1433.035784 0.6591 0.6613 0.6636 0.6644 0.6648
1437.944646 0.6651 0.6695 0.6658 0.6655 0.6653
1442.853509 0.6644 0.6635 0.6622 0.6607 0.6592
1447.762371 0.6570 0.6545 0.6513 0.6473 0.6457
1452.671233 0.6450 0.6447 0.6448 0.6442 0.6454
1457.580095 0.6480 0.6532 0.6601 0.6669 0.6737
1462.488957 0.6811 0.6895 0.7006 0.7125 0.7212
1467.397819 0.7287 0.7364 0.7437 0.7497 0.7545
1472.306682 0.7592 0.7639 0.7684 0.7724 0.7764
1477.215544 0.7804 0.7844 0.7882 0.7912 0.7940
1482.124406 0.7969 0.7997 0.8025 0.8050 0.8071
1487.033268 0.8093 0.8115 0.8137 0.8156 0.8169
1491.942130 0.8182 0.8195 0.8209 0.8222 0.8235
1496.850992 0.8248 0.8260 0.8270 0.8281 0.8291
1501.759855 0.8301 0.8310 0.8319 0.8326 0.8334
1506.668717 0.8341 0.8349 0.8354 0.8356 0.8357
1511.577579 0.8359 0.8360 0.8362 0.8363 0.8364
1516.486441 0.8364 0.8364 0.8365 0.8365 0.8364
1521.395303 0.8362 0.8359 0.8356 0.8353 0.8350
1526.304166 0.8348 0.8345 0.8342 0.8339 0.8337
1531.213028 0.8334 0.8332 0.8329 0.8327 0.8324
1536.121890 0.8322 0.8321 0.8336 0.8313 0.8312
1541.030752 0.8312 0.8312 0.8312 0.8312 0.8311
1545.939614 0.8311 0.8311 0.8312 0.8313 0.8313
1550.848476 0.8314 0.8315 0.8316 0.8317 0.8318
1555.757339 0.8319 0.8320 0.8321 0.8323 0.8324
1560.666201 0.8326 0.8327 0.8329 0.8330 0.8332
1565.575063 0.8332 0.8331 0.8330 0.8329 0.8328
1570.483925 0.8322 0.8307 0.8288 0.8265 0.8241
1575.392787 0.8217 0.8192 0.8165 0.8131 0.8093
1580.301649 0.8048 0.7993 0.7932 0.7885 0.7839
1585.210512 0.7792 0.7746 0.7700 0.7653 0.7613
1590.119374 0.7580 0.7547 0.7521 0.7503 0.7486
1595.028236 0.7467 0.7444 0.7366 0.7265 0.7153
1599.937098 0.7036 0.6924 0.6827 0.6730 0.6632
1604.845960 0.6536 0.6431 0.6241 0.6035 0.5832
1609.754822 0.5527 0.4901 0.4400 0.3952 0.3491
1614.663685 0.3031 0.2571 0.2111 0.1651 0.1191
1619.572547 0.0865 0.0771 0.0773 0.0994 0.1469
1624.481409 0.1995 0.2520 0.3045 0.3571 0.4097
1629.390271 0.4746 0.5469 0.5992 0.6460 0.6826
1634.299133 0.7075 0.7255 0.7405 0.7553 0.7670
1639.207996 0.7743 0.7806 0.7869 0.7930 0.7986
1644.116858 0.8040 0.8073 0.8106 0.8137 0.8169
1649.025720 0.8199 0.8222 0.8245 0.8267 0.8291
1653.934582 0.8314 0.8337 0.8358 0.8379 0.8400
1658.843444 0.8421 0.8441 0.8462 0.8480 0.8498
1663.752306 0.8515 0.8532 0.8550 0.8568 0.8585
1668.661169 0.8601 0.8616 0.8632 0.8648 0.8663
1673.570031 0.8679 0.8691 0.8702 0.8712 0.8722
1678.478893 0.8729 0.8731 0.8732 0.8733 0.8734
1683.387755 0.8735 0.8734 0.8730 0.8727 0.8727
1688.296617 0.8729 0.8730 0.8730 0.8731 0.8734
1693.205479 0.8739 0.8751 0.8762 0.8774 0.8787
1698.114342 0.8798 0.8811 0.8823 0.8824 0.8824
1703.023204 0.8823 0.8823 0.8822 0.8821 0.8820
1707.932066 0.8819 0.8818 0.8817 0.8816 0.8815
1712.840928 0.8813 0.8811 0.8809 0.8807 0.8805
1717.749790 0.8803 0.8799 0.8796 0.8792 0.8789
1722.658653 0.8781 0.8772 0.8759 0.8739 0.8715
1727.567515 0.8691 0.8668 0.8646 0.8627 0.8608
1732.476377 0.8589 0.8570 0.8552 0.8534 0.8517
1737.385239 0.8499 0.8481 0.8467 0.8458 0.8450
1742.294101 0.8442 0.8436 0.8431 0.8424 0.8442
1747.202963 0.8453 0.8464 0.8475 0.8485 0.8496
1752.111826 0.8507 0.8520 0.8532 0.8544 0.8560
1757.020688 0.8574 0.8590 0.8605 0.8620 0.8635
1761.929550 0.8652 0.8671 0.8690 0.8710 0.8729
1766.838412 0.8754 0.8779 0.8804 0.8825 0.8841
1771.747274 0.8857 0.8873 0.8889 0.8905 0.8919
1776.656136 0.8930 0.8940 0.8948 0.8954 0.8958
1781.564999 0.8961 0.8963 0.8965 0.8967 0.8969
1786.473861 0.8971 0.8973 0.8976 0.8978 0.8980
1791.382723 0.8981 0.8980 0.8978 0.8977 0.8976
1796.291585 0.8975 0.8974 0.8973 0.8973 0.8973
1801.200447 0.8974 0.8975 0.8976 0.8976 0.8977
1806.109309 0.8978 0.8979 0.8979 0.8980 0.8981
1811.018172 0.8981 0.8982 0.8983 0.8984 0.8984
1815.927034 0.8985 0.8986 0.8987 0.8988 0.8989
1820.835896 0.8990 0.8991 0.8993 0.8994 0.8995
1825.744758 0.8996 0.8997 0.8999 0.9000 0.9001
1830.653620 0.9003 0.9003 0.9003 0.9004 0.9004
1835.562483 0.9004 0.9005 0.9005 0.9005 0.9005
1840.471345 0.9005 0.9004 0.9004 0.9004 0.9004
1845.380207 0.9004 0.9004 0.9005 0.9005 0.9005
1850.289069 0.9006 0.9006 0.9006 0.9006 0.9004
1855.197931 0.9003 0.9002 0.9000 0.8999 0.8998
1860.106793 0.8997 0.8996 0.8996 0.8995 0.8994
1865.015656 0.8993 0.8993 0.8992 0.8991 0.8990
1869.924518 0.8990 0.8989 0.8988 0.8987 0.8986
1874.833380 0.8985 0.8984 0.8983 0.8982 0.8981
1879.742242 0.8980 0.8979 0.8978 0.8977 0.8976
1884.651104 0.8975 0.8974 0.8973 0.8972 0.8971
1889.559966 0.8970 0.8969 0.8968 0.8967 0.8967
1894.468829 0.8965 0.8964 0.8963 0.8962 0.8960
1899.377691 0.8960 0.8962 0.8964 0.8966 0.8968
1904.286553 0.8969 0.8971 0.8972 0.8973 0.8975
1909.195415 0.8976 0.8978 0.8979 0.8981 0.8982
1914.104277 0.8983 0.8982 0.8982 0.8981 0.8981
1919.013140 0.8981 0.8980 0.8980 0.8979 0.8979
1923.922002 0.8978 0.8978 0.8977 0.8977 0.8976
1928.830864 0.8975 0.8974 0.8972 0.8971 0.8970
1933.739726 0.8969 0.8967 0.8966 0.8965 0.8965
1938.648588 0.8965 0.8965 0.8965 0.8965 0.8966
1943.557450 0.8966 0.8966 0.8966 0.8966 0.8966
1948.466313 0.8966 0.8966 0.8967 0.8967 0.8967
1953.375175 0.8967 0.8967 0.8967 0.8967 0.8966
1958.284037 0.8966 0.8966 0.8965 0.8965 0.8965
1963.192899 0.8964 0.8964 0.8963 0.8963 0.8963
1968.101761 0.8962 0.8962 0.8962 0.8962 0.8962
1973.010623 0.8962 0.8962 0.8962 0.8962 0.8962
1977.919486 0.8962 0.8962 0.8962 0.8962 0.8962
1982.828348 0.8963 0.8964 0.8965 0.8966 0.8967
1987.737210 0.8968 0.8969 0.8970 0.8971 0.8973
1992.646072 0.8972 0.8971 0.8970 0.8969 0.8968
1997.554934 0.8986 0.9040 0.9110 0.9148 0.9154
2002.463796 0.9156 0.9154 0.9152 0.9149 0.9146
2007.372659 0.9143 0.9140 0.9137 0.9134 0.9133
2012.281521 0.9131 0.9130 0.9129 0.9127 0.9126
2017.190383 0.9124 0.9123 0.9121 0.9120 0.9117
2022.099245 0.9115 0.9111 0.9108 0.9105 0.9102
2027.008107 0.9098 0.9095 0.9091 0.9088 0.9085
2031.916970 0.9082 0.9078 0.9075 0.9072 0.9069
2036.825832 0.9067 0.9064 0.9062 0.9059 0.9059
2041.734694 0.9059 0.9059 0.9059 0.9059 0.9060
2046.643556 0.9060 0.9060 0.9060 0.9060 0.9060
2051.552418 0.9061 0.9063 0.9068 0.9072 0.9077
2056.461280 0.9082 0.9087 0.9091 0.9093 0.9095
2061.370143 0.9097 0.9099 0.9101 0.9102 0.9104
2066.279005 0.9105 0.9107 0.9108 0.9110 0.9112
2071.187867 0.9114 0.9116 0.9118 0.9120 0.9122
2076.096729 0.9124 0.9126 0.9128 0.9130 0.9132
2081.005591 0.9134 0.9136 0.9138 0.9141 0.9143
2085.914453 0.9146 0.9149 0.9152 0.9154 0.9157
2090.823316 0.9159 0.9161 0.9164 0.9167 0.9170
2095.732178 0.9172 0.9174 0.9176 0.9178 0.9180
2100.641040 0.9182 0.9184 0.9186 0.9188 0.9190
2105.549902 0.9192 0.9194 0.9197 0.9199 0.9201
2110.458764 0.9203 0.9205 0.9208 0.9210 0.9211
2115.367627 0.9210 0.9208 0.9211 0.9212 0.9212
2120.276489 0.9212 0.9212 0.9212 0.9212 0.9213
2125.185351 0.9213 0.9213 0.9214 0.9215 0.9215
2130.094213 0.9216 0.9217 0.9218 0.9217 0.9217
2135.003075 0.9217 0.9217 0.9216 0.9216 0.9215
2139.911937 0.9215 0.9215 0.9215 0.9214 0.9214
2144.820800 0.9213 0.9213 0.9213 0.9213 0.9212
2149.729662 0.9212 0.9211 0.9211 0.9211 0.9211
2154.638524 0.9210 0.9210 0.9210 0.9210 0.9209
2159.547386 0.9209 0.9209 0.9209 0.9209 0.9209
2164.456248 0.9209 0.9208 0.9206 0.9205 0.9204
2169.365110 0.9203 0.9202 0.9201 0.9200 0.9199
2174.273973 0.9198 0.9197 0.9196 0.9194 0.9193
2179.182835 0.9192 0.9191 0.9190 0.9189 0.9188
2184.091697 0.9187 0.9185 0.9184 0.9183 0.9182
2189.000559 0.9181 0.9180 0.9179 0.9179 0.9178
2193.909421 0.9178 0.9177 0.9177 0.9176 0.9176
2198.818283 0.9175 0.9175 0.9174 0.9174 0.9173
2203.727146 0.9173 0.9172 0.9172 0.9171 0.9171
2208.636008 0.9170 0.9168 0.9167 0.9165 0.9164
2213.544870 0.9162 0.9160 0.9158 0.9157 0.9155
2218.453732 0.9153 0.9152 0.9150 0.9149 0.9147
2223.362594 0.9145 0.9143 0.9142 0.9140 0.9138
2228.271457 0.9136 0.9135 0.9134 0.9132 0.9131
2233.180319 0.9130 0.9129 0.9128 0.9127 0.9126
