##TITLE=ACETONITRILE, DIBROMO-
##JCAMP-DX=4.24
##DATA TYPE=INFRARED SPECTRUM
##CLASS=COBLENTZ III
##ORIGIN=DOW CHEMICAL COMPANY
##OWNER=COBLENTZ SOC.
Collection (C) 2018 copyright by the U.S. Secretary of Commerce
on behalf of the United States of America. All rights reserved.
##DATE=1966/05/02
##NAMES=dibromoacetonitrile
##CAS REGISTRY NO=3252-43-5
##MOLFORM=C2 H Br2 N
##SOURCE REFERENCE=COBLENTZ NO. 06434
##$NIST SOURCE=COBLENTZ
##$NIST IMAGE=cob6434
##SPECTROMETER/DATA SYSTEM=DOW KBr FOREPRISM-GRATING
##INSTRUMENT PARAMETERS=BLAZED AT 3.5, 12.0, 20.0 MICRON AND CHANGED AT 5.0, 7.5, 14.9 MICRON
##STATE=SOLUTION (10% CCl4 FOR 3800-1330, 10% CS2 FOR 1330-400 CM^-^1)
##PATH LENGTH=0.010 CM, 0.011 CM
$$SPECTRAL CONTAMINATION DUE TO CS2 AROUND 850, CCl4 AROUND 1550, AND AN UNKNOWN AROUND 400 CM^-^1
##SAMPLING PROCEDURE=TRANSMISSION
##RESOLUTION=2
##DATA PROCESSING=DIGITIZED BY COBLENTZ SOCIETY (BATCH I) FROM HARD COPY
##XUNITS=1/CM
##YUNITS=TRANSMITTANCE
##XLABEL=Wavenumbers (cm-1)
##YLABEL=% Transmission
##XFACTOR=1
##YFACTOR=1
##DELTAX=1
##FIRSTX=381
##LASTX=3794
##FIRSTY=0.1766
##MAXX=3794
##MINX=381
##MAXY=0.89
##MINY=0.0161
##NPOINTS=3414
##XYDATA=(X++(Y..Y))
381.000000 0.1766 0.1769 0.1781 0.1792 0.1800
386.000000 0.1807 0.1817 0.1828 0.1861 0.1894
391.000000 0.1929 0.1963 0.1995 0.2029 0.2073
396.000000 0.2149 0.2323 0.2544 0.2780 0.3016
401.000000 0.3252 0.3488 0.3724 0.3959 0.4196
406.000000 0.4301 0.4490 0.5472 0.5618 0.5712
411.000000 0.5806 0.5916 0.6056 0.6247 0.6309
416.000000 0.6372 0.6434 0.6496 0.6551 0.6607
421.000000 0.6662 0.6717 0.6769 0.6821 0.6864
426.000000 0.6888 0.6901 0.6915 0.6921 0.6921
431.000000 0.6921 0.6921 0.6918 0.6908 0.6899
436.000000 0.6886 0.6869 0.6838 0.6783 0.6660
441.000000 0.6501 0.6384 0.6275 0.6018 0.5700
446.000000 0.5592 0.5322 0.5026 0.4773 0.4769
451.000000 0.4762 0.5598 0.6401 0.7205 0.7497
456.000000 0.7606 0.7685 0.7734 0.7775 0.7807
461.000000 0.7839 0.7865 0.7889 0.7911 0.7934
466.000000 0.7951 0.7968 0.7986 0.8003 0.8019
471.000000 0.8033 0.8047 0.8061 0.8075 0.8089
476.000000 0.8103 0.8111 0.8118 0.8125 0.8134
481.000000 0.8142 0.8150 0.8158 0.8165 0.8172
486.000000 0.8180 0.8186 0.8193 0.8200 0.8207
491.000000 0.8213 0.8218 0.8224 0.8224 0.8224
496.000000 0.8221 0.8218 0.8216 0.8213 0.8210
501.000000 0.8210 0.8210 0.8210 0.8211 0.8212
506.000000 0.8212 0.8214 0.8216 0.8217 0.8218
511.000000 0.8224 0.8228 0.8234 0.8239 0.8244
516.000000 0.8248 0.8253 0.8258 0.8262 0.8264
521.000000 0.8267 0.8270 0.8273 0.8275 0.8278
526.000000 0.8281 0.8284 0.8286 0.8289 0.8292
531.000000 0.8295 0.8297 0.8300 0.8303 0.8306
536.000000 0.8308 0.8311 0.8314 0.8317 0.8320
541.000000 0.8323 0.8325 0.8328 0.8332 0.8335
546.000000 0.8338 0.8341 0.8344 0.8347 0.8350
551.000000 0.8353 0.8356 0.8359 0.8362 0.8365
556.000000 0.8368 0.8371 0.8374 0.8377 0.8380
561.000000 0.8383 0.8386 0.8388 0.8390 0.8392
566.000000 0.8393 0.8395 0.8397 0.8399 0.8400
571.000000 0.8400 0.8399 0.8397 0.8396 0.8394
576.000000 0.8391 0.8386 0.8430 0.8375 0.8371
581.000000 0.8371 0.8371 0.8371 0.8371 0.8375
586.000000 0.8377 0.8380 0.8382 0.8385 0.8385
591.000000 0.8385 0.8385 0.8385 0.8384 0.8383
596.000000 0.8382 0.8381 0.8371 0.8360 0.8347
601.000000 0.8334 0.8321 0.8308 0.8283 0.8258
606.000000 0.8232 0.8206 0.8175 0.8145 0.8110
611.000000 0.8056 0.7990 0.7878 0.7710 0.7128
616.000000 0.6531 0.5935 0.5659 0.5646 0.5969
621.000000 0.6678 0.7387 0.7961 0.8033 0.8114
626.000000 0.8125 0.8126 0.8128 0.8128 0.8119
631.000000 0.8106 0.8090 0.8072 0.8056 0.8038
636.000000 0.8021 0.8001 0.7983 0.7961 0.7932
641.000000 0.7903 0.7874 0.7839 0.7801 0.7764
646.000000 0.7726 0.7693 0.7658 0.7621 0.7587
651.000000 0.7551 0.7507 0.7461 0.7411 0.7357
656.000000 0.7297 0.7232 0.7161 0.7085 0.7061
661.000000 0.7058 0.7058 0.7064 0.7078 0.7090
666.000000 0.7085 0.7055 0.6968 0.6847 0.6683
671.000000 0.6285 0.5803 0.5322 0.4841 0.4360
676.000000 0.3695 0.3362 0.2607 0.1851 0.0643
681.000000 0.0415 0.0271 0.0190 0.0161 0.0166
686.000000 0.0295 0.0179 0.2036 0.3133 0.4229
691.000000 0.5665 0.6054 0.6142 0.6175 0.6188
696.000000 0.6201 0.6214 0.6241 0.6596 0.6980
701.000000 0.7361 0.7493 0.7600 0.7850 0.7997
706.000000 0.8043 0.8081 0.8111 0.8138 0.8165
711.000000 0.8193 0.8218 0.8242 0.8260 0.8278
716.000000 0.8295 0.8304 0.8313 0.8321 0.8331
721.000000 0.8340 0.8350 0.8359 0.8368 0.8377
726.000000 0.8386 0.8396 0.8405 0.8414 0.8423
731.000000 0.8433 0.8440 0.8446 0.8452 0.8457
736.000000 0.8463 0.8468 0.8474 0.8478 0.8482
741.000000 0.8484 0.8487 0.8490 0.8492 0.8495
746.000000 0.8498 0.8501 0.8503 0.8506 0.8507
751.000000 0.8508 0.8508 0.8509 0.8509 0.8509
756.000000 0.8510 0.8510 0.8510 0.8509 0.8507
761.000000 0.8505 0.8503 0.8501 0.8499 0.8497
766.000000 0.8494 0.8490 0.8486 0.8483 0.8478
771.000000 0.8475 0.8471 0.8467 0.8464 0.8460
776.000000 0.8454 0.8446 0.8438 0.8430 0.8423
781.000000 0.8416 0.8412 0.8407 0.8403 0.8399
786.000000 0.8398 0.8397 0.8397 0.8396 0.8396
791.000000 0.8396 0.8396 0.8398 0.8399 0.8400
796.000000 0.8402 0.8403 0.8404 0.8406 0.8406
801.000000 0.8407 0.8408 0.8409 0.8410 0.8410
806.000000 0.8411 0.8412 0.8412 0.8410 0.8407
811.000000 0.8405 0.8403 0.8400 0.8397 0.8394
816.000000 0.8391 0.8388 0.8385 0.8382 0.8371
821.000000 0.8362 0.8353 0.8339 0.8324 0.8308
826.000000 0.8293 0.8277 0.8256 0.8231 0.8207
831.000000 0.8183 0.8158 0.8128 0.8094 0.8060
836.000000 0.8025 0.7984 0.7939 0.7894 0.7843
841.000000 0.7790 0.7738 0.7675 0.7578 0.7483
846.000000 0.7383 0.7283 0.7167 0.7065 0.7008
851.000000 0.6984 0.6971 0.6981 0.6991 0.7006
856.000000 0.7031 0.7058 0.7081 0.7106 0.7139
861.000000 0.7171 0.7204 0.7246 0.7287 0.7328
866.000000 0.7371 0.7415 0.7460 0.7489 0.7518
871.000000 0.7546 0.7575 0.7603 0.7631 0.7658
876.000000 0.7686 0.7711 0.7733 0.7755 0.7775
881.000000 0.7797 0.7812 0.7828 0.7844 0.7858
886.000000 0.7871 0.7884 0.7894 0.7899 0.7903
891.000000 0.7891 0.7871 0.7854 0.7838 0.7825
896.000000 0.7822 0.7843 0.7867 0.7903 0.7939
901.000000 0.7974 0.8015 0.8071 0.8126 0.8171
906.000000 0.8216 0.8244 0.8265 0.8283 0.8296
911.000000 0.8306 0.8312 0.8318 0.8323 0.8328
916.000000 0.8333 0.8337 0.8341 0.8345 0.8349
921.000000 0.8349 0.8349 0.8349 0.8348 0.8348
926.000000 0.8347 0.8347 0.8346 0.8345 0.8345
931.000000 0.8343 0.8340 0.8336 0.8333 0.8330
936.000000 0.8318 0.8307 0.8295 0.8284 0.8271
941.000000 0.8260 0.8243 0.8225 0.8225 0.8238
946.000000 0.8248 0.8244 0.8237 0.8225 0.8198
951.000000 0.8157 0.8106 0.8049 0.7980 0.7908
956.000000 0.7835 0.7706 0.7588 0.7461 0.6919
961.000000 0.6724 0.6601 0.6421 0.5670 0.4919
966.000000 0.4168 0.3468 0.3468 0.3468 0.5990
971.000000 0.7234 0.7391 0.7505 0.7660 0.7876
976.000000 0.8000 0.8071 0.8112 0.8154 0.8181
981.000000 0.8198 0.8213 0.8227 0.8237 0.8241
986.000000 0.8245 0.8249 0.8254 0.8254 0.8254
991.000000 0.8253 0.8251 0.8247 0.8240 0.8233
996.000000 0.8225 0.8218 0.8211 0.8203 0.8194
1001.000000 0.8186 0.8178 0.8172 0.8172 0.8172
1006.000000 0.8199 0.8227 0.8267 0.8292 0.8301
1011.000000 0.8307 0.8308 0.8308 0.8308 0.8308
1016.000000 0.8308 0.8308 0.8308 0.8309 0.8309
1021.000000 0.8309 0.8310 0.8310 0.8310 0.8311
1026.000000 0.8311 0.8312 0.8313 0.8313 0.8314
1031.000000 0.8315 0.8315 0.8325 0.8317 0.8317
1036.000000 0.8316 0.8314 0.8313 0.8311 0.8309
1041.000000 0.8307 0.8306 0.8304 0.8302 0.8301
1046.000000 0.8300 0.8298 0.8297 0.8295 0.8294
1051.000000 0.8292 0.8291 0.8290 0.8288 0.8286
1056.000000 0.8282 0.8278 0.8274 0.8270 0.8266
1061.000000 0.8262 0.8258 0.8254 0.8249 0.8240
1066.000000 0.8232 0.8223 0.8215 0.8207 0.8212
1071.000000 0.8218 0.8227 0.8236 0.8246 0.8252
1076.000000 0.8255 0.8257 0.8257 0.8256 0.8252
1081.000000 0.8248 0.8244 0.8240 0.8236 0.8232
1086.000000 0.8228 0.8223 0.8215 0.8207 0.8197
1091.000000 0.8186 0.8174 0.8161 0.8145 0.8128
1096.000000 0.8112 0.8093 0.8071 0.8049 0.8025
1101.000000 0.8000 0.7975 0.7951 0.7924 0.7894
1106.000000 0.7865 0.7821 0.7774 0.7719 0.7661
1111.000000 0.7604 0.7541 0.7472 0.7406 0.7304
1116.000000 0.7185 0.6856 0.6515 0.4712 0.4578
1121.000000 0.4533 0.4274 0.3912 0.3723 0.3729
1126.000000 0.3827 0.4682 0.5537 0.6460 0.6636
1131.000000 0.6925 0.7225 0.7362 0.7445 0.7501
1136.000000 0.7558 0.7606 0.7655 0.7703 0.7749
1141.000000 0.7787 0.7824 0.7861 0.7890 0.7918
1146.000000 0.7948 0.7972 0.7991 0.8008 0.8026
1151.000000 0.8040 0.8053 0.8065 0.8078 0.8091
1156.000000 0.8104 0.8114 0.8122 0.8146 0.8184
1161.000000 0.8209 0.8195 0.8192 0.8187 0.8178
1166.000000 0.8164 0.8139 0.8125 0.8111 0.8100
1171.000000 0.8094 0.8086 0.8078 0.8068 0.8061
1176.000000 0.8053 0.8045 0.8036 0.8036 0.8048
1181.000000 0.8068 0.8082 0.8082 0.8083 0.8078
1186.000000 0.8068 0.8055 0.8042 0.8028 0.8015
1191.000000 0.8003 0.7991 0.7978 0.7962 0.7940
1196.000000 0.7921 0.7906 0.7890 0.7872 0.7848
1201.000000 0.7824 0.7799 0.7774 0.7743 0.7711
1206.000000 0.7680 0.7648 0.7617 0.7555 0.7478
1211.000000 0.7368 0.7215 0.7018 0.6760 0.6500
1216.000000 0.6241 0.6077 0.6072 0.6198 0.6464
1221.000000 0.6731 0.6997 0.7506 0.7587 0.7640
1226.000000 0.7680 0.7719 0.7750 0.7774 0.7798
1231.000000 0.7819 0.7842 0.7857 0.7871 0.7884
1236.000000 0.7898 0.7911 0.7925 0.7935 0.7943
1241.000000 0.7951 0.7958 0.7965 0.7972 0.7980
1246.000000 0.7987 0.7994 0.8001 0.8008 0.8015
1251.000000 0.8024 0.8031 0.8039 0.8043 0.8043
1256.000000 0.8044 0.8044 0.8045 0.8046 0.8046
1261.000000 0.8040 0.8033 0.8028 0.8028 0.8030
1266.000000 0.8032 0.8033 0.8034 0.8037 0.8044
1271.000000 0.8051 0.8057 0.8064 0.8069 0.8081
1276.000000 0.8092 0.8104 0.8114 0.8117 0.8118
1281.000000 0.8118 0.8118 0.8118 0.8119 0.8119
1286.000000 0.8119 0.8119 0.8121 0.8121 0.8121
1291.000000 0.8121 0.8121 0.8121 0.8121 0.8121
1296.000000 0.8124 0.8125 0.8126 0.8128 0.8131
1301.000000 0.8132 0.8134 0.8136 0.8137 0.8139
1306.000000 0.8141 0.8142 0.8144 0.8146 0.8147
1311.000000 0.8148 0.8148 0.8149 0.8149 0.8150
1316.000000 0.8150 0.8151 0.8151 0.8151 0.8151
1321.000000 0.8153 0.8153 0.8154 0.8157 0.8161
1326.000000 0.8165 0.8168 0.8174 0.8186 0.8201
1331.000000 0.8216 0.8230 0.8245 0.8254 0.8262
1336.000000 0.8268 0.8275 0.8282 0.8288 0.8294
1341.000000 0.8300 0.8306 0.8312 0.8313 0.8315
1346.000000 0.8316 0.8318 0.8318 0.8321 0.8323
1351.000000 0.8325 0.8328 0.8330 0.8333 0.8335
1356.000000 0.8337 0.8340 0.8342 0.8348 0.8362
1361.000000 0.8371 0.8375 0.8381 0.8385 0.8390
1366.000000 0.8394 0.8399 0.8403 0.8408 0.8415
1371.000000 0.8425 0.8435 0.8446 0.8456 0.8466
1376.000000 0.8478 0.8492 0.8499 0.8501 0.8502
1381.000000 0.8504 0.8506 0.8508 0.8508 0.8506
1386.000000 0.8505 0.8503 0.8501 0.8492 0.8480
1391.000000 0.8465 0.8449 0.8435 0.8421 0.8407
1396.000000 0.8401 0.8397 0.8393 0.8389 0.8385
1401.000000 0.8382 0.8378 0.8375 0.8373 0.8370
1406.000000 0.8366 0.8362 0.8358 0.8354 0.8350
1411.000000 0.8346 0.8343 0.8340 0.8338 0.8336
1416.000000 0.8334 0.8332 0.8330 0.8327 0.8323
1421.000000 0.8320 0.8317 0.8314 0.8311 0.8308
1426.000000 0.8305 0.8302 0.8299 0.8295 0.8292
1431.000000 0.8289 0.8288 0.8287 0.8286 0.8284
1436.000000 0.8283 0.8282 0.8281 0.8281 0.8281
1441.000000 0.8281 0.8281 0.8281 0.8278 0.8277
1446.000000 0.8275 0.8273 0.8270 0.8268 0.8266
1451.000000 0.8264 0.8262 0.8262 0.8262 0.8262
1456.000000 0.8262 0.8263 0.8264 0.8264 0.8264
1461.000000 0.8264 0.8255 0.8245 0.8236 0.8227
1466.000000 0.8218 0.8208 0.8199 0.8190 0.8181
1471.000000 0.8169 0.8158 0.8148 0.8136 0.8125
1476.000000 0.8103 0.8081 0.8058 0.8038 0.8017
1481.000000 0.7995 0.7974 0.7953 0.7932 0.7911
1486.000000 0.7890 0.7858 0.7828 0.7797 0.7765
1491.000000 0.7735 0.7704 0.7671 0.7639 0.7606
1496.000000 0.7572 0.7540 0.7508 0.7472 0.7436
1501.000000 0.7398 0.7361 0.7322 0.7285 0.7237
1506.000000 0.7189 0.7142 0.7094 0.7047 0.6999
1511.000000 0.6955 0.6911 0.6868 0.6825 0.6778
1516.000000 0.6728 0.6676 0.6626 0.6575 0.6524
1521.000000 0.6469 0.6415 0.6360 0.6307 0.6248
1526.000000 0.6174 0.6101 0.6027 0.5954 0.5858
1531.000000 0.5758 0.5657 0.5556 0.5454 0.5380
1536.000000 0.5308 0.5235 0.5164 0.5093 0.5022
1541.000000 0.4968 0.4920 0.4872 0.4822 0.4767
1546.000000 0.4715 0.4670 0.4616 0.4572 0.4556
1551.000000 0.4551 0.4562 0.4580 0.4599 0.4617
1556.000000 0.4652 0.4699 0.4760 0.4845 0.4940
1561.000000 0.5142 0.5419 0.5530 0.5601 0.5649
1566.000000 0.5697 0.5746 0.5786 0.5826 0.5865
1571.000000 0.5903 0.5929 0.5955 0.5971 0.5987
1576.000000 0.6003 0.6016 0.6030 0.6043 0.6056
1581.000000 0.6070 0.6101 0.6131 0.6166 0.6208
1586.000000 0.6273 0.6343 0.6417 0.6492 0.6583
1591.000000 0.6721 0.6806 0.6885 0.6965 0.7028
1596.000000 0.7092 0.7155 0.7208 0.7260 0.7310
1601.000000 0.7364 0.7421 0.7478 0.7536 0.7601
1606.000000 0.7665 0.7728 0.7767 0.7805 0.7843
1611.000000 0.7881 0.7918 0.7953 0.7987 0.8021
1616.000000 0.8054 0.8075 0.8097 0.8118 0.8141
1621.000000 0.8162 0.8181 0.8197 0.8212 0.8228
1626.000000 0.8243 0.8251 0.8256 0.8260 0.8265
1631.000000 0.8270 0.8275 0.8278 0.8283 0.8287
1636.000000 0.8291 0.8295 0.8299 0.8303 0.8307
1641.000000 0.8312 0.8316 0.8321 0.8325 0.8331
1646.000000 0.8335 0.8338 0.8341 0.8344 0.8346
1651.000000 0.8349 0.8352 0.8356 0.8367 0.8383
1656.000000 0.8395 0.8402 0.8410 0.8417 0.8425
1661.000000 0.8432 0.8437 0.8440 0.8444 0.8447
1666.000000 0.8451 0.8455 0.8458 0.8464 0.8467
1671.000000 0.8468 0.8468 0.8470 0.8471 0.8471
1676.000000 0.8473 0.8474 0.8475 0.8475 0.8477
1681.000000 0.8478 0.8478 0.8478 0.8478 0.8480
1686.000000 0.8478 0.8478 0.8477 0.8475 0.8474
1691.000000 0.8473 0.8471 0.8470 0.8468 0.8467
1696.000000 0.8464 0.8461 0.8457 0.8453 0.8449
1701.000000 0.8445 0.8441 0.8437 0.8434 0.8430
1706.000000 0.8425 0.8421 0.8417 0.8414 0.8410
1711.000000 0.8407 0.8403 0.8400 0.8396 0.8396
1716.000000 0.8401 0.8405 0.8410 0.8415 0.8418
1721.000000 0.8423 0.8427 0.8430 0.8433 0.8436
1726.000000 0.8439 0.8442 0.8445 0.8448 0.8452
1731.000000 0.8456 0.8460 0.8465 0.8468 0.8471
1736.000000 0.8475 0.8477 0.8480 0.8482 0.8485
1741.000000 0.8488 0.8490 0.8493 0.8494 0.8494
1746.000000 0.8495 0.8496 0.8497 0.8498 0.8498
1751.000000 0.8499 0.8501 0.8503 0.8505 0.8507
1756.000000 0.8509 0.8511 0.8512 0.8514 0.8516
1761.000000 0.8518 0.8520 0.8521 0.8524 0.8525
1766.000000 0.8525 0.8525 0.8525 0.8525 0.8525
1771.000000 0.8525 0.8525 0.8525 0.8524 0.8524
1776.000000 0.8523 0.8523 0.8521 0.8521 0.8521
1781.000000 0.8521 0.8520 0.8518 0.8518 0.8517
1786.000000 0.8516 0.8515 0.8514 0.8514 0.8513
1791.000000 0.8512 0.8511 0.8510 0.8509 0.8508
1796.000000 0.8507 0.8506 0.8505 0.8503 0.8502
1801.000000 0.8501 0.8500 0.8498 0.8497 0.8496
1806.000000 0.8495 0.8493 0.8492 0.8491 0.8490
1811.000000 0.8487 0.8485 0.8483 0.8480 0.8478
1816.000000 0.8475 0.8471 0.8470 0.8467 0.8465
1821.000000 0.8462 0.8460 0.8457 0.8455 0.8452
1826.000000 0.8451 0.8450 0.8449 0.8449 0.8448
1831.000000 0.8447 0.8446 0.8445 0.8444 0.8443
1836.000000 0.8442 0.8441 0.8440 0.8440 0.8439
1841.000000 0.8438 0.8437 0.8437 0.8437 0.8437
1846.000000 0.8437 0.8436 0.8436 0.8436 0.8436
1851.000000 0.8437 0.8437 0.8437 0.8438 0.8438
1856.000000 0.8438 0.8439 0.8439 0.8439 0.8440
1861.000000 0.8442 0.8444 0.8446 0.8448 0.8450
1866.000000 0.8453 0.8458 0.8464 0.8468 0.8473
1871.000000 0.8475 0.8477 0.8478 0.8481 0.8482
1876.000000 0.8482 0.8482 0.8481 0.8480 0.8478
1881.000000 0.8478 0.8478 0.8478 0.8478 0.8478
1886.000000 0.8475 0.8473 0.8468 0.8459 0.8453
1891.000000 0.8448 0.8444 0.8443 0.8446 0.8450
1896.000000 0.8455 0.8459 0.8464 0.8470 0.8481
1901.000000 0.8481 0.8481 0.8466 0.8458 0.8453
1906.000000 0.8453 0.8453 0.8458 0.8471 0.8491
1911.000000 0.8511 0.8511 0.8511 0.8511 0.8511
1916.000000 0.8511 0.8510 0.8508 0.8507 0.8505
1921.000000 0.8504 0.8503 0.8501 0.8500 0.8498
1926.000000 0.8497 0.8496 0.8494 0.8493 0.8492
1931.000000 0.8491 0.8491 0.8490 0.8489 0.8489
1936.000000 0.8488 0.8488 0.8488 0.8489 0.8489
1941.000000 0.8490 0.8490 0.8491 0.8491 0.8492
1946.000000 0.8494 0.8495 0.8497 0.8498 0.8500
1951.000000 0.8501 0.8506 0.8513 0.8521 0.8528
1956.000000 0.8536 0.8544 0.8544 0.8545 0.8536
1961.000000 0.8523 0.8506 0.8488 0.8471 0.8457
1966.000000 0.8455 0.8454 0.8451 0.8448 0.8445
1971.000000 0.8442 0.8440 0.8437 0.8434 0.8432
1976.000000 0.8428 0.8425 0.8423 0.8423 0.8421
1981.000000 0.8421 0.8421 0.8421 0.8420 0.8420
1986.000000 0.8418 0.8417 0.8415 0.8413 0.8411
1991.000000 0.8409 0.8401 0.8391 0.8381 0.8370
1996.000000 0.8362 0.8355 0.8348 0.8341 0.8334
2001.000000 0.8333 0.8332 0.8331 0.8331 0.8331
2006.000000 0.8331 0.8330 0.8330 0.8330 0.8331
2011.000000 0.8331 0.8332 0.8332 0.8333 0.8333
2016.000000 0.8334 0.8334 0.8335 0.8335 0.8336
2021.000000 0.8336 0.8337 0.8338 0.8339 0.8341
2026.000000 0.8344 0.8346 0.8348 0.8350 0.8352
2031.000000 0.8354 0.8357 0.8359 0.8361 0.8363
2036.000000 0.8365 0.8367 0.8370 0.8371 0.8374
2041.000000 0.8375 0.8378 0.8378 0.8380 0.8381
2046.000000 0.8383 0.8384 0.8385 0.8386 0.8387
2051.000000 0.8388 0.8390 0.8391 0.8392 0.8393
2056.000000 0.8394 0.8395 0.8397 0.8398 0.8400
2061.000000 0.8401 0.8403 0.8404 0.8405 0.8405
2066.000000 0.8406 0.8406 0.8406 0.8406 0.8406
2071.000000 0.8406 0.8406 0.8406 0.8406 0.8406
2076.000000 0.8406 0.8406 0.8406 0.8406 0.8406
2081.000000 0.8406 0.8406 0.8406 0.8406 0.8406
2086.000000 0.8406 0.8405 0.8405 0.8404 0.8404
2091.000000 0.8403 0.8403 0.8402 0.8402 0.8401
2096.000000 0.8401 0.8400 0.8400 0.8399 0.8398
2101.000000 0.8397 0.8397 0.8396 0.8396 0.8395
2106.000000 0.8395 0.8394 0.8394 0.8393 0.8393
2111.000000 0.8392 0.8392 0.8391 0.8390 0.8389
2116.000000 0.8389 0.8388 0.8388 0.8387 0.8387
2121.000000 0.8386 0.8386 0.8385 0.8385 0.8384
2126.000000 0.8383 0.8383 0.8383 0.8383 0.8383
2131.000000 0.8383 0.8383 0.8383 0.8384 0.8384
2136.000000 0.8384 0.8384 0.8384 0.8384 0.8385
2141.000000 0.8385 0.8385 0.8385 0.8385 0.8385
2146.000000 0.8386 0.8386 0.8386 0.8386 0.8386
2151.000000 0.8386 0.8387 0.8387 0.8387 0.8387
2156.000000 0.8387 0.8387 0.8388 0.8388 0.8388
2161.000000 0.8388 0.8389 0.8389 0.8389 0.8389
2166.000000 0.8389 0.8389 0.8390 0.8390 0.8390
2171.000000 0.8390 0.8391 0.8391 0.8391 0.8391
2176.000000 0.8391 0.8391 0.8392 0.8392 0.8392
2181.000000 0.8392 0.8392 0.8391 0.8390 0.8389
2186.000000 0.8388 0.8387 0.8386 0.8384 0.8383
2191.000000 0.8382 0.8381 0.8380 0.8378 0.8378
2196.000000 0.8377 0.8375 0.8375 0.8373 0.8371
2201.000000 0.8371 0.8370 0.8368 0.8368 0.8366
2206.000000 0.8364 0.8360 0.8357 0.8353 0.8349
2211.000000 0.8345 0.8341 0.8337 0.8333 0.8328
2216.000000 0.8325 0.8321 0.8317 0.8299 0.8281
2221.000000 0.8250 0.8220 0.8186 0.8151 0.8125
2226.000000 0.8100 0.8085 0.8069 0.8068 0.8068
2231.000000 0.8065 0.8065 0.8065 0.8065 0.8067
2236.000000 0.8068 0.8071 0.8060 0.8075 0.8080
2241.000000 0.8084 0.8089 0.8097 0.8105 0.8115
2246.000000 0.8126 0.8145 0.8164 0.8190 0.8216
2251.000000 0.8237 0.8259 0.8271 0.8286 0.8286
2256.000000 0.8286 0.8285 0.8285 0.8282 0.8278
2261.000000 0.8275 0.8271 0.8266 0.8262 0.8259
2266.000000 0.8257 0.8255 0.8253 0.8251 0.8249
2271.000000 0.8246 0.8244 0.8242 0.8242 0.8242
2276.000000 0.8245 0.8246 0.8248 0.8249 0.8251
2281.000000 0.8252 0.8254 0.8255 0.8257 0.8258
2286.000000 0.8260 0.8268 0.8278 0.8297 0.8316
2291.000000 0.8333 0.8350 0.8352 0.8351 0.8351
2296.000000 0.8349 0.8346 0.8344 0.8342 0.8340
2301.000000 0.8338 0.8337 0.8337 0.8337 0.8348
2306.000000 0.8359 0.8375 0.8391 0.8420 0.8449
2311.000000 0.8470 0.8491 0.8504 0.8517 0.8525
2316.000000 0.8533 0.8528 0.8524 0.8518 0.8515
2321.000000 0.8509 0.8503 0.8496 0.8490 0.8483
2326.000000 0.8477 0.8471 0.8465 0.8459 0.8453
2331.000000 0.8447 0.8442 0.8436 0.8431 0.8425
2336.000000 0.8418 0.8413 0.8412 0.8412 0.8416
2341.000000 0.8423 0.8431 0.8438 0.8445 0.8449
2346.000000 0.8454 0.8456 0.8456 0.8456 0.8455
2351.000000 0.8453 0.8452 0.8450 0.8448 0.8446
2356.000000 0.8445 0.8443 0.8441 0.8439 0.8438
2361.000000 0.8436 0.8435 0.8434 0.8433 0.8432
2366.000000 0.8431 0.8430 0.8430 0.8428 0.8428
2371.000000 0.8427 0.8425 0.8425 0.8424 0.8423
2376.000000 0.8421 0.8421 0.8420 0.8418 0.8418
2381.000000 0.8417 0.8416 0.8415 0.8414 0.8413
2386.000000 0.8413 0.8412 0.8411 0.8410 0.8409
2391.000000 0.8408 0.8407 0.8406 0.8406 0.8405
