##TITLE=UREA, METHOXY-
##JCAMP-DX=4.24
##DATA TYPE=INFRARED SPECTRUM
##CLASS=COBLENTZ III
##ORIGIN=SOUTHERN RES. INSTITUTE
##OWNER=COBLENTZ SOCIETY
Collection (C) 2018 copyright by the U.S. Secretary of Commerce
on behalf of the United States of America. All rights reserved.
##DATE=1963/03/27
##NAMES=N-methoxyurea
##CAS REGISTRY NO=3272-27-3
##MOLFORM=C2 H6 N2 O2
##MP=84 C
##SOURCE REFERENCE=COBLENTZ NO. 7756
##$NIST SOURCE=COBLENTZ
##$NIST IMAGE=cob7756
##SPECTROMETER/DATA SYSTEM=PERKIN-ELMER 221 (GRATING)
##INSTRUMENT PARAMETERS=FILTERS AT 980, 2490 CM ^-^1, GRATING FOR 4000-1428 CM^-^1
##STATE=SOLID (0.7 mg / 500 mg KBr DISC)
##SAMPLING PROCEDURE=TRANSMISSION
##RESOLUTION=4
##DATA PROCESSING=DIGITIZED BY NIST FROM HARD COPY
##XUNITS=1/CM
##YUNITS=TRANSMITTANCE
##XFACTOR=1.000000
##YFACTOR=1
##DELTAX=001.517615
##FIRSTX=599.675
##LASTX=4000.65
##FIRSTY=0.469
##MAXX=4000.65
##MINX=599.675
##MAXY=0.803
##MINY=0.124
##NPOINTS=2242
##XYDATA=(X++(Y..Y))
599.675000 0.4690 0.4680 0.4680 0.4680 0.4670
607.266463 0.4660 0.4650 0.4650 0.4640 0.4620
614.851000 0.4590 0.4560 0.4540 0.4520 0.4490
622.442463 0.4460 0.4440 0.4420 0.4400 0.4360
630.027000 0.4340 0.4310 0.4280 0.4270 0.4250
637.618463 0.4250 0.4230 0.4230 0.4220 0.4220
645.203000 0.4220 0.4230 0.4230 0.4250 0.4280
652.794463 0.4310 0.4350 0.4390 0.4430 0.4450
660.379000 0.4480 0.4490 0.4520 0.4540 0.4570
667.970463 0.4600 0.4600 0.4610 0.4610 0.4600
675.556000 0.4590 0.4590 0.4580 0.4560 0.4520
683.147463 0.4460 0.4330 0.4230 0.4170 0.4120
690.732000 0.4060 0.3980 0.3870 0.3710 0.3460
698.323463 0.3370 0.3320 0.3250 0.3210 0.3190
705.908000 0.3180 0.3190 0.3210 0.3280 0.3380
713.499463 0.3490 0.3560 0.3720 0.3870 0.4030
721.084000 0.4210 0.4400 0.4600 0.4800 0.4960
728.675463 0.5090 0.5190 0.5290 0.5370 0.5440
736.260000 0.5500 0.5550 0.5590 0.5800 0.5930
743.851463 0.5990 0.6020 0.6030 0.6030 0.6020
751.436000 0.6020 0.6020 0.6010 0.6010 0.6000
759.027463 0.5990 0.5960 0.5940 0.5880 0.5780
766.612000 0.5710 0.5640 0.5590 0.5550 0.5510
774.203463 0.5470 0.5430 0.5400 0.5340 0.5280
781.789000 0.5210 0.5110 0.4930 0.4780 0.4660
789.380463 0.4560 0.4470 0.4400 0.4330 0.4270
796.965000 0.4210 0.4140 0.4060 0.3970 0.3860
804.556463 0.3770 0.3760 0.3750 0.3750 0.3750
812.141000 0.3760 0.3770 0.3820 0.3870 0.3990
819.732463 0.4100 0.4230 0.4360 0.4500 0.4640
827.317000 0.4780 0.4920 0.5060 0.5180 0.5300
834.908463 0.5410 0.5510 0.5590 0.5650 0.5950
842.493000 0.5960 0.6050 0.6150 0.6280 0.6400
850.084463 0.6500 0.6620 0.6680 0.6750 0.6800
857.669000 0.6870 0.6930 0.7000 0.7070 0.7150
865.260463 0.7230 0.7260 0.7280 0.7430 0.7470
872.846000 0.7520 0.7530 0.7570 0.7590 0.7650
880.437463 0.7720 0.7740 0.7770 0.7790 0.7810
888.022000 0.7840 0.7870 0.7900 0.7930 0.7960
895.613463 0.7960 0.7970 0.7980 0.8000 0.8000
903.198000 0.8000 0.8000 0.8010 0.8030 0.8030
910.789463 0.8030 0.8030 0.8030 0.8030 0.8020
918.374000 0.8000 0.7980 0.7950 0.7920 0.7900
925.965463 0.7870 0.7840 0.7790 0.7670 0.7560
933.550000 0.7460 0.7390 0.7320 0.7280 0.7220
941.141463 0.7040 0.6940 0.6850 0.6610 0.6310
948.726000 0.6070 0.5890 0.5740 0.5620 0.5510
956.317463 0.5400 0.5280 0.5150 0.4300 0.3980
963.902000 0.3660 0.3650 0.3650 0.3710 0.3780
971.493463 0.3860 0.4050 0.4310 0.4510 0.4760
979.079000 0.5000 0.5070 0.5680 0.5870 0.5960
986.670463 0.6020 0.6030 0.6040 0.6030 0.6010
994.255000 0.6000 0.5990 0.5960 0.5940 0.5900
1001.846463 0.5870 0.5820 0.5810 0.5810 0.5900
1009.431000 0.6250 0.6310 0.6510 0.6680 0.6800
1017.022463 0.6890 0.6960 0.7000 0.7030 0.7060
1024.607000 0.7200 0.7250 0.7250 0.7260 0.7260
1032.198463 0.7260 0.7270 0.7270 0.7280 0.7280
1039.783000 0.7270 0.7270 0.7270 0.7260 0.7250
1047.374463 0.7250 0.7250 0.7250 0.7240 0.7230
1054.959000 0.7220 0.7210 0.7180 0.7170 0.7150
1062.550463 0.7140 0.7090 0.7030 0.6930 0.6800
1070.135000 0.6710 0.6670 0.6620 0.6560 0.6440
1077.726463 0.6250 0.6060 0.5760 0.5390 0.5030
1085.312000 0.4620 0.4340 0.4090 0.4020 0.4000
1092.903463 0.4020 0.4070 0.4260 0.4480 0.4700
1100.488000 0.5360 0.5560 0.5700 0.5690 0.5670
1108.079463 0.5650 0.5580 0.5390 0.5270 0.5110
1115.664000 0.4820 0.4470 0.4090 0.3800 0.3770
1123.255463 0.3760 0.3770 0.3830 0.4000 0.4230
1130.840000 0.4430 0.4620 0.4800 0.4970 0.5150
1138.431463 0.5340 0.5560 0.5790 0.6000 0.6080
1146.016000 0.6120 0.6160 0.6160 0.6150 0.6070
1153.607463 0.5980 0.5960 0.5910 0.5910 0.6260
1161.192000 0.6570 0.6820 0.6910 0.7160 0.7250
1168.783463 0.7270 0.7280 0.7270 0.7250 0.7250
1176.369000 0.7250 0.7230 0.7160 0.7150 0.7060
1183.960463 0.6760 0.6510 0.5930 0.5680 0.5360
1191.545000 0.5340 0.5360 0.5490 0.5740 0.6000
1199.136463 0.6210 0.6430 0.6650 0.6870 0.6980
1206.721000 0.7030 0.7110 0.7170 0.7180 0.7180
1214.312463 0.7170 0.7160 0.7160 0.7150 0.7140
1221.897000 0.7120 0.7100 0.7090 0.7060 0.7030
1229.488463 0.6980 0.6950 0.6940 0.6930 0.6930
1237.073000 0.6920 0.6920 0.6910 0.6880 0.6860
1244.664463 0.6840 0.6820 0.6810 0.6790 0.6780
1252.249000 0.6770 0.6770 0.6750 0.6750 0.6740
1259.840463 0.6720 0.6700 0.6690 0.6690 0.6680
1267.426000 0.6680 0.6680 0.6680 0.6680 0.6680
1275.017463 0.6670 0.6670 0.6660 0.6660 0.6640
1282.602000 0.6620 0.6610 0.6600 0.6590 0.6590
1290.193463 0.6580 0.6570 0.6560 0.6560 0.6560
1297.778000 0.6550 0.6540 0.6530 0.6500 0.6490
1305.369463 0.6470 0.6460 0.6460 0.6460 0.6450
1312.954000 0.6450 0.6440 0.6440 0.6440 0.6430
1320.545463 0.6430 0.6400 0.6370 0.6340 0.6290
1328.130000 0.6240 0.6210 0.6200 0.6150 0.6140
1335.721463 0.6120 0.6110 0.6090 0.6080 0.6060
1343.306000 0.6050 0.6030 0.6000 0.5980 0.5960
1350.897463 0.5950 0.5920 0.5880 0.5860 0.5830
1358.482000 0.5780 0.5740 0.5710 0.5680 0.5630
1366.073463 0.5610 0.5590 0.5580 0.5560 0.5550
1373.659000 0.5500 0.5460 0.5390 0.5340 0.5310
1381.250463 0.5270 0.5180 0.5120 0.5070 0.5030
1388.835000 0.4980 0.4910 0.4890 0.4750 0.4500
1396.426463 0.4460 0.4320 0.4180 0.4030 0.3880
1404.011000 0.3740 0.3590 0.3450 0.3450 0.3660
1411.602463 0.4320 0.4810 0.4820 0.4820 0.4600
1419.187000 0.4490 0.4370 0.4250 0.4110 0.4000
1426.778463 0.3880 0.3770 0.3660 0.3550 0.3430
1434.363000 0.3330 0.3330 0.3340 0.3480 0.3620
1441.954463 0.3710 0.3780 0.4280 0.4610 0.4670
1449.539000 0.4670 0.4660 0.4450 0.4330 0.4210
1457.130463 0.4080 0.3960 0.3680 0.3660 0.3660
1464.715000 0.3670 0.3680 0.3710 0.3730 0.3750
1472.306463 0.3770 0.3800 0.3840 0.3870 0.3900
1479.892000 0.3960 0.3960 0.4040 0.4120 0.4200
1487.483463 0.4280 0.4350 0.4420 0.4500 0.4530
1495.068000 0.4620 0.4720 0.4810 0.4880 0.4940
1502.659463 0.5030 0.5060 0.5150 0.5220 0.5270
1510.244000 0.5310 0.5340 0.5370 0.5410 0.5450
1517.835463 0.5500 0.5520 0.5540 0.5560 0.5570
1525.420000 0.5590 0.5610 0.5610 0.5610 0.5610
1533.011463 0.5600 0.5590 0.5580 0.5570 0.5560
1540.596000 0.5540 0.5530 0.5520 0.5500 0.5490
1548.187463 0.5450 0.5400 0.5370 0.5320 0.5290
1555.772000 0.5220 0.5140 0.5050 0.5030 0.5010
1563.363463 0.4900 0.4730 0.4580 0.4460 0.4340
1570.948000 0.4240 0.4130 0.4020 0.3890 0.3720
1578.539463 0.3550 0.3360 0.3170 0.3000 0.2840
1586.125000 0.2720 0.2640 0.2520 0.2370 0.2360
1593.716463 0.2350 0.2360 0.2390 0.2400 0.2460
1601.301000 0.2520 0.2580 0.2620 0.2640 0.2680
1608.892463 0.2750 0.2810 0.2820 0.2840 0.2850
1616.477000 0.2840 0.2830 0.2810 0.2760 0.2690
1624.068463 0.2650 0.2640 0.2620 0.2600 0.2550
1631.653000 0.2480 0.2370 0.2250 0.2120 0.1990
1639.244463 0.1860 0.1750 0.1650 0.1580 0.1540
1646.829000 0.1460 0.1400 0.1370 0.1310 0.1290
1654.420463 0.1260 0.1250 0.1240 0.1250 0.1250
1662.005000 0.1280 0.1300 0.1320 0.1340 0.1370
1669.596463 0.1390 0.1430 0.1470 0.1520 0.1570
1677.182000 0.1620 0.1620 0.1690 0.1760 0.1830
1684.773463 0.1900 0.1960 0.1970 0.2020 0.2150
1692.358000 0.2310 0.2430 0.2520 0.2580 0.2750
1699.949463 0.2910 0.3040 0.3160 0.3260 0.3350
1707.534000 0.3420 0.3490 0.3540 0.3590 0.3620
1715.125463 0.3650 0.3680 0.3780 0.3870 0.3990
1722.710000 0.4060 0.4110 0.4140 0.4150 0.4180
1730.301463 0.4230 0.4270 0.4310 0.4350 0.4400
1737.886000 0.4460 0.4510 0.4570 0.4630 0.4680
1745.477463 0.4740 0.4790 0.4840 0.4870 0.4910
1753.062000 0.4930 0.4930 0.4990 0.5020 0.5030
1760.653463 0.5060 0.5090 0.5110 0.5150 0.5180
1768.239000 0.5200 0.5230 0.5250 0.5270 0.5320
1775.830463 0.5360 0.5390 0.5410 0.5420 0.5450
1783.415000 0.5460 0.5480 0.5500 0.5510 0.5520
1791.006463 0.5530 0.5530 0.5590 0.5620 0.5650
1798.591000 0.5680 0.5690 0.5720 0.5750 0.5800
1806.182463 0.5830 0.5850 0.5870 0.5890 0.5900
1813.767000 0.5910 0.5920 0.5930 0.5960 0.5980
1821.358463 0.6010 0.6050 0.6090 0.6130 0.6150
1828.943000 0.6170 0.6180 0.6190 0.6200 0.6210
1836.534463 0.6210 0.6240 0.6290 0.6310 0.6320
1844.119000 0.6340 0.6360 0.6370 0.6400 0.6410
1851.710463 0.6460 0.6480 0.6500 0.6500 0.6500
1859.295000 0.6520 0.6530 0.6540 0.6550 0.6560
1866.886463 0.6560 0.6570 0.6580 0.6590 0.6610
1874.472000 0.6620 0.6630 0.6640 0.6650 0.6650
1882.063463 0.6670 0.6680 0.6690 0.6700 0.6710
1889.648000 0.6710 0.6760 0.6770 0.6780 0.6780
1897.239463 0.6780 0.6790 0.6800 0.6810 0.6810
1904.824000 0.6840 0.6850 0.6870 0.6880 0.6890
1912.415463 0.6900 0.6920 0.6930 0.6930 0.6940
1920.000000 0.6950 0.6960 0.6980 0.6990 0.7000
1927.591463 0.7010 0.7020 0.7020 0.7030 0.7040
1935.176000 0.7040 0.7050 0.7060 0.7070 0.7090
1942.767463 0.7090 0.7090 0.7090 0.7100 0.7100
1950.352000 0.7110 0.7120 0.7120 0.7120 0.7130
1957.943463 0.7130 0.7130 0.7140 0.7140 0.7150
1965.528000 0.7150 0.7150 0.7160 0.7170 0.7170
1973.119463 0.7180 0.7180 0.7180 0.7190 0.7200
1980.705000 0.7200 0.7210 0.7210 0.7210 0.7220
1988.296463 0.7230 0.7230 0.7240 0.7250 0.7250
1995.881000 0.7250 0.7250 0.7250 0.7260 0.7260
2003.472463 0.7270 0.7270 0.7280 0.7320 0.7330
2011.057000 0.7340 0.7340 0.7340 0.7350 0.7360
2018.648463 0.7370 0.7370 0.7370 0.7370 0.7380
2026.233000 0.7380 0.7390 0.7390 0.7400 0.7400
2033.824463 0.7400 0.7400 0.7400 0.7400 0.7400
2041.409000 0.7400 0.7410 0.7410 0.7410 0.7410
2049.000463 0.7410 0.7420 0.7420 0.7420 0.7420
2056.585000 0.7420 0.7430 0.7430 0.7430 0.7430
2064.176463 0.7430 0.7440 0.7440 0.7440 0.7450
2071.761000 0.7450 0.7450 0.7450 0.7450 0.7450
2079.352463 0.7460 0.7460 0.7460 0.7460 0.7460
2086.938000 0.7460 0.7460 0.7460 0.7470 0.7480
2094.529463 0.7490 0.7490 0.7500 0.7500 0.7500
2102.114000 0.7500 0.7500 0.7510 0.7510 0.7510
2109.705463 0.7510 0.7520 0.7520 0.7520 0.7520
2117.290000 0.7520 0.7530 0.7530 0.7530 0.7530
2124.881463 0.7530 0.7530 0.7530 0.7530 0.7530
2132.466000 0.7530 0.7540 0.7540 0.7540 0.7540
2140.057463 0.7540 0.7540 0.7550 0.7550 0.7550
2147.642000 0.7550 0.7550 0.7550 0.7560 0.7560
2155.233463 0.7560 0.7560 0.7560 0.7560 0.7560
2162.818000 0.7560 0.7560 0.7560 0.7560 0.7560
2170.409463 0.7560 0.7560 0.7560 0.7560 0.7560
2177.995000 0.7560 0.7560 0.7560 0.7560 0.7560
2185.586463 0.7560 0.7560 0.7560 0.7560 0.7560
2193.171000 0.7560 0.7560 0.7560 0.7560 0.7560
2200.762463 0.7560 0.7560 0.7560 0.7560 0.7560
2208.347000 0.7560 0.7560 0.7560 0.7560 0.7560
2215.938463 0.7560 0.7560 0.7560 0.7560 0.7560
2223.523000 0.7560 0.7560 0.7560 0.7560 0.7560
2231.114463 0.7560 0.7560 0.7560 0.7560 0.7550
2238.699000 0.7550 0.7540 0.7530 0.7510 0.7490
2246.290463 0.7480 0.7480 0.7480 0.7480 0.7490
2253.875000 0.7490 0.7490 0.7500 0.7500 0.7500
2261.466463 0.7500 0.7510 0.7510 0.7520 0.7530
2269.052000 0.7530 0.7530 0.7530 0.7540 0.7550
2276.643463 0.7550 0.7560 0.7560 0.7560 0.7570
2284.228000 0.7570 0.7590 0.7590 0.7600 0.7600
2291.819463 0.7610 0.7610 0.7610 0.7620 0.7620
2299.404000 0.7620 0.7620 0.7620 0.7620 0.7610
2306.995463 0.7610 0.7610 0.7610 0.7610 0.7610
2314.580000 0.7610 0.7610 0.7610 0.7610 0.7610
2322.171463 0.7610 0.7610 0.7610 0.7610 0.7610
2329.756000 0.7610 0.7610 0.7610 0.7610 0.7610
2337.347463 0.7620 0.7620 0.7620 0.7620 0.7620
2344.932000 0.7620 0.7620 0.7620 0.7620 0.7620
2352.523463 0.7620 0.7620 0.7620 0.7630 0.7630
2360.108000 0.7630 0.7630 0.7630 0.7630 0.7640
2367.699463 0.7640 0.7640 0.7640 0.7640 0.7640
2375.285000 0.7650 0.7650 0.7650 0.7660 0.7660
2382.876463 0.7670 0.7680 0.7680 0.7680 0.7680
2390.461000 0.7690 0.7690 0.7690 0.7690 0.7690
2398.052463 0.7690 0.7690 0.7680 0.7680 0.7680
2405.637000 0.7680 0.7680 0.7670 0.7670 0.7670
2413.228463 0.7660 0.7660 0.7660 0.7650 0.7650
2420.813000 0.7650 0.7650 0.7650 0.7650 0.7650
2428.404463 0.7650 0.7660 0.7660 0.7660 0.7660
2435.989000 0.7660 0.7660 0.7670 0.7670 0.7670
2443.580463 0.7670 0.7670 0.7670 0.7660 0.7650
2451.165000 0.7650 0.7650 0.7650 0.7640 0.7640
2458.756463 0.7630 0.7620 0.7620 0.7610 0.7600
2466.342000 0.7590 0.7590 0.7590 0.7590 0.7590
2473.933463 0.7590 0.7600 0.7610 0.7620 0.7620
2481.518000 0.7640 0.7650 0.7660 0.7670 0.7670
2489.109463 0.7680 0.7680 0.7680 0.7680 0.7680
2496.694000 0.7680 0.7680 0.7680 0.7680 0.7680
2504.285463 0.7680 0.7680 0.7670 0.7670 0.7670
2511.870000 0.7660 0.7660 0.7650 0.7650 0.7650
2519.461463 0.7650 0.7650 0.7650 0.7640 0.7640
2527.046000 0.7630 0.7620 0.7620 0.7620 0.7620
2534.637463 0.7610 0.7600 0.7590 0.7590 0.7590
2542.222000 0.7590 0.7580 0.7580 0.7570 0.7560
2549.813463 0.7560 0.7560 0.7550 0.7550 0.7540
2557.398000 0.7540 0.7540 0.7530 0.7530 0.7530
2564.989463 0.7530 0.7530 0.7530 0.7520 0.7520
2572.574000 0.7520 0.7510 0.7510 0.7510 0.7500
2580.165463 0.7500 0.7500 0.7500 0.7500 0.7500
2587.751000 0.7490 0.7490 0.7490 0.7480 0.7480
2595.342463 0.7480 0.7480 0.7480 0.7480 0.7480
2602.927000 0.7480 0.7480 0.7480 0.7490 0.7490
2610.518463 0.7500 0.7500 0.7500 0.7500 0.7500
2618.103000 0.7500 0.7500 0.7500 0.7500 0.7500
2625.694463 0.7490 0.7490 0.7480 0.7480 0.7480
2633.279000 0.7480 0.7480 0.7490 0.7490 0.7490
2640.870463 0.7490 0.7480 0.7480 0.7470 0.7460
2648.455000 0.7430 0.7400 0.7370 0.7340 0.7310
2656.046463 0.7310 0.7300 0.7290 0.7290 0.7280
2663.631000 0.7280 0.7280 0.7270 0.7260 0.7250
2671.222463 0.7250 0.7250 0.7240 0.7240 0.7230
2678.808000 0.7210 0.7210 0.7210 0.7200 0.7190
2686.399463 0.7190 0.7180 0.7180 0.7170 0.7170
2693.984000 0.7160 0.7150 0.7140 0.7140 0.7140
2701.575463 0.7130 0.7130 0.7120 0.7120 0.7120
2709.160000 0.7120 0.7110 0.7110 0.7100 0.7100
2716.751463 0.7090 0.7090 0.7090 0.7090 0.7080
2724.336000 0.7070 0.7060 0.7060 0.7060 0.7050
2731.927463 0.7040 0.7030 0.7030 0.7030 0.7020
2739.512000 0.7010 0.7010 0.7000 0.7000 0.6990
2747.103463 0.6980 0.6960 0.6930 0.6900 0.6890
2754.688000 0.6880 0.6870 0.6850 0.6820 0.6810
2762.279463 0.6790 0.6770 0.6740 0.6710 0.6590
2769.865000 0.6560 0.6540 0.6520 0.6500 0.6480
2777.456463 0.6460 0.6440 0.6430 0.6430 0.6420
2785.041000 0.6410 0.6400 0.6400 0.6390 0.6390
2792.632463 0.6380 0.6370 0.6370 0.6360 0.6350
2800.217000 0.6340 0.6320 0.6250 0.6140 0.6060
2807.808463 0.5990 0.5910 0.5840 0.5760 0.5690
2815.393000 0.5620 0.5540 0.5460 0.5400 0.5340
2822.984463 0.5340 0.5490 0.5570 0.5650 0.5790
2830.569000 0.5790 0.5780 0.5680 0.5620 0.5610
2838.160463 0.5500 0.5390 0.5290 0.5270 0.5250
2845.745000 0.5240 0.5230 0.5220 0.5220 0.5220
2853.336463 0.5210 0.5210 0.5210 0.5210 0.5210
2860.921000 0.5210 0.5220 0.5220 0.5220 0.5220
2868.512463 0.5220 0.5220 0.5220 0.5220 0.5210
2876.098000 0.5210 0.5210 0.5210 0.5200 0.5200
2883.689463 0.5190 0.5190 0.5180 0.5180 0.5180
2891.274000 0.5180 0.5160 0.5150 0.5150 0.5140
2898.865463 0.5130 0.5120 0.5120 0.5110 0.5100
2906.450000 0.5090 0.5080 0.5070 0.5060 0.5060
2914.041463 0.5050 0.5040 0.5030 0.5020 0.5020
2921.626000 0.5010 0.5000 0.4970 0.4960 0.4930
2929.217463 0.4930 0.4900 0.4900 0.4880 0.4870
2936.802000 0.4850 0.4840 0.4810 0.4810 0.4780
2944.393463 0.4770 0.4750 0.4730 0.4690 0.4680
2951.978000 0.4660 0.4650 0.4630 0.4630 0.4620
2959.569463 0.4620 0.4610 0.4600 0.4600 0.4590
2967.155000 0.4590 0.4590 0.4590 0.4590 0.4600
2974.746463 0.4600 0.4600 0.4610 0.4610 0.4610
2982.331000 0.4620 0.4620 0.4630 0.4640 0.4650
2989.922463 0.4660 0.4670 0.4680 0.4680 0.4700
2997.507000 0.4710 0.4720 0.4740 0.4750 0.4760
3005.098463 0.4770 0.4780 0.4790 0.4790 0.4790
3012.683000 0.4780 0.4780 0.4770 0.4760 0.4750
3020.274463 0.4750 0.4740 0.4730 0.4710 0.4710
3027.859000 0.4700 0.4680 0.4680 0.4650 0.4620
3035.450463 0.4590 0.4570 0.4550 0.4530 0.4500
3043.035000 0.4480 0.4460 0.4430 0.4430 0.4420
3050.626463 0.4390 0.4370 0.4360 0.4350 0.4340
3058.211000 0.4310 0.4290 0.4280 0.4260 0.4250
3065.802463 0.4240 0.4220 0.4200 0.4180 0.4150
3073.387000 0.4150 0.4140 0.4130 0.4120 0.4110
3080.978463 0.4100 0.4070 0.4030 0.4000 0.3990
3088.564000 0.3970 0.3960 0.3940 0.3930 0.3900
3096.155463 0.3870 0.3840 0.3830 0.3820 0.3810
3103.740000 0.3810 0.3790 0.3750 0.3740 0.3730
3111.331463 0.3710 0.3690 0.3680 0.3680 0.3660
3118.916000 0.3640 0.3620 0.3590 0.3560 0.3520
3126.507463 0.3490 0.3450 0.3420 0.3380 0.3360
3134.092000 0.3330 0.3320 0.3310 0.3300 0.3280
3141.683463 0.3270 0.3210 0.3110 0.3020 0.2940
3149.268000 0.2900 0.2870 0.2850 0.2820 0.2810
3156.859463 0.2800 0.2760 0.2750 0.2650 0.2590
3164.445000 0.2520 0.2460 0.2410 0.2370 0.2350
3172.036463 0.2340 0.2340 0.2330 0.2320 0.2310
3179.621000 0.2310 0.2300 0.2290 0.2290 0.2280
3187.212463 0.2270 0.2270 0.2260 0.2260 0.2260
3194.797000 0.2260 0.2260 0.2250 0.2250 0.2250
3202.388463 0.2250 0.2250 0.2250 0.2250 0.2260
3209.973000 0.2260 0.2260 0.2270 0.2270 0.2270
3217.564463 0.2280 0.2280 0.2280 0.2280 0.2300
3225.149000 0.2310 0.2310 0.2330 0.2340 0.2370
3232.740463 0.2390 0.2410 0.2440 0.2470 0.2500
3240.325000 0.2540 0.2560 0.2590 0.2620 0.2650
3247.916463 0.2660 0.2680 0.2680 0.2680 0.2690
3255.501000 0.2700 0.2700 0.2700 0.2700 0.2700
3263.092463 0.2710 0.2710 0.2710 0.2710 0.2710
3270.677000 0.2710 0.2720 0.2720 0.2720 0.2730
3278.268463 0.2730 0.2730 0.2740 0.2750 0.2760
3285.854000 0.2770 0.2770 0.2780 0.2780 0.2790
3293.445463 0.2800 0.2810 0.2810 0.2820 0.2830
3301.030000 0.2840 0.2840 0.2850 0.2860 0.2860
3308.621463 0.2870 0.2870 0.2880 0.2880 0.2880
3316.206000 0.2890 0.2890 0.2890 0.2890 0.2890
3323.797463 0.2890 0.2890 0.2890 0.2880 0.2880
3331.382000 0.2870 0.2870 0.2860 0.2850 0.2840
3338.973463 0.2830 0.2810 0.2790 0.2760 0.2740
3346.558000 0.2730 0.2730 0.2720 0.2710 0.2710
3354.149463 0.2700 0.2690 0.2680 0.2680 0.2670
3361.734000 0.2660 0.2650 0.2640 0.2630 0.2620
3369.325463 0.2610 0.2610 0.2590 0.2570 0.2560
3376.911000 0.2540 0.2510 0.2460 0.2370 0.2280
3384.502463 0.2210 0.2160 0.2120 0.2080 0.2050
3392.087000 0.2030 0.2000 0.1980 0.1960 0.1930
3399.678463 0.1900 0.1860 0.1810 0.1770 0.1760
3407.263000 0.1750 0.1760 0.1770 0.1780 0.1810
3414.854463 0.1840 0.1890 0.1950 0.2020 0.2090
3422.439000 0.2150 0.2210 0.2270 0.2310 0.2340
3430.030463 0.2380 0.2400 0.2420 0.2450 0.2500
3437.615000 0.2590 0.2610 0.2670 0.2680 0.2680
3445.206463 0.2710 0.2730 0.2780 0.2800 0.2850
3452.791000 0.2930 0.2970 0.3000 0.3040 0.3080
3460.382463 0.3120 0.3150 0.3160 0.3170 0.3180
3467.968000 0.3200 0.3210 0.3280 0.3320 0.3340
3475.559463 0.3410 0.3460 0.3470 0.3500 0.3530
3483.144000 0.3560 0.3580 0.3610 0.3640 0.3670
3490.735463 0.3710 0.3740 0.3770 0.3810 0.3830
3498.320000 0.3840 0.3860 0.3880 0.3890 0.3920
3505.911463 0.3950 0.4000 0.4060 0.4120 0.4160
3513.496000 0.4190 0.4210 0.4210 0.4220 0.4250
3521.087463 0.4280 0.4340 0.4350 0.4400 0.4400
3528.672000 0.4420 0.4430 0.4430 0.4450 0.4460
3536.263463 0.4480 0.4500 0.4530 0.4570 0.4600
3543.848000 0.4630 0.4650 0.4670 0.4670 0.4680
3551.439463 0.4680 0.4700 0.4710 0.4710 0.4730
3559.024000 0.4750 0.4750 0.4770 0.4780 0.4800
3566.615463 0.4810 0.4820 0.4830 0.4840 0.4850
3574.201000 0.4860 0.4870 0.4870 0.4900 0.4930
3581.792463 0.4960 0.4980 0.5000 0.5020 0.5040
3589.377000 0.5050 0.5060 0.5070 0.5080 0.5090
3596.968463 0.5110 0.5120 0.5120 0.5150 0.5150
3604.553000 0.5180 0.5190 0.5210 0.5210 0.5240
3612.144463 0.5270 0.5280 0.5300 0.5310 0.5310
3619.729000 0.5320 0.5330 0.5340 0.5340 0.5360
3627.320463 0.5370 0.5370 0.5380 0.5390 0.5400
3634.905000 0.5410 0.5420 0.5430 0.5430 0.5440
3642.496463 0.5450 0.5460 0.5460 0.5470 0.5480
3650.081000 0.5490 0.5500 0.5500 0.5510 0.5520
3657.672463 0.5520 0.5530 0.5530 0.5530 0.5530
3665.258000 0.5540 0.5540 0.5550 0.5550 0.5560
3672.849463 0.5560 0.5560 0.5560 0.5560 0.5570
