##TITLE=Acetonitrile, dichlorofluoro-
##JCAMP-DX=4.24
##DATA TYPE=INFRARED SPECTRUM
##CLASS=COBLENTZ
##ORIGIN=DOW CHEMICAL COMPANY
##OWNER=Copyright (C) 1987 by the Coblentz Society
Collection (C) 2018 copyright by the U.S. Secretary of Commerce
on behalf of the United States of America. All rights reserved.
##DATE=1964
##NAMES=dichloro(fluoro)acetonitrile
##CAS REGISTRY NO=353-82-2
##MOLFORM=C2 Cl2 F N
##SOURCE REFERENCE=COBLENTZ NO. 8809
##$NIST SOURCE=COBLENTZ
##$NIST IMAGE=cob8809
##SPECTROMETER/DATA SYSTEM=DOW KBr FOREPRISM-GRATING
##INSTRUMENT PARAMETERS=GRATING CHANGED AT 5.0, 7.5, 15.0 MICRON
##STATE=GAS (100 mmHg, N2 ADDED, TOTAL PRESSURE 600 mmHg)
##PATH LENGTH=5 CM
##SAMPLING PROCEDURE=TRANSMISSION
##RESOLUTION=2
##DATA PROCESSING=DIGITIZED BY COBLENTZ SOCIETY (BATCH II) FROM HARD COPY
##XUNITS=1/CM
##YUNITS=TRANSMITTANCE
##XFACTOR=1.0
##YFACTOR=1
##FIRSTX=457
##LASTX=3788
##FIRSTY=0.8269
##MAXX=3788
##MINX=457
##MAXY=0.889
##MINY=0.0048
##NPOINTS=3332
##XYDATA=(X++(Y..Y))
457.000000 0.8269 0.8260 0.8251 0.8238 0.8223
462.000000 0.8208 0.8189 0.8168 0.8146 0.8125
467.000000 0.8104 0.8071 0.8035 0.7999 0.7954
472.000000 0.7901 0.7847 0.7794 0.7730 0.7664
477.000000 0.7599 0.7482 0.7306 0.6493 0.6103
482.000000 0.5713 0.5323 0.4933 0.4543 0.4123
487.000000 0.3563 0.3409 0.3304 0.3233 0.3193
492.000000 0.3149 0.2872 0.2804 0.2786 0.2787
497.000000 0.2827 0.2935 0.3390 0.3845 0.4301
502.000000 0.4756 0.5211 0.5667 0.6122 0.6577
507.000000 0.7033 0.7488 0.7903 0.8194 0.8232
512.000000 0.8271 0.8302 0.8331 0.8350 0.8367
517.000000 0.8383 0.8400 0.8415 0.8429 0.8443
522.000000 0.8457 0.8471 0.8484 0.8493 0.8503
527.000000 0.8513 0.8523 0.8533 0.8542 0.8549
532.000000 0.8556 0.8563 0.8571 0.8578 0.8583
537.000000 0.8588 0.8592 0.8597 0.8602 0.8607
542.000000 0.8611 0.8616 0.8619 0.8621 0.8624
547.000000 0.8626 0.8629 0.8606 0.8633 0.8636
552.000000 0.8637 0.8637 0.8638 0.8638 0.8639
557.000000 0.8639 0.8640 0.8640 0.8641 0.8644
562.000000 0.8647 0.8649 0.8652 0.8655 0.8658
567.000000 0.8661 0.8664 0.8667 0.8670 0.8673
572.000000 0.8677 0.8681 0.8685 0.8690 0.8694
577.000000 0.8698 0.8702 0.8706 0.8710 0.8714
582.000000 0.8718 0.8723 0.8727 0.8722 0.8700
587.000000 0.8668 0.8634 0.8582 0.8516 0.8440
592.000000 0.8375 0.8310 0.8228 0.8142 0.8054
597.000000 0.7976 0.7906 0.7861 0.7815 0.7779
602.000000 0.7667 0.7481 0.7296 0.7110 0.7088
607.000000 0.7095 0.7115 0.7747 0.7741 0.7719
612.000000 0.7701 0.7706 0.7730 0.7760 0.7812
617.000000 0.7881 0.7996 0.8146 0.8402 0.8492
622.000000 0.8554 0.8554 0.8581 0.8545 0.8537
627.000000 0.8505 0.8451 0.8396 0.8312 0.8223
632.000000 0.8133 0.8043 0.7952 0.7861 0.7792
637.000000 0.7725 0.7683 0.7642 0.7604 0.7569
642.000000 0.7527 0.7455 0.7368 0.7371 0.7378
647.000000 0.7352 0.7401 0.7444 0.7493 0.7533
652.000000 0.7573 0.7614 0.7656 0.7699 0.7743
657.000000 0.7787 0.7831 0.7868 0.7904 0.7940
662.000000 0.7969 0.7997 0.8003 0.8007 0.8009
667.000000 0.8012 0.8045 0.8120 0.8198 0.8270
672.000000 0.8331 0.8390 0.8433 0.8465 0.8497
677.000000 0.8527 0.8547 0.8568 0.8588 0.8598
682.000000 0.8606 0.8614 0.8622 0.8630 0.8637
687.000000 0.8641 0.8646 0.8650 0.8655 0.8660
692.000000 0.8664 0.8669 0.8673 0.8677 0.8679
697.000000 0.8681 0.8682 0.8684 0.8685 0.8687
702.000000 0.8688 0.8690 0.8692 0.8692 0.8708
707.000000 0.8689 0.8688 0.8687 0.8686 0.8682
712.000000 0.8676 0.8670 0.8663 0.8657 0.8651
717.000000 0.8645 0.8640 0.8636 0.8631 0.8626
722.000000 0.8626 0.8625 0.8624 0.8623 0.8623
727.000000 0.8626 0.8637 0.8648 0.8660 0.8671
732.000000 0.8676 0.8681 0.8685 0.8689 0.8694
737.000000 0.8689 0.8676 0.8662 0.8647 0.8621
742.000000 0.8596 0.8571 0.8529 0.8480 0.8431
747.000000 0.8381 0.8331 0.8281 0.8240 0.8201
752.000000 0.8162 0.8124 0.8099 0.8075 0.8051
757.000000 0.8028 0.8012 0.7996 0.7988 0.7979
762.000000 0.7938 0.7892 0.7840 0.7805 0.7813
767.000000 0.7823 0.7840 0.7875 0.7894 0.7892
772.000000 0.7902 0.7855 0.7829 0.7809 0.7813
777.000000 0.7812 0.7829 0.7905 0.8046 0.8089
782.000000 0.8105 0.8114 0.8122 0.8136 0.8161
787.000000 0.8253 0.8390 0.8446 0.8451 0.8442
792.000000 0.8438 0.8419 0.8387 0.8350 0.8291
797.000000 0.8232 0.8159 0.8099 0.8041 0.7983
802.000000 0.7924 0.7863 0.7797 0.7717 0.7614
807.000000 0.7511 0.7380 0.7244 0.7118 0.6993
812.000000 0.6869 0.6722 0.6571 0.6387 0.6133
817.000000 0.5854 0.4812 0.4445 0.4079 0.3712
822.000000 0.3345 0.2979 0.2612 0.1147 0.0836
827.000000 0.0670 0.0502 0.0188 0.0114 0.0076
832.000000 0.0057 0.0049 0.0049 0.0049 0.0048
837.000000 0.0049 0.0049 0.0050 0.0050 0.0051
842.000000 0.0051 0.0052 0.0053 0.0056 0.0056
847.000000 0.0057 0.0059 0.0060 0.0062 0.0063
852.000000 0.0064 0.0065 0.0065 0.0066 0.0066
857.000000 0.0067 0.0067 0.0069 0.0074 0.0078
862.000000 0.0083 0.0088 0.0096 0.0106 0.0132
867.000000 0.0207 0.0527 0.0848 0.1169 0.1490
872.000000 0.1811 0.2119 0.2329 0.2753 0.3726
877.000000 0.4699 0.5673 0.6333 0.6472 0.6585
882.000000 0.6685 0.7364 0.7472 0.7580 0.7682
887.000000 0.7762 0.7843 0.7923 0.8031 0.8160
892.000000 0.8256 0.8325 0.8393 0.8417 0.8441
897.000000 0.8461 0.8466 0.8470 0.8475 0.8503
902.000000 0.8473 0.8470 0.8462 0.8455 0.8448
907.000000 0.8441 0.8434 0.8428 0.8422 0.8416
912.000000 0.8409 0.8401 0.8394 0.8386 0.8378
917.000000 0.8369 0.8358 0.8348 0.8337 0.8320
922.000000 0.8298 0.8275 0.8253 0.8222 0.8191
927.000000 0.8160 0.8128 0.8090 0.8047 0.8002
932.000000 0.7948 0.7893 0.7838 0.7776 0.7707
937.000000 0.7637 0.7565 0.7480 0.7395 0.7308
942.000000 0.7142 0.6966 0.6773 0.6394 0.6113
947.000000 0.5899 0.5519 0.5058 0.4597 0.4136
952.000000 0.3675 0.3271 0.3054 0.2903 0.2585
957.000000 0.1969 0.1650 0.1406 0.1189 0.1047
962.000000 0.0679 0.0513 0.0434 0.0383 0.0377
967.000000 0.0375 0.0380 0.0384 0.0373 0.0289
972.000000 0.0249 0.0254 0.0283 0.0229 0.0357
977.000000 0.0382 0.0386 0.0387 0.0388 0.0392
982.000000 0.0398 0.0420 0.0472 0.0532 0.0593
987.000000 0.0662 0.0724 0.0741 0.0722 0.0750
992.000000 0.0650 0.0588 0.0527 0.0495 0.0544
997.000000 0.0585 0.0578 0.0567 0.0448 0.0382
1002.000000 0.0122 0.0089 0.0088 0.0085 0.0083
1007.000000 0.0080 0.0079 0.0078 0.0076 0.0075
1012.000000 0.0074 0.0073 0.0065 0.0075 0.0077
1017.000000 0.0078 0.0079 0.0080 0.0083 0.0085
1022.000000 0.0088 0.0091 0.0097 0.0106 0.0114
1027.000000 0.0134 0.0168 0.0237 0.0562 0.1205
1032.000000 0.2045 0.2886 0.3727 0.4845 0.5286
1037.000000 0.5728 0.6170 0.6612 0.7678 0.7843
1042.000000 0.8015 0.8160 0.8269 0.8336 0.8399
1047.000000 0.8447 0.8463 0.8469 0.8475 0.8477
1052.000000 0.8477 0.8474 0.8466 0.8449 0.8431
1057.000000 0.8404 0.8362 0.8319 0.8275 0.8206
1062.000000 0.8127 0.8042 0.7956 0.7855 0.7755
1067.000000 0.7621 0.7466 0.7302 0.7134 0.6917
1072.000000 0.6667 0.6141 0.5999 0.5848 0.5529
1077.000000 0.5210 0.4892 0.4026 0.3704 0.3289
1082.000000 0.3106 0.2997 0.2877 0.2752 0.2515
1087.000000 0.2238 0.2055 0.1915 0.1787 0.1724
1092.000000 0.1710 0.1550 0.1413 0.1280 0.1129
1097.000000 0.0920 0.0659 0.0510 0.0368 0.0183
1102.000000 0.0122 0.0091 0.0081 0.0072 0.0072
1107.000000 0.0072 0.0073 0.0074 0.0075 0.0074
1112.000000 0.0073 0.0072 0.0073 0.0074 0.0071
1117.000000 0.0077 0.0080 0.0083 0.0086 0.0089
1122.000000 0.0092 0.0095 0.0098 0.0101 0.0104
1127.000000 0.0109 0.0117 0.0125 0.0145 0.0254
1132.000000 0.0342 0.0717 0.1022 0.1604 0.2185
1137.000000 0.2766 0.3905 0.4796 0.5687 0.6579
1142.000000 0.7097 0.7294 0.7378 0.7397 0.7415
1147.000000 0.7434 0.7539 0.7710 0.7865 0.8029
1152.000000 0.8149 0.8199 0.8249 0.8296 0.8324
1157.000000 0.8351 0.8379 0.8404 0.8421 0.8438
1162.000000 0.8455 0.8468 0.8469 0.8469 0.8470
1167.000000 0.8464 0.8466 0.8453 0.8440 0.8427
1172.000000 0.8412 0.8388 0.8364 0.8339 0.8313
1177.000000 0.8286 0.8259 0.8233 0.8215 0.8202
1182.000000 0.8189 0.8176 0.8164 0.8152 0.8123
1187.000000 0.8087 0.8044 0.7998 0.7952 0.7905
1192.000000 0.7855 0.7805 0.7756 0.7699 0.7634
1197.000000 0.7570 0.7522 0.7476 0.7429 0.7397
1202.000000 0.7375 0.7353 0.7330 0.7310 0.7292
1207.000000 0.7274 0.7263 0.7259 0.7254 0.7463
1212.000000 0.7597 0.7676 0.7706 0.7723 0.7738
1217.000000 0.7752 0.7767 0.7783 0.7798 0.7814
1222.000000 0.7830 0.7849 0.7869 0.7904 0.7978
1227.000000 0.8046 0.8111 0.8167 0.8223 0.8253
1232.000000 0.8279 0.8306 0.8322 0.8327 0.8332
1237.000000 0.8338 0.8373 0.8328 0.8322 0.8309
1242.000000 0.8296 0.8283 0.8270 0.8257 0.8243
1247.000000 0.8229 0.8215 0.8212 0.8210 0.8209
1252.000000 0.8207 0.8208 0.8215 0.8222 0.8229
1257.000000 0.8236 0.8243 0.8250 0.8257 0.8263
1262.000000 0.8270 0.8276 0.8276 0.8277 0.8278
1267.000000 0.8278 0.8279 0.8279 0.8272 0.8264
1272.000000 0.8257 0.8238 0.8219 0.8200 0.8183
1277.000000 0.8167 0.8151 0.8151 0.8151 0.8151
1282.000000 0.8147 0.8140 0.8121 0.8083 0.8033
1287.000000 0.7968 0.7902 0.7888 0.7898 0.7929
1292.000000 0.8050 0.8171 0.8224 0.8252 0.8275
1297.000000 0.8298 0.8322 0.8346 0.8366 0.8381
1302.000000 0.8397 0.8413 0.8426 0.8438 0.8451
1307.000000 0.8463 0.8474 0.8493 0.8478 0.8480
1312.000000 0.8474 0.8465 0.8457 0.8448 0.8439
1317.000000 0.8423 0.8407 0.8391 0.8376 0.8360
1322.000000 0.8344 0.8331 0.8318 0.8305 0.8291
1327.000000 0.8278 0.8266 0.8257 0.8249 0.8241
1332.000000 0.8232 0.8224 0.8216 0.8208 0.8204
1337.000000 0.8201 0.8197 0.8193 0.8190 0.8190
1342.000000 0.8192 0.8194 0.8196 0.8201 0.8200
1347.000000 0.8202 0.8204 0.8208 0.8213 0.8217
1352.000000 0.8222 0.8227 0.8231 0.8242 0.8253
1357.000000 0.8264 0.8276 0.8292 0.8314 0.8336
1362.000000 0.8359 0.8381 0.8406 0.8432 0.8458
1367.000000 0.8484 0.8510 0.8537 0.8564 0.8591
1372.000000 0.8618 0.8644 0.8672 0.8701 0.8729
1377.000000 0.8758 0.8782 0.8791 0.8796 0.8782
1382.000000 0.8795 0.8754 0.8740 0.8726 0.8713
1387.000000 0.8701 0.8689 0.8677 0.8666 0.8664
1392.000000 0.8663 0.8663 0.8663 0.8663 0.8663
1397.000000 0.8663 0.8663 0.8663 0.8663 0.8664
1402.000000 0.8664 0.8665 0.8665 0.8666 0.8666
1407.000000 0.8666 0.8665 0.8665 0.8664 0.8664
1412.000000 0.8664 0.8663 0.8663 0.8662 0.8662
1417.000000 0.8662 0.8661 0.8661 0.8661 0.8660
1422.000000 0.8660 0.8660 0.8659 0.8659 0.8659
1427.000000 0.8658 0.8658 0.8656 0.8655 0.8653
1432.000000 0.8652 0.8651 0.8649 0.8648 0.8647
1437.000000 0.8635 0.8622 0.8609 0.8596 0.8583
1442.000000 0.8569 0.8556 0.8542 0.8529 0.8516
1447.000000 0.8502 0.8489 0.8475 0.8463 0.8454
1452.000000 0.8444 0.8435 0.8425 0.8415 0.8406
1457.000000 0.8397 0.8394 0.8391 0.8388 0.8393
1462.000000 0.8382 0.8392 0.8403 0.8417 0.8433
1467.000000 0.8449 0.8465 0.8481 0.8497 0.8513
1472.000000 0.8529 0.8545 0.8561 0.8576 0.8583
1477.000000 0.8590 0.8597 0.8604 0.8611 0.8617
1482.000000 0.8624 0.8631 0.8638 0.8645 0.8652
1487.000000 0.8660 0.8667 0.8674 0.8681 0.8688
1492.000000 0.8693 0.8698 0.8702 0.8707 0.8712
1497.000000 0.8717 0.8721 0.8726 0.8731 0.8735
1502.000000 0.8734 0.8733 0.8732 0.8730 0.8725
1507.000000 0.8720 0.8714 0.8709 0.8715 0.8727
1512.000000 0.8738 0.8748 0.8758 0.8768 0.8778
1517.000000 0.8782 0.8783 0.8785 0.8786 0.8787
1522.000000 0.8788 0.8789 0.8790 0.8790 0.8791
1527.000000 0.8791 0.8792 0.8792 0.8794 0.8796
1532.000000 0.8798 0.8800 0.8805 0.8810 0.8800
1537.000000 0.8828 0.8842 0.8845 0.8841 0.8836
1542.000000 0.8829 0.8821 0.8813 0.8806 0.8798
1547.000000 0.8790 0.8782 0.8784 0.8788 0.8792
1552.000000 0.8796 0.8803 0.8811 0.8819 0.8815
1557.000000 0.8798 0.8781 0.8764 0.8748 0.8737
1562.000000 0.8730 0.8723 0.8719 0.8716 0.8712
1567.000000 0.8709 0.8705 0.8702 0.8700 0.8698
1572.000000 0.8696 0.8694 0.8692 0.8690 0.8688
1577.000000 0.8686 0.8684 0.8682 0.8680 0.8679
1582.000000 0.8678 0.8677 0.8677 0.8676 0.8675
1587.000000 0.8674 0.8673 0.8671 0.8670 0.8668
1592.000000 0.8667 0.8665 0.8664 0.8663 0.8662
1597.000000 0.8661 0.8660 0.8659 0.8658 0.8657
1602.000000 0.8657 0.8656 0.8655 0.8654 0.8653
1607.000000 0.8652 0.8651 0.8649 0.8648 0.8646
1612.000000 0.8645 0.8643 0.8642 0.8640 0.8639
1617.000000 0.8637 0.8635 0.8633 0.8631 0.8629
1622.000000 0.8626 0.8624 0.8622 0.8621 0.8627
1627.000000 0.8632 0.8638 0.8645 0.8652 0.8660
1632.000000 0.8667 0.8673 0.8678 0.8682 0.8683
1637.000000 0.8684 0.8685 0.8686 0.8687 0.8688
1642.000000 0.8690 0.8691 0.8693 0.8695 0.8707
1647.000000 0.8718 0.8730 0.8741 0.8763 0.8761
1652.000000 0.8747 0.8733 0.8720 0.8708 0.8695
1657.000000 0.8687 0.8681 0.8676 0.8671 0.8665
1662.000000 0.8660 0.8654 0.8646 0.8639 0.8632
1667.000000 0.8624 0.8617 0.8609 0.8601 0.8592
1672.000000 0.8584 0.8574 0.8563 0.8552 0.8540
1677.000000 0.8529 0.8518 0.8506 0.8495 0.8483
1682.000000 0.8471 0.8460 0.8448 0.8437 0.8426
1687.000000 0.8417 0.8408 0.8374 0.8394 0.8395
1692.000000 0.8396 0.8399 0.8405 0.8412 0.8418
1697.000000 0.8426 0.8435 0.8443 0.8451 0.8460
1702.000000 0.8469 0.8478 0.8487 0.8496 0.8508
1707.000000 0.8519 0.8531 0.8553 0.8578 0.8613
1712.000000 0.8630 0.8645 0.8648 0.8651 0.8653
1717.000000 0.8654 0.8652 0.8639 0.8627 0.8624
1722.000000 0.8623 0.8627 0.8630 0.8638 0.8645
1727.000000 0.8652 0.8658 0.8665 0.8670 0.8675
1732.000000 0.8679 0.8683 0.8687 0.8691 0.8695
1737.000000 0.8699 0.8703 0.8707 0.8711 0.8714
1742.000000 0.8718 0.8722 0.8726 0.8730 0.8734
1747.000000 0.8738 0.8742 0.8748 0.8754 0.8754
1752.000000 0.8754 0.8754 0.8754 0.8754 0.8754
1757.000000 0.8754 0.8754 0.8754 0.8754 0.8754
1762.000000 0.8753 0.8752 0.8751 0.8751 0.8750
1767.000000 0.8749 0.8748 0.8747 0.8746 0.8745
1772.000000 0.8744 0.8743 0.8742 0.8742 0.8741
1777.000000 0.8740 0.8739 0.8738 0.8731 0.8735
1782.000000 0.8734 0.8733 0.8732 0.8731 0.8729
1787.000000 0.8728 0.8727 0.8726 0.8725 0.8724
1792.000000 0.8723 0.8722 0.8720 0.8719 0.8718
1797.000000 0.8717 0.8716 0.8715 0.8713 0.8711
1802.000000 0.8709 0.8707 0.8706 0.8704 0.8702
1807.000000 0.8700 0.8698 0.8697 0.8695 0.8693
1812.000000 0.8691 0.8689 0.8688 0.8686 0.8684
1817.000000 0.8682 0.8679 0.8677 0.8674 0.8671
1822.000000 0.8669 0.8666 0.8663 0.8661 0.8658
1827.000000 0.8655 0.8653 0.8650 0.8647 0.8645
1832.000000 0.8642 0.8639 0.8637 0.8633 0.8629
1837.000000 0.8625 0.8621 0.8616 0.8612 0.8608
1842.000000 0.8604 0.8600 0.8596 0.8590 0.8583
1847.000000 0.8576 0.8569 0.8562 0.8555 0.8548
1852.000000 0.8540 0.8538 0.8537 0.8536 0.8535
1857.000000 0.8534 0.8533 0.8532 0.8531 0.8535
1862.000000 0.8508 0.8544 0.8549 0.8554 0.8564
1867.000000 0.8575 0.8586 0.8597 0.8608 0.8619
1872.000000 0.8630 0.8641 0.8652 0.8664 0.8675
1877.000000 0.8686 0.8697 0.8707 0.8717 0.8727
1882.000000 0.8736 0.8746 0.8755 0.8764 0.8770
1887.000000 0.8775 0.8780 0.8785 0.8791 0.8796
1892.000000 0.8801 0.8806 0.8809 0.8811 0.8814
1897.000000 0.8816 0.8819 0.8821 0.8823 0.8826
1902.000000 0.8827 0.8827 0.8828 0.8829 0.8829
1907.000000 0.8830 0.8831 0.8831 0.8832 0.8833
1912.000000 0.8833 0.8831 0.8829 0.8826 0.8824
1917.000000 0.8822 0.8819 0.8817 0.8815 0.8813
1922.000000 0.8810 0.8808 0.8806 0.8803 0.8801
1927.000000 0.8798 0.8796 0.8793 0.8790 0.8788
1932.000000 0.8785 0.8783 0.8780 0.8780 0.8781
1937.000000 0.8783 0.8784 0.8786 0.8788 0.8789
1942.000000 0.8791 0.8793 0.8794 0.8796 0.8797
1947.000000 0.8806 0.8819 0.8833 0.8863 0.8888
1952.000000 0.8890 0.8886 0.8874 0.8859 0.8841
1957.000000 0.8823 0.8805 0.8788 0.8773 0.8757
1962.000000 0.8741 0.8734 0.8728 0.8722 0.8716
1967.000000 0.8710 0.8704 0.8701 0.8697 0.8694
1972.000000 0.8690 0.8687 0.8685 0.8687 0.8688
1977.000000 0.8689 0.8691 0.8692 0.8693 0.8694
1982.000000 0.8696 0.8699 0.8702 0.8706 0.8710
1987.000000 0.8714 0.8717 0.8721 0.8725 0.8728
1992.000000 0.8732 0.8736 0.8741 0.8747 0.8752
1997.000000 0.8757 0.8763 0.8768 0.8773 0.8777
2002.000000 0.8782 0.8783 0.8784 0.8785 0.8786
2007.000000 0.8787 0.8788 0.8789 0.8790 0.8791
2012.000000 0.8792 0.8791 0.8790 0.8787 0.8784
2017.000000 0.8781 0.8778 0.8775 0.8773 0.8770
2022.000000 0.8767 0.8763 0.8760 0.8755 0.8750
2027.000000 0.8745 0.8740 0.8735 0.8730 0.8724
2032.000000 0.8719 0.8714 0.8709 0.8708 0.8707
2037.000000 0.8706 0.8706 0.8705 0.8705 0.8704
2042.000000 0.8704 0.8704 0.8704 0.8705 0.8707
2047.000000 0.8708 0.8710 0.8711 0.8713 0.8715
2052.000000 0.8717 0.8718 0.8720 0.8721 0.8722
2057.000000 0.8723 0.8724 0.8725 0.8727 0.8728
2062.000000 0.8729 0.8727 0.8726 0.8721 0.8716
2067.000000 0.8708 0.8701 0.8690 0.8679 0.8668
2072.000000 0.8658 0.8646 0.8634 0.8620 0.8606
2077.000000 0.8592 0.8578 0.8563 0.8548 0.8533
2082.000000 0.8518 0.8503 0.8488 0.8473 0.8458
2087.000000 0.8442 0.8427 0.8410 0.8394 0.8378
2092.000000 0.8362 0.8346 0.8330 0.8313 0.8297
2097.000000 0.8283 0.8269 0.8259 0.8250 0.8240
2102.000000 0.8231 0.8221 0.8212 0.8202 0.8192
2107.000000 0.8183 0.8175 0.8169 0.8164 0.8158
2112.000000 0.8153 0.8147 0.8142 0.8136 0.8131
2117.000000 0.8125 0.8120 0.8113 0.8107 0.8100
2122.000000 0.8093 0.8086 0.8079 0.8072 0.8065
2127.000000 0.8058 0.8052 0.8045 0.8039 0.8035
2132.000000 0.8034 0.8032 0.8033 0.8040 0.8048
2137.000000 0.8075 0.8103 0.8131 0.8160 0.8193
2142.000000 0.8226 0.8261 0.8297 0.8342 0.8387
2147.000000 0.8447 0.8507 0.8562 0.8617 0.8658
2152.000000 0.8700 0.8721 0.8743 0.8750 0.8757
2157.000000 0.8758 0.8759 0.8760 0.8762 0.8763
2162.000000 0.8764 0.8763 0.8749 0.8761 0.8760
2167.000000 0.8758 0.8756 0.8753 0.8750 0.8746
2172.000000 0.8743 0.8736 0.8729 0.8721 0.8713
2177.000000 0.8705 0.8697 0.8689 0.8682 0.8672
2182.000000 0.8662 0.8647 0.8633 0.8617 0.8602
2187.000000 0.8575 0.8549 0.8523 0.8497 0.8471
2192.000000 0.8445 0.8414 0.8384 0.8348 0.8312
2197.000000 0.8276 0.8240 0.8204 0.8168 0.8127
2202.000000 0.8086 0.8028 0.7971 0.7913 0.7855
2207.000000 0.7797 0.7739 0.7677 0.7615 0.7553
2212.000000 0.7491 0.7409 0.7328 0.7211 0.7094
2217.000000 0.7030 0.6966 0.6903 0.6840 0.6810
2222.000000 0.6780 0.6761 0.6743 0.6730 0.6717
2227.000000 0.6741 0.6765 0.6850 0.6935 0.7020
2232.000000 0.7105 0.7118 0.7131 0.7126 0.7121
2237.000000 0.7105 0.7090 0.7067 0.7045 0.7019
2242.000000 0.6994 0.6968 0.6943 0.6922 0.6902
2247.000000 0.6884 0.6866 0.6525 0.6185 0.5282
2252.000000 0.4380 0.3477 0.2575 0.2215 0.1856
2257.000000 0.1522 0.1188 0.1068 0.0949 0.0915
2262.000000 0.0881 0.0875 0.0869 0.0881 0.0865
2267.000000 0.1023 0.1152 0.1303 0.1455 0.1606
2272.000000 0.1758 0.1853 0.1948 0.2686 0.3425
2277.000000 0.4295 0.5166 0.6036 0.6906 0.7741
2282.000000 0.8577 0.8599 0.8621 0.8632 0.8644
2287.000000 0.8650 0.8656 0.8656 0.8682 0.8657
2292.000000 0.8658 0.8656 0.8654 0.8651 0.8649
2297.000000 0.8639 0.8630 0.8619 0.8608 0.8594
2302.000000 0.8580 0.8567 0.8554 0.8540 0.8527
2307.000000 0.8513 0.8499 0.8479 0.8460 0.8441
2312.000000 0.8422 0.8403 0.8384 0.8365 0.8347
2317.000000 0.8328 0.8310 0.8292 0.8274 0.8256
2322.000000 0.8239 0.8222 0.8206 0.8198 0.8190
2327.000000 0.8181 0.8173 0.8166 0.8159 0.8156
2332.000000 0.8133 0.8151 0.8150 0.8152 0.8155
2337.000000 0.8157 0.8159 0.8164 0.8169 0.8174
2342.000000 0.8180 0.8185 0.8191 0.8196 0.8202
2347.000000 0.8209 0.8216 0.8224 0.8233 0.8241
2352.000000 0.8249 0.8257 0.8266 0.8274 0.8283
2357.000000 0.8291 0.8300 0.8308 0.8317 0.8331
2362.000000 0.8346 0.8360 0.8375 0.8389 0.8404
2367.000000 0.8418 0.8433 0.8447 0.8462 0.8480
2372.000000 0.8498 0.8518 0.8538 0.8558 0.8578
2377.000000 0.8596 0.8615 0.8633 0.8652 0.8666
2382.000000 0.8680 0.8683 0.8755 0.8691 0.8695
2387.000000 0.8695 0.8696 0.8695 0.8694 0.8692
2392.000000 0.8690 0.8684 0.8678 0.8672 0.8666
2397.000000 0.8652 0.8639 0.8618 0.8598 0.8575
2402.000000 0.8553 0.8543 0.8533 0.8523 0.8513
2407.000000 0.8503 0.8493 0.8485 0.8478 0.8474
2412.000000 0.8463 0.8468 0.8466 0.8471 0.8477
2417.000000 0.8482 0.8487 0.8495 0.8503 0.8512
2422.000000 0.8521 0.8530 0.8540 0.8550 0.8560
2427.000000 0.8571 0.8582 0.8593 0.8605 0.8618
2432.000000 0.8631 0.8649 0.8668 0.8685 0.8703
2437.000000 0.8715 0.8728 0.8740 0.8752 0.8762
2442.000000 0.8772 0.8779 0.8786 0.8793 0.8800
2447.000000 0.8807 0.8814 0.8821 0.8828 0.8832
2452.000000 0.8837 0.8838 0.8840 0.8841 0.8843
2457.000000 0.8844 0.8846 0.8847 0.8848 0.8848
2462.000000 0.8848 0.8848 0.8848 0.8848 0.8848
2467.000000 0.8847 0.8847 0.8846 0.8845 0.8844
2472.000000 0.8844 0.8843 0.8843 0.8842 0.8841
2477.000000 0.8840 0.8840 0.8839 0.8839 0.8838
2482.000000 0.8838 0.8837 0.8836 0.8835 0.8835
