##TITLE=FLUORO TRIBROMO METHANE
##JCAMP-DX=4.24
##DATA TYPE=INFRARED SPECTRUM
##CLASS=COBLENTZ
##ORIGIN=DOW CHEMICAL COMPANY
##OWNER=COBLENTZ SOCIETY
Collection (C) 2018 copyright by the U.S. Secretary of Commerce
on behalf of the United States of America. All rights reserved.
##DATE=Not specified, most likely prior to 1970
##NAMES=tribromo(fluoro)methane
##CAS REGISTRY NO=353-54-8
##MOLFORM=C Br3 F
##BP=107 C
##SOURCE REFERENCE=COBLENTZ NO. 1921
##$NIST SOURCE=COBLENTZ
##$NIST IMAGE=cob1921
##SPECTROMETER/DATA SYSTEM=Not specified, most likely a prism, grating, or hybrid spectrometer.
##STATE=SOLUTION (10% CCl4 FOR 5000-1330, 10% CS2 FOR 1330-625 CM^-^1)
##PATH LENGTH=0.0113 CM, 0.0109 CM
$$SPECTRAL CONTAMINATION DUE TO CS2 AROUND 850, AND CCl4 AROUND 1550 CM^-^1
##SAMPLING PROCEDURE=TRANSMISSION
##RESOLUTION=4
##DATA PROCESSING=DIGITIZED BY NIST FROM HARD COPY
##XUNITS=MICROMETERS
##YUNITS=TRANSMITTANCE
##XFACTOR=1.000000
##YFACTOR=1
##DELTAX=000.006853
##FIRSTX=2.048
##LASTX=15.9864
##FIRSTY=0.842
##MAXX=15.9864
##MINX=2.048
##MAXY=0.886
##MINY=0
##NPOINTS=2035
##XYDATA=(X++(Y..Y))
2.048000 0.8420 0.8420 0.8420 0.8430 0.8430
2.082280 0.8430 0.8430 0.8450 0.8430 0.8430
2.116000 0.8430 0.8430 0.8450 0.8450 0.8430
2.150280 0.8430 0.8430 0.8430 0.8430 0.8430
2.185000 0.8430 0.8450 0.8470 0.8470 0.8470
2.219280 0.8470 0.8470 0.8470 0.8450 0.8450
2.254000 0.8450 0.8450 0.8450 0.8450 0.8450
2.288280 0.8450 0.8450 0.8450 0.8470 0.8470
2.322000 0.8490 0.8500 0.8500 0.8520 0.8520
2.356280 0.8520 0.8540 0.8540 0.8540 0.8540
2.391000 0.8550 0.8550 0.8550 0.8570 0.8570
2.425280 0.8570 0.8570 0.8570 0.8570 0.8570
2.459000 0.8570 0.8570 0.8590 0.8610 0.8610
2.493280 0.8620 0.8620 0.8620 0.8620 0.8620
2.528000 0.8620 0.8620 0.8620 0.8620 0.8620
2.562280 0.8620 0.8620 0.8620 0.8620 0.8620
2.596000 0.8620 0.8620 0.8620 0.8620 0.8620
2.630280 0.8620 0.8640 0.8690 0.8690 0.8690
2.665000 0.8690 0.8690 0.8690 0.8690 0.8660
2.699280 0.8620 0.8620 0.8620 0.8610 0.8610
2.733000 0.8590 0.8590 0.8590 0.8570 0.8570
2.767280 0.8570 0.8550 0.8520 0.8520 0.8520
2.802000 0.8520 0.8500 0.8490 0.8490 0.8450
2.836280 0.8420 0.8400 0.8400 0.8400 0.8400
2.870000 0.8400 0.8400 0.8400 0.8400 0.8380
2.904280 0.8380 0.8350 0.8310 0.8310 0.8310
2.939000 0.8310 0.8310 0.8310 0.8310 0.8310
2.973280 0.8330 0.8330 0.8330 0.8350 0.8350
3.007000 0.8350 0.8350 0.8330 0.8330 0.8310
3.041280 0.8310 0.8310 0.8310 0.8310 0.8310
3.076000 0.8310 0.8310 0.8310 0.8310 0.8350
3.110280 0.8350 0.8350 0.8370 0.8370 0.8370
3.144000 0.8370 0.8370 0.8370 0.8370 0.8380
3.178280 0.8380 0.8400 0.8400 0.8400 0.8400
3.213000 0.8400 0.8400 0.8400 0.8400 0.8400
3.247280 0.8400 0.8400 0.8400 0.8380 0.8380
3.281000 0.8380 0.8380 0.8380 0.8380 0.8400
3.315280 0.8400 0.8420 0.8400 0.8400 0.8400
3.350000 0.8400 0.8400 0.8420 0.8420 0.8420
3.384280 0.8420 0.8420 0.8420 0.8420 0.8430
3.419000 0.8430 0.8430 0.8430 0.8430 0.8430
3.453280 0.8430 0.8430 0.8430 0.8450 0.8450
3.487000 0.8470 0.8490 0.8490 0.8490 0.8490
3.521280 0.8490 0.8490 0.8490 0.8490 0.8500
3.556000 0.8500 0.8500 0.8500 0.8500 0.8500
3.590280 0.8500 0.8500 0.8500 0.8490 0.8490
3.624000 0.8490 0.8500 0.8500 0.8500 0.8500
3.658280 0.8520 0.8540 0.8540 0.8550 0.8550
3.693000 0.8570 0.8570 0.8570 0.8590 0.8590
3.727280 0.8590 0.8590 0.8590 0.8590 0.8590
3.761000 0.8590 0.8570 0.8570 0.8570 0.8590
3.795280 0.8590 0.8610 0.8610 0.8610 0.8610
3.830000 0.8590 0.8590 0.8610 0.8610 0.8610
3.864280 0.8610 0.8610 0.8610 0.8610 0.8610
3.898000 0.8610 0.8620 0.8620 0.8640 0.8640
3.932280 0.8610 0.8610 0.8610 0.8610 0.8610
3.967000 0.8620 0.8620 0.8620 0.8640 0.8640
4.001280 0.8620 0.8620 0.8620 0.8610 0.8590
4.035000 0.8590 0.8570 0.8570 0.8590 0.8610
4.069280 0.8610 0.8610 0.8590 0.8590 0.8590
4.104000 0.8570 0.8590 0.8590 0.8590 0.8590
4.138280 0.8590 0.8590 0.8610 0.8610 0.8610
4.172000 0.8620 0.8640 0.8640 0.8640 0.8620
4.206280 0.8610 0.8590 0.8570 0.8570 0.8570
4.241000 0.8550 0.8520 0.8500 0.8490 0.8490
4.275280 0.8470 0.8470 0.8470 0.8470 0.8450
4.309000 0.8430 0.8430 0.8400 0.8400 0.8380
4.343280 0.8380 0.8380 0.8380 0.8380 0.8400
4.378000 0.8430 0.8490 0.8500 0.8540 0.8550
4.412280 0.8570 0.8590 0.8590 0.8610 0.8610
4.446000 0.8610 0.8610 0.8610 0.8610 0.8610
4.480280 0.8620 0.8620 0.8640 0.8660 0.8660
4.515000 0.8670 0.8670 0.8670 0.8670 0.8670
4.549280 0.8690 0.8690 0.8690 0.8690 0.8690
4.583000 0.8710 0.8710 0.8710 0.8730 0.8710
4.617280 0.8710 0.8710 0.8710 0.8710 0.8730
4.652000 0.8730 0.8730 0.8730 0.8730 0.8730
4.686280 0.8730 0.8710 0.8710 0.8710 0.8690
4.721000 0.8670 0.8670 0.8670 0.8620 0.8590
4.755280 0.8570 0.8540 0.8520 0.8500 0.8500
4.789000 0.8500 0.8500 0.8500 0.8500 0.8550
4.823280 0.8590 0.8610 0.8620 0.8640 0.8660
4.858000 0.8670 0.8690 0.8690 0.8710 0.8710
4.892280 0.8710 0.8710 0.8710 0.8730 0.8730
4.926000 0.8730 0.8730 0.8730 0.8730 0.8730
4.960280 0.8730 0.8730 0.8710 0.8710 0.8710
4.995000 0.8710 0.8710 0.8710 0.8710 0.8710
5.029280 0.8710 0.8710 0.8710 0.8710 0.8730
5.063000 0.8760 0.8760 0.8780 0.8780 0.8780
5.097280 0.8790 0.8790 0.8790 0.8790 0.8790
5.132000 0.8790 0.8790 0.8790 0.8790 0.8790
5.166280 0.8790 0.8790 0.8810 0.8790 0.8790
5.200000 0.8790 0.8790 0.8790 0.8790 0.8790
5.234280 0.8790 0.8780 0.8780 0.8760 0.8760
5.269000 0.8760 0.8760 0.8760 0.8760 0.8740
5.303280 0.8740 0.8740 0.8740 0.8740 0.8740
5.337000 0.8740 0.8760 0.8760 0.8760 0.8760
5.371280 0.8730 0.8710 0.8710 0.8690 0.8690
5.406000 0.8690 0.8690 0.8690 0.8690 0.8710
5.440280 0.8730 0.8730 0.8760 0.8780 0.8760
5.474000 0.8760 0.8740 0.8740 0.8730 0.8730
5.508280 0.8730 0.8730 0.8730 0.8730 0.8730
5.543000 0.8730 0.8730 0.8730 0.8730 0.8730
5.577280 0.8730 0.8730 0.8730 0.8740 0.8740
5.611000 0.8740 0.8760 0.8760 0.8780 0.8780
5.645280 0.8780 0.8780 0.8780 0.8780 0.8790
5.680000 0.8790 0.8790 0.8790 0.8790 0.8790
5.714280 0.8790 0.8790 0.8790 0.8790 0.8790
5.748000 0.8780 0.8780 0.8780 0.8760 0.8760
5.782280 0.8740 0.8740 0.8740 0.8740 0.8740
5.817000 0.8740 0.8740 0.8740 0.8740 0.8740
5.851280 0.8740 0.8780 0.8780 0.8780 0.8780
5.885000 0.8780 0.8780 0.8780 0.8780 0.8780
5.919280 0.8780 0.8760 0.8760 0.8760 0.8760
5.954000 0.8760 0.8740 0.8730 0.8730 0.8730
5.988280 0.8730 0.8710 0.8710 0.8690 0.8670
6.023000 0.8670 0.8660 0.8660 0.8620 0.8620
6.057280 0.8610 0.8570 0.8570 0.8540 0.8540
6.091000 0.8500 0.8500 0.8500 0.8500 0.8500
6.125280 0.8500 0.8500 0.8500 0.8490 0.8490
6.160000 0.8470 0.8400 0.8370 0.8330 0.8250
6.194280 0.8210 0.8110 0.8010 0.7890 0.7780
6.228000 0.7660 0.7540 0.7420 0.7280 0.7130
6.262280 0.6990 0.6860 0.6720 0.6600 0.6480
6.297000 0.6380 0.6320 0.6290 0.6270 0.6270
6.331280 0.6200 0.6170 0.6120 0.6070 0.6000
6.365000 0.5950 0.5860 0.5780 0.5710 0.5660
6.399280 0.5520 0.5330 0.5240 0.5120 0.5000
6.434000 0.4950 0.4880 0.4830 0.4760 0.4750
6.468280 0.4730 0.4750 0.4760 0.4810 0.4930
6.502000 0.5230 0.5450 0.5550 0.5780 0.5900
6.536280 0.5980 0.6000 0.6080 0.6170 0.6200
6.571000 0.6310 0.6390 0.6440 0.6560 0.6670
6.605280 0.6740 0.6840 0.6890 0.6990 0.7110
6.639000 0.7200 0.7390 0.7510 0.7590 0.7680
6.673280 0.7770 0.7870 0.7890 0.7990 0.8070
6.708000 0.8110 0.8190 0.8260 0.8310 0.8310
6.742280 0.8330 0.8330 0.8350 0.8370 0.8370
6.776000 0.8380 0.8400 0.8430 0.8470 0.8520
6.810280 0.8550 0.8570 0.8590 0.8610 0.8620
6.845000 0.8620 0.8660 0.8660 0.8690 0.8690
6.879280 0.8690 0.8690 0.8690 0.8710 0.8710
6.913000 0.8730 0.8730 0.8730 0.8730 0.8730
6.947280 0.8730 0.8730 0.8730 0.8730 0.8730
6.982000 0.8730 0.8730 0.8730 0.8740 0.8740
7.016280 0.8740 0.8740 0.8740 0.8760 0.8760
7.050000 0.8760 0.8780 0.8780 0.8790 0.8790
7.084280 0.8790 0.8790 0.8790 0.8790 0.8790
7.119000 0.8810 0.8790 0.8790 0.8790 0.8790
7.153280 0.8790 0.8790 0.8790 0.8790 0.8790
7.187000 0.8790 0.8790 0.8810 0.8850 0.8850
7.221280 0.8860 0.8860 0.8850 0.8850 0.8830
7.256000 0.8810 0.8810 0.8790 0.8790 0.8790
7.290280 0.8790 0.8790 0.8790 0.8790 0.8790
7.325000 0.8790 0.8790 0.8790 0.8790 0.8790
7.359280 0.8790 0.8790 0.8790 0.8790 0.8790
7.393000 0.8790 0.8790 0.8860 0.8860 0.8860
7.427280 0.8860 0.8860 0.8860 0.8860 0.8860
7.462000 0.8860 0.8860 0.8830 0.8810 0.8810
7.496280 0.8810 0.8810 0.8810 0.8810 0.8810
7.530000 0.8810 0.8810 0.8810 0.8810 0.8790
7.564280 0.8780 0.8740 0.8740 0.8730 0.8740
7.599000 0.8760 0.8780 0.8790 0.8790 0.8790
7.633280 0.8790 0.8790 0.8790 0.8790 0.8790
7.667000 0.8790 0.8790 0.8790 0.8790 0.8780
7.701280 0.8780 0.8780 0.8780 0.8790 0.8790
7.736000 0.8790 0.8810 0.8810 0.8790 0.8790
7.770280 0.8790 0.8790 0.8790 0.8790 0.8790
7.804000 0.8790 0.8790 0.8790 0.8790 0.8790
7.838280 0.8790 0.8790 0.8790 0.8790 0.8790
7.873000 0.8810 0.8810 0.8810 0.8790 0.8790
7.907280 0.8790 0.8810 0.8810 0.8790 0.8790
7.941000 0.8780 0.8780 0.8760 0.8760 0.8760
7.975280 0.8780 0.8790 0.8790 0.8810 0.8810
8.010000 0.8810 0.8810 0.8810 0.8780 0.8780
8.044280 0.8780 0.8780 0.8780 0.8780 0.8780
8.078000 0.8780 0.8780 0.8780 0.8780 0.8780
8.112280 0.8780 0.8780 0.8780 0.8780 0.8780
8.147000 0.8780 0.8790 0.8790 0.8790 0.8790
8.181280 0.8790 0.8790 0.8790 0.8780 0.8760
8.215000 0.8760 0.8760 0.8740 0.8740 0.8730
8.249280 0.8730 0.8730 0.8730 0.8690 0.8690
8.284000 0.8690 0.8710 0.8710 0.8710 0.8710
8.318280 0.8710 0.8690 0.8670 0.8660 0.8660
8.352000 0.8590 0.8550 0.8490 0.8420 0.8420
8.386280 0.8370 0.8280 0.8260 0.8260 0.8280
8.421000 0.8300 0.8370 0.8420 0.8490 0.8550
8.455280 0.8590 0.8620 0.8660 0.8670 0.8670
8.489000 0.8690 0.8690 0.8690 0.8690 0.8690
8.523280 0.8690 0.8690 0.8690 0.8690 0.8690
8.558000 0.8670 0.8670 0.8670 0.8660 0.8660
8.592280 0.8660 0.8660 0.8660 0.8640 0.8620
8.627000 0.8620 0.8620 0.8620 0.8620 0.8620
8.661280 0.8610 0.8610 0.8610 0.8590 0.8590
8.695000 0.8570 0.8570 0.8550 0.8540 0.8520
8.729280 0.8490 0.8470 0.8470 0.8430 0.8420
8.764000 0.8420 0.8400 0.8400 0.8400 0.8380
8.798280 0.8380 0.8380 0.8400 0.8400 0.8400
8.832000 0.8430 0.8470 0.8490 0.8490 0.8520
8.866280 0.8540 0.8550 0.8550 0.8550 0.8570
8.901000 0.8570 0.8570 0.8570 0.8570 0.8570
8.935280 0.8570 0.8590 0.8590 0.8590 0.8590
8.969000 0.8590 0.8590 0.8590 0.8590 0.8590
9.003280 0.8590 0.8590 0.8590 0.8570 0.8570
9.038000 0.8570 0.8550 0.8550 0.8550 0.8540
9.072280 0.8540 0.8500 0.8500 0.8490 0.8470
9.106000 0.8470 0.8450 0.8450 0.8450 0.8450
9.140280 0.8450 0.8450 0.8450 0.8450 0.8450
9.175000 0.8450 0.8450 0.8430 0.8430 0.8430
9.209280 0.8430 0.8400 0.8370 0.8350 0.8280
9.243000 0.8260 0.8260 0.8230 0.8180 0.8130
9.277280 0.8090 0.8020 0.7970 0.7920 0.7850
9.312000 0.7750 0.7650 0.7560 0.7420 0.7270
9.346280 0.7080 0.6890 0.6700 0.6500 0.6080
9.380000 0.5690 0.5600 0.5550 0.5230 0.4900
9.414280 0.4270 0.3850 0.3390 0.2880 0.2380
9.449000 0.1880 0.1440 0.1080 0.0800 0.0630
9.483280 0.0480 0.0390 0.0390 0.0390 0.0390
9.517000 0.0440 0.0510 0.0650 0.0820 0.1020
9.551280 0.1140 0.1500 0.1760 0.2020 0.2240
9.586000 0.2480 0.2720 0.2980 0.3320 0.3700
9.620280 0.3970 0.4230 0.4490 0.4800 0.5430
9.654000 0.5620 0.5860 0.6000 0.6220 0.6390
9.688280 0.6530 0.6670 0.6820 0.6980 0.7080
9.723000 0.7200 0.7320 0.7420 0.7530 0.7590
9.757280 0.7680 0.7750 0.7820 0.7870 0.7940
9.791000 0.8010 0.8070 0.8130 0.8190 0.8190
9.825280 0.8250 0.8260 0.8260 0.8280 0.8300
9.860000 0.8310 0.8330 0.8350 0.8370 0.8380
9.894280 0.8420 0.8430 0.8450 0.8490 0.8500
9.929000 0.8500 0.8550 0.8590 0.8590 0.8610
9.963280 0.8610 0.8610 0.8610 0.8610 0.8610
9.997000 0.8620 0.8620 0.8620 0.8620 0.8620
10.031280 0.8620 0.8640 0.8660 0.8660 0.8670
10.066000 0.8670 0.8690 0.8710 0.8730 0.8740
10.100280 0.8740 0.8740 0.8740 0.8760 0.8760
10.134000 0.8760 0.8760 0.8760 0.8760 0.8760
10.168280 0.8760 0.8760 0.8760 0.8760 0.8760
10.203000 0.8760 0.8760 0.8760 0.8760 0.8740
10.237280 0.8740 0.8740 0.8740 0.8730 0.8730
10.271000 0.8730 0.8730 0.8730 0.8730 0.8740
10.305280 0.8740 0.8740 0.8740 0.8760 0.8760
10.340000 0.8760 0.8760 0.8760 0.8760 0.8760
10.374280 0.8740 0.8740 0.8740 0.8730 0.8710
10.408000 0.8690 0.8670 0.8660 0.8610 0.8570
10.442280 0.8540 0.8520 0.8520 0.8500 0.8500
10.477000 0.8490 0.8490 0.8490 0.8490 0.8490
10.511280 0.8490 0.8490 0.8500 0.8500 0.8520
10.545000 0.8520 0.8550 0.8570 0.8590 0.8590
10.579280 0.8620 0.8640 0.8660 0.8670 0.8670
10.614000 0.8670 0.8670 0.8670 0.8670 0.8690
10.648280 0.8670 0.8670 0.8670 0.8670 0.8670
10.682000 0.8670 0.8670 0.8690 0.8690 0.8690
10.716280 0.8690 0.8690 0.8690 0.8690 0.8670
10.751000 0.8670 0.8690 0.8670 0.8670 0.8670
10.785280 0.8670 0.8670 0.8670 0.8670 0.8660
10.819000 0.8660 0.8660 0.8640 0.8640 0.8640
10.853280 0.8640 0.8640 0.8640 0.8640 0.8640
10.888000 0.8620 0.8620 0.8610 0.8610 0.8610
10.922280 0.8610 0.8610 0.8590 0.8570 0.8570
10.956000 0.8570 0.8570 0.8570 0.8550 0.8550
10.990280 0.8550 0.8550 0.8550 0.8550 0.8550
11.025000 0.8550 0.8550 0.8550 0.8550 0.8540
11.059280 0.8540 0.8520 0.8500 0.8500 0.8490
11.093000 0.8490 0.8490 0.8470 0.8470 0.8470
11.127280 0.8430 0.8430 0.8420 0.8420 0.8420
11.162000 0.8400 0.8380 0.8380 0.8380 0.8370
11.196280 0.8330 0.8330 0.8300 0.8300 0.8280
11.231000 0.8260 0.8260 0.8230 0.8190 0.8180
11.265280 0.8160 0.8160 0.8110 0.8090 0.8070
11.299000 0.8060 0.8040 0.8010 0.7990 0.7970
11.333280 0.7940 0.7900 0.7870 0.7830 0.7820
11.368000 0.7800 0.7780 0.7770 0.7750 0.7730
11.402280 0.7710 0.7700 0.7660 0.7650 0.7610
11.436000 0.7590 0.7580 0.7560 0.7540 0.7530
11.470280 0.7510 0.7490 0.7470 0.7460 0.7440
11.505000 0.7420 0.7400 0.7390 0.7370 0.7350
11.539280 0.7340 0.7320 0.7280 0.7270 0.7250
11.573000 0.7230 0.7220 0.7200 0.7180 0.7160
11.607280 0.7150 0.7130 0.7110 0.7100 0.7080
11.642000 0.7060 0.7060 0.7040 0.7040 0.7030
11.676280 0.7010 0.7010 0.6990 0.6990 0.6990
11.710000 0.6990 0.6990 0.7010 0.7010 0.7030
11.744280 0.7030 0.7030 0.7060 0.7080 0.7130
11.779000 0.7180 0.7230 0.7280 0.7370 0.7400
11.813280 0.7460 0.7490 0.7530 0.7580 0.7630
11.847000 0.7680 0.7700 0.7750 0.7800 0.7870
11.881280 0.7900 0.7950 0.7990 0.8010 0.8020
11.916000 0.8070 0.8090 0.8130 0.8160 0.8180
11.950280 0.8180 0.8190 0.8210 0.8230 0.8250
11.984000 0.8260 0.8260 0.8280 0.8280 0.8300
12.018280 0.8300 0.8300 0.8330 0.8330 0.8350
12.053000 0.8350 0.8350 0.8370 0.8370 0.8370
12.087280 0.8370 0.8370 0.8370 0.8370 0.8370
12.121000 0.8370 0.8370 0.8370 0.8370 0.8370
12.155280 0.8370 0.8370 0.8370 0.8380 0.8380
12.190000 0.8380 0.8380 0.8380 0.8380 0.8380
12.224280 0.8380 0.8370 0.8370 0.8370 0.8370
12.258000 0.8350 0.8350 0.8330 0.8330 0.8310
12.292280 0.8310 0.8300 0.8300 0.8300 0.8280
12.327000 0.8280 0.8280 0.8280 0.8260 0.8260
12.361280 0.8260 0.8260 0.8250 0.8250 0.8250
12.395000 0.8250 0.8250 0.8250 0.8250 0.8250
12.429280 0.8260 0.8260 0.8260 0.8260 0.8280
12.464000 0.8280 0.8260 0.8260 0.8260 0.8260
12.498280 0.8250 0.8230 0.8210 0.8210 0.8210
12.533000 0.8210 0.8210 0.8210 0.8190 0.8190
12.567280 0.8190 0.8190 0.8180 0.8180 0.8180
12.601000 0.8160 0.8160 0.8140 0.8130 0.8110
12.635280 0.8110 0.8110 0.8110 0.8090 0.8090
12.670000 0.8070 0.8070 0.8070 0.8060 0.8060
12.704280 0.8060 0.8040 0.8020 0.8020 0.8010
12.738000 0.8010 0.8010 0.8010 0.8010 0.8010
12.772280 0.8010 0.8010 0.8010 0.8010 0.8010
12.807000 0.8010 0.8010 0.8010 0.8010 0.7990
12.841280 0.7990 0.7990 0.7970 0.7970 0.7970
12.875000 0.7970 0.7950 0.7950 0.7920 0.7920
12.909280 0.7900 0.7900 0.7870 0.7870 0.7830
12.944000 0.7800 0.7780 0.7770 0.7770 0.7750
12.978280 0.7750 0.7730 0.7700 0.7680 0.7660
13.012000 0.7610 0.7590 0.7580 0.7560 0.7560
13.046280 0.7540 0.7490 0.7470 0.7460 0.7400
13.081000 0.7390 0.7350 0.7300 0.7280 0.7270
13.115280 0.7220 0.7180 0.7150 0.7100 0.7060
13.149000 0.6990 0.6940 0.6890 0.6820 0.6770
13.183280 0.6700 0.6630 0.6550 0.6480 0.6390
13.218000 0.6320 0.6240 0.6150 0.6050 0.5950
13.252280 0.5840 0.5740 0.5600 0.5480 0.5330
13.286000 0.5180 0.5020 0.4930 0.4850 0.4660
13.320280 0.4490 0.4280 0.4090 0.3890 0.3680
13.355000 0.3480 0.3250 0.3050 0.2810 0.2590
13.389280 0.2340 0.2100 0.1850 0.1590 0.1440
13.423000 0.1280 0.1130 0.0960 0.0770 0.0600
13.457280 0.0440 0.0320 0.0240 0.0180 0.0170
13.492000 0.0080 0.0060 0.0010 0.0010 0.0000
13.526280 0.0000 0.0000 0.0000 0.0000 0.0000
13.560000 0.0000 0.0000 0.0000 0.0000 0.0000
13.594280 0.0000 0.0000 0.0000 0.0000 0.0000
13.629000 0.0000 0.0000 0.0000 0.0000 0.0000
13.663280 0.0000 0.0130 0.0200 0.0300 0.0440
13.698000 0.0580 0.0720 0.0890 0.1090 0.1320
13.732280 0.1560 0.1800 0.2040 0.2260 0.2450
13.766000 0.2620 0.2790 0.3010 0.3220 0.3460
13.800280 0.3680 0.3910 0.4110 0.4300 0.4450
13.835000 0.4570 0.4640 0.4730 0.4830 0.4900
13.869280 0.4990 0.5110 0.5180 0.5230 0.5260
13.903000 0.5280 0.5360 0.5360 0.5380 0.5420
13.937280 0.5450 0.5470 0.5480 0.5500 0.5520
13.972000 0.5540 0.5570 0.5590 0.5600 0.5620
14.006280 0.5620 0.5640 0.5660 0.5670 0.5670
14.040000 0.5670 0.5670 0.5670 0.5660 0.5660
14.074280 0.5640 0.5620 0.5600 0.5570 0.5520
14.109000 0.5430 0.5350 0.5260 0.5160 0.5040
14.143280 0.4990 0.4930 0.4800 0.4680 0.4560
14.177000 0.4440 0.4320 0.4200 0.4030 0.3840
14.211280 0.3680 0.3490 0.3430 0.3200 0.3170
14.246000 0.3030 0.2980 0.2890 0.2810 0.2740
14.280280 0.2690 0.2670 0.2650 0.2650 0.2650
14.314000 0.2650 0.2690 0.2710 0.2770 0.2790
14.348280 0.2890 0.2960 0.3030 0.3130 0.3240
14.383000 0.3340 0.3460 0.3580 0.3700 0.3800
14.417280 0.3890 0.3960 0.4030 0.4180 0.4280
14.451000 0.4370 0.4440 0.4510 0.4590 0.4680
14.485280 0.4750 0.4830 0.4900 0.4950 0.5090
14.520000 0.5140 0.5190 0.5260 0.5300 0.5360
14.554280 0.5400 0.5470 0.5480 0.5500 0.5520
14.588000 0.5570 0.5590 0.5600 0.5640 0.5660
14.622280 0.5660 0.5670 0.5670 0.5670 0.5670
14.657000 0.5670 0.5670 0.5670 0.5670 0.5690
14.691280 0.5690 0.5690 0.5690 0.5710 0.5710
14.725000 0.5710 0.5710 0.5710 0.5690 0.5690
14.759280 0.5690 0.5670 0.5670 0.5660 0.5620
14.794000 0.5620 0.5600 0.5600 0.5600 0.5590
14.828280 0.5590 0.5590 0.5570 0.5570 0.5570
14.862000 0.5520 0.5520 0.5500 0.5480 0.5480
14.896280 0.5480 0.5470 0.5430 0.5420 0.5420
14.931000 0.5400 0.5400 0.5380 0.5380 0.5380
14.965280 0.5350 0.5350 0.5310 0.5300 0.5300
15.000000 0.5280 0.5260 0.5240 0.5210 0.5190
15.034280 0.5190 0.5180 0.5140 0.5110 0.5070
15.068000 0.5070 0.5040 0.5000 0.5000 0.4990
15.102280 0.4970 0.4950 0.4920 0.4880 0.4870
15.137000 0.4830 0.4830 0.4810 0.4800 0.4800
15.171280 0.4760 0.4760 0.4760 0.4750 0.4730
15.205000 0.4730 0.4690 0.4690 0.4680 0.4680
15.239280 0.4630 0.4630 0.4610 0.4590 0.4570
15.274000 0.4540 0.4520 0.4520 0.4510 0.4510
15.308280 0.4510 0.4490 0.4490 0.4490 0.4490
15.342000 0.4470 0.4470 0.4470 0.4450 0.4450
15.376280 0.4440 0.4440 0.4420 0.4420 0.4420
15.411000 0.4420 0.4420 0.4400 0.4400 0.4400
15.445280 0.4390 0.4370 0.4370 0.4350 0.4350
15.479000 0.4330 0.4330 0.4320 0.4320 0.4320
15.513280 0.4300 0.4280 0.4250 0.4230 0.4230
15.548000 0.4210 0.4200 0.4180 0.4180 0.4180
15.582280 0.4180 0.4160 0.4150 0.4130 0.4110
15.616000 0.4090 0.4080 0.4080 0.4060 0.4060
15.650280 0.4040 0.4030 0.4030 0.4030 0.4030
15.685000 0.4030 0.4010 0.4010 0.4010 0.4010
15.719280 0.4010 0.4010 0.4010 0.3990 0.3990
15.753000 0.3990 0.3990 0.3990 0.3990 0.3990
15.787280 0.3970 0.3970 0.3970 0.3970 0.3970
15.822000 0.3970 0.3970 0.3970 0.3970 0.3970
15.856280 0.3970 0.3970 0.3970 0.3970 0.3970
15.890000 0.3970 0.3970 0.3970 0.3970 0.3970
15.924280 0.3970 0.3970 0.3970 0.3970 0.3970
15.959000 0.3970 0.3970 0.3970 0.3970 0.3970
##END=
