##TITLE=2-Iodo-1,1,1-trifluoroethane
##JCAMP-DX=4.24
##DATA TYPE=INFRARED SPECTRUM
##ORIGIN=EPA-IR VAPOR PHASE LIBRARY
##OWNER=SRD/NIST
Collection (C) 2018 copyright by the U.S. Secretary of Commerce
on behalf of the United States of America. All rights reserved.
##CAS REGISTRY NO=353-83-3
##MOLFORM=C 2 H 2 F 3 I
##$NIST SOURCE=MSDC-IR
##STATE=gas
##XUNITS=1/CM
##YUNITS=ABSORBANCE
##XFACTOR=1.
##YFACTOR=0.001
##DELTAX=3.85796
##FIRSTX=501.5
##LASTX=4000.7
##FIRSTY=5.822
##MAXX=4000.7
##MINX=501.534
##MAXY=0.825052
##MINY=0
##NPOINTS=908
##XYDATA=(X++(Y..Y))
501.534 5.822 6.942 7.992 8.422 8.282 7.102 5.872 5.142 4.942 5.042
540.114 5.092 5.132 4.752 4.202 3.622 3.082 2.632 2.342 2.172 2.232
578.693 2.382 2.432 2.732 3.242 4.302 5.882 8.252 11.742 18.002 30.682
617.273 55.962 83.592 93.122 95.842 98.672 78.712 45.052 26.782 21.232 21.412
655.852 27.452 38.002 45.712 46.192 43.932 38.142 25.522 12.652 6.222 4.372
694.432 3.992 4.092 4.252 4.342 4.082 3.532 2.872 2.302 2.112 1.992
733.011 1.872 1.832 1.812 1.702 1.502 1.339 1.2039 1.0669 0.9721 0.9026
771.591 0.7958 0.8518 0.9775 1.0765 1.1988 1.3429 1.572 1.892 2.182 2.582
810.170 3.162 4.012 5.502 7.662 10.702 15.082 19.352 21.052 20.332 18.832
848.750 15.472 9.892 5.812 3.952 2.812 2.112 1.742 1.612 1.622 1.672
887.330 1.712 1.832 2.062 2.312 2.402 2.332 2.262 2.172 2.252 2.422
925.909 2.522 2.602 2.642 2.782 2.992 3.322 3.682 3.972 4.372 4.792
964.489 5.082 5.332 5.582 5.792 5.922 5.902 6.032 6.292 6.702 7.532
1003.068 8.532 10.032 12.132 15.012 19.552 26.302 36.302 51.232 72.822 101.532
1041.648 136.462 175.302 213.772 247.002 270.582 276.202 260.122 228.992 190.912 153.612
1080.227 123.652 105.502 101.972 114.912 147.212 206.542 302.262 434.182 579.352 694.022
1118.807 754.342 759.482 698.882 551.352 395.982 275.692 188.572 134.172 90.652 54.732
1157.387 35.742 27.222 22.912 21.082 21.352 23.072 25.922 30.032 35.922 44.172
1195.966 55.762 71.762 93.092 118.642 145.052 169.402 189.492 201.352 201.622 192.582
1234.546 180.372 173.962 182.482 212.072 265.282 340.412 432.492 533.532 633.562 726.872
1273.125 797.412 825.052 800.012 715.282 584.842 438.902 297.672 179.552 101.322 58.132
1311.705 36.032 26.482 23.722 24.442 27.012 30.072 32.632 34.252 34.542 32.942
1350.284 29.592 25.742 22.602 19.842 17.092 15.162 14.032 13.062 12.132 11.342
1388.864 10.892 10.992 12.052 14.242 17.942 23.912 33.702 48.882 69.622 86.872
1427.443 91.642 87.562 79.042 59.932 36.492 22.732 18.932 19.842 23.692 27.272
1466.023 27.672 25.612 23.052 17.542 10.102 5.942 4.672 4.032 3.702 3.402
1504.603 3.222 2.982 2.692 2.442 2.172 1.862 1.612 1.412 1.3783 1.422
1543.182 1.442 1.482 1.572 1.742 2.002 2.142 2.182 2.212 2.162 2.022
1581.762 1.902 1.772 1.662 1.662 1.692 1.742 1.882 2.132 2.462 2.792
1620.341 3.092 3.322 3.392 3.432 3.402 3.202 2.932 2.692 2.422 2.072
1658.921 1.822 1.622 1.462 1.3055 1.1624 1.0435 0.9859 0.9058 0.8117 0.747
1697.500 0.7273 0.7258 0.75 0.828 0.951 1.0977 1.2219 1.3667 1.492 1.612
1736.080 1.752 1.792 1.802 1.772 1.702 1.532 1.3842 1.3941 1.452 1.552
1774.659 1.652 1.722 1.842 1.952 2.012 1.982 1.842 1.652 1.422 1.229
1813.239 1.089 1.0089 0.9635 0.9869 1.0762 1.2115 1.3453 1.442 1.522 1.592
1851.819 1.632 1.642 1.712 1.882 2.192 2.532 2.852 3.142 3.372 3.562
1890.398 3.662 3.622 3.412 3.112 2.792 2.442 2.072 1.762 1.512 1.3187
1928.978 1.247 1.2545 1.3145 1.442 1.642 1.792 1.902 1.982 1.972 1.932
1967.557 1.842 1.662 1.432 1.2481 1.099 1.0127 0.9357 0.8522 0.8273 0.8656
2006.137 0.9315 1.0441 1.2243 1.4046 1.622 1.842 2.072 2.292 2.462 2.552
2044.716 2.552 2.502 2.382 2.252 2.112 2.032 1.992 2.032 2.232 2.542
2083.296 2.922 3.392 3.982 4.682 5.442 6.142 6.722 7.062 7.072 6.682
2121.875 5.902 4.822 3.722 2.742 1.982 1.472 1.1917 1.1363 1.198 1.3078
2160.455 1.412 1.512 1.642 1.782 1.852 1.822 1.722 1.702 1.662 1.582
2199.035 1.582 1.682 1.872 2.122 2.462 2.922 3.422 3.872 4.202 4.332
2237.614 4.212 3.892 3.372 2.792 2.422 2.242 2.112 2.032 1.912 1.762
2276.194 1.662 1.572 1.462 1.432 1.532 1.742 1.952 2.182 2.442 2.712
2314.773 3.012 3.382 3.762 4.162 4.482 4.592 4.502 4.222 3.722 3.152
2353.353 2.762 2.412 2.092 1.912 1.792 1.772 1.752 1.842 2.042 2.232
2391.932 2.472 2.652 2.682 2.692 2.612 2.402 2.132 1.812 1.562 1.3567
2430.512 1.1838 1.0549 1.0186 1.0023 0.9741 0.9747 1.0003 1.0506 1.1053 1.236
2469.092 1.3413 1.432 1.542 1.582 1.562 1.452 1.3281 1.1319 0.8973 0.7537
2507.671 0.7567 0.7624 0.8006 0.9187 1.0638 1.2194 1.3461 1.502 1.662 1.782
2546.251 1.842 1.962 1.972 1.872 1.802 1.722 1.612 1.442 1.2694 1.0453
2584.830 0.7757 0.6016 0.47933 0.3652 0.3179 0.3283 0.3569 0.42641 0.46116 0.45732
2623.410 0.483 0.46843 0.46309 0.5412 0.5962 0.5776 0.5381 0.48758 0.47829 0.401
2661.989 0.307 0.29 0.265 0.267 0.24 0.22 0.241 0.301 0.3967 0.4399
2700.569 0.43116 0.41 0.3857 0.3151 0.284 0.3181 0.3326 0.283 0.237 0.232
2739.148 0.186 0.171 0.171 0.144 0.134 0.125 0.133 0.172 0.172 0.133
2777.728 0.123 0.171 0.117 0.061 0.119 0.161 0.162 0.17 0.195 0.247
2816.308 0.3719 0.50418 0.6197 0.7495 0.901 1.0359 1.0615 0.9731 0.8626 0.7467
2854.887 0.5838 0.3995 0.255 0.158 0.093 0.136 0.173 0.168 0.176 0.144
2893.467 0.152 0.196 0.168 0.108 0.137 0.221 0.214 0.178 0.143 0.161
2932.046 0.167 0.12 0.15 0.21 0.303 0.3177 0.3133 0.423 0.5531 0.7209
2970.626 1.0875 1.812 3.312 6.082 10.322 13.942 14.482 13.922 13.022 9.162
3009.205 4.412 1.942 1.0878 0.8447 0.7464 0.8017 0.9086 1.0914 1.3532 1.472
3047.785 1.542 1.522 1.3681 1.1619 0.9641 0.752 0.5521 0.4437 0.3898 0.3619
3086.364 0.303 0.256 0.221 0.187 0.199 0.207 0.252 0.291 0.214 0.136
3124.944 0.171 0.146 0.077 0.105 0.086 0.031 0.095 0.179 0.154 0.096
3163.524 0.096 0.188 0.204 0.225 0.229 0.208 0.159 0.169 0.256 0.203
3202.103 0.153 0.117 0.126 0.1 0 0.047 0.108 0.148 0.208 0.181
3240.683 0.148 0.109 0.099 0.165 0.17 0.14 0.127 0.1 0.139 0.207
3279.262 0.178 0.169 0.196 0.236 0.172 0.143 0.214 0.226 0.231 0.183
3317.842 0.171 0.199 0.263 0.3729 0.3815 0.347 0.415807 0.4658 0.3622 0.258
3356.421 0.218 0.203 0.287 0.3373 0.368 0.261 0.235 0.3332 0.3253 0.224
3395.001 0.251 0.3315 0.3172 0.3602 0.42418 0.44188 0.3867 0.3575 0.4006 0.3135
3433.580 0.226 0.196 0.119 0.175 0.253 0.294 0.28 0.224 0.235 0.297
3472.160 0.31 0.335 0.3615 0.311 0.3305 0.4024 0.43256 0.3774 0.288 0.277
3510.740 0.277 0.259 0.287 0.282 0.23 0.18 0.242 0.368 0.394 0.3624
3549.319 0.275 0.224 0.231 0.187 0.237 0.3655 0.359 0.285 0.285 0.231
3587.899 0.192 0.256 0.27 0.26 0.249 0.309 0.299 0.293 0.282 0.265
3626.478 0.304 0.231 0.3288 0.43317 0.45274 0.50847 0.5278 0.6112 0.7106 0.6882
3665.058 0.6393 0.763 0.688 0.4 0.43166 0.4965 0.48994 0.5207 0.5143 0.44036
3703.637 0.337 0.3279 0.3728 0.3153 0.301 0.296 0.244 0.3577 0.46097 0.398
3742.217 0.418543 0.3957 0.297 0.285 0.263 0.202 0.292 0.412529 0.3465 0.31
3780.797 0.3384 0.3672 0.4015 0.42992 0.5746 0.6861 0.5972 0.5624 0.6103 0.5731
3819.376 0.5753 0.5201 0.44028 0.43818 0.48864 0.5198 0.5206 0.6751 0.828 0.9639
3857.956 1.0063 0.9319 0.8992 0.9308 0.8699 0.713 0.5229 0.43022 0.3778 0.229
3896.535 0.13 0.179 0.261 0.252 0.206 0.224 0.262 0.27 0.298 0.191
3935.115 0.123 0.14 0.164 0.19 0.253 0.3517 0.366 0.3544 0.3314 0.281
3973.694 0.248 0.296 0.309 0.32 0.285 0.248 0.218 0.163
##END=
