##TITLE=2,2-Difluoroethanol
##JCAMP-DX=4.24
##DATA TYPE=INFRARED SPECTRUM
##ORIGIN=EPA-IR VAPOR PHASE LIBRARY
##OWNER=SRD/NIST
Collection (C) 2018 copyright by the U.S. Secretary of Commerce
on behalf of the United States of America. All rights reserved.
##CAS REGISTRY NO=359-13-7
##MOLFORM=C 2 H 4 F 2 O
##$NIST SOURCE=MSDC-IR
##STATE=gas
##XUNITS=1/CM
##YUNITS=ABSORBANCE
##XFACTOR=1.
##YFACTOR=0.001
##DELTAX=1.929
##FIRSTX=549.8
##LASTX=4000.8
##FIRSTY=0.8609
##MAXX=4000.75
##MINX=549.766
##MAXY=0.027635
##MINY=0
##NPOINTS=1790
##XYDATA=(X++(Y..Y))
549.766 0.8609 0.9123 0.9946 1.0992 0.8314 0.7292 0.714 0.6428 0.6253 0.7412
569.056 0.8577 0.9576 1.0604 1.048 1.0323 0.9075 0.9606 0.8597 0.6113 0.6616
588.346 0.7952 0.6367 0.46322 0.46878 0.39406 0.40093 0.4056 0.5541 0.6647 0.6267
607.636 0.6532 0.5872 0.5315 0.45728 0.39609 0.2805 0.254 0.40479 0.382309 0.3241
626.926 0.45008 0.39091 0.3467 0.3627 0.218 0.265 0.3221 0.2796 0.3045 0.3434
646.216 0.42218 0.379412 0.253 0.2996 0.3082 0.22 0.3004 0.39175 0.2854 0.23
665.506 0.3387 0.3577 0.2952 0.44595 0.5474 0.45972 0.42989 0.45387 0.45658 0.39199
684.796 0.353 0.2948 0.24 0.27 0.2957 0.319 0.374754 0.39057 0.3491 0.3581
704.086 0.37266 0.3636 0.38777 0.4978 0.5673 0.561 0.6086 0.6988 0.7572 0.7064
723.376 0.6514 0.6884 0.7733 0.8393 0.8812 0.9088 0.9078 0.9314 1.0732 1.1183
742.666 1.1434 1.2515 1.203 1.0466 0.9409 0.9334 0.9765 0.9913 0.9712 0.9388
761.956 0.8553 0.7772 0.7208 0.6707 0.5414 0.47277 0.5866 0.5124 0.42629 0.45051
781.246 0.40885 0.42236 0.45448 0.42218 0.44708 0.4436 0.4786 0.4761 0.39749 0.4912
800.536 0.605 0.5732 0.551 0.5423 0.6358 0.6167 0.5591 0.7521 0.7603 0.6512
819.826 0.586 0.5836 0.6332 0.7147 0.7371 0.8643 0.9416 0.9247 0.9712 1.0549
839.116 1.2242 1.375 1.605 1.735 1.755 1.975 2.175 2.365 2.545 2.705
858.406 2.935 3.265 3.625 3.815 3.925 3.965 3.805 3.685 3.665 3.725
877.696 3.855 3.995 4.145 4.185 4.125 3.985 3.925 3.845 3.625 3.465
896.986 3.265 3.045 2.955 2.865 2.755 2.605 2.505 2.395 2.205 2.215
916.276 2.215 2.085 1.925 1.815 1.845 1.805 1.715 1.695 1.675 1.655
935.566 1.595 1.485 1.525 1.485 1.3322 1.2613 1.2219 1.1832 1.1494 1.164
954.856 1.1527 1.145 1.1696 1.1935 1.149 1.0593 1.086 1.1189 1.129 1.132
974.146 1.1786 1.2994 1.3666 1.385 1.385 1.375 1.415 1.455 1.475 1.515
993.436 1.525 1.615 1.685 1.705 1.815 1.895 1.965 2.065 2.205 2.325
1012.726 2.395 2.545 2.775 2.965 3.195 3.475 3.815 4.165 4.575 5.085
1032.016 5.625 6.265 7.005 7.835 8.635 9.485 10.445 11.475 12.475 13.445
1051.306 14.365 15.275 16.195 16.965 17.755 18.775 19.795 20.495 21.285 22.315
1070.596 23.335 24.325 25.185 25.965 26.605 27.105 27.415 27.565 27.635 27.425
1089.886 27.085 26.795 26.535 26.315 26.065 25.855 25.335 24.405 23.435 22.385
1109.176 21.215 19.925 18.615 17.345 16.275 15.405 14.645 14.015 13.375 12.755
1128.467 12.355 12.025 11.745 11.345 10.735 10.295 9.945 9.605 9.225 8.795
1147.757 8.295 7.915 7.605 7.305 6.995 6.605 6.175 5.565 4.985 4.665
1167.047 4.425 4.205 3.985 3.785 3.585 3.365 3.325 3.295 3.245 3.315
1186.337 3.245 3.155 3.235 3.275 3.275 3.395 3.485 3.595 3.595 3.455
1205.627 3.585 3.665 3.515 3.485 3.505 3.475 3.425 3.305 3.235 3.245
1224.917 3.095 2.985 2.865 2.775 2.765 2.575 2.405 2.255 1.985 1.855
1244.207 1.835 1.785 1.665 1.545 1.515 1.505 1.505 1.465 1.465 1.465
1263.497 1.385 1.3453 1.3442 1.3149 1.266 1.2763 1.2958 1.2947 1.2869 1.2526
1282.787 1.2838 1.3521 1.385 1.405 1.425 1.485 1.565 1.605 1.595 1.645
1302.077 1.665 1.725 1.825 1.915 2.045 2.095 2.175 2.235 2.265 2.315
1321.367 2.345 2.455 2.595 2.615 2.665 2.795 2.865 3.015 3.195 3.285
1340.657 3.345 3.395 3.485 3.595 3.705 3.865 4.015 4.205 4.365 4.485
1359.947 4.685 4.925 5.085 5.105 5.055 4.995 4.855 4.685 4.555 4.425
1379.237 4.275 4.095 3.915 3.825 3.805 3.655 3.445 3.315 3.215 3.135
1398.527 3.095 3.005 2.925 2.875 2.765 2.655 2.605 2.535 2.435 2.365
1417.817 2.315 2.205 2.075 2.005 1.905 1.865 1.805 1.655 1.585 1.565
1437.107 1.495 1.3679 1.2866 1.2812 1.2284 1.1696 1.1051 1.0813 1.0557 1.1041
1456.397 1.2396 1.1721 1.0247 0.9982 1.035 1.0228 0.9783 1.0012 1.0559 1.0178
1475.687 0.9512 0.8706 0.8064 0.7536 0.7021 0.6632 0.6508 0.6605 0.6074 0.5585
1494.977 0.5554 0.5634 0.4984 0.45114 0.46989 0.5912 0.6698 0.548 0.4832 0.44023
1514.267 0.43315 0.4918 0.4906 0.5176 0.5394 0.44805 0.40821 0.40452 0.3353 0.3436
1533.557 0.40308 0.39125 0.46952 0.5704 0.5227 0.44694 0.41846 0.376058 0.3572 0.3407
1552.847 0.3323 0.348 0.40981 0.5661 0.4844 0.3482 0.39366 0.40807 0.39474 0.3586
1572.137 0.2756 0.3074 0.376331 0.3562 0.34 0.3354 0.3351 0.3056 0.269 0.2817
1591.427 0.2961 0.2997 0.268 0.3006 0.3455 0.31 0.3031 0.2943 0.2785 0.238
1610.717 0.192 0.232 0.3445 0.41225 0.3159 0.243 0.3018 0.3225 0.3008 0.3347
1630.007 0.3592 0.3493 0.38669 0.41712 0.3647 0.3333 0.305 0.3081 0.39221 0.41593
1649.297 0.36917 0.4794 0.6107 0.41733 0.273 0.264 0.3025 0.378344 0.374943 0.36736
1668.587 0.40138 0.40627 0.3628 0.382785 0.36833 0.3464 0.39573 0.44289 0.5245 0.45945
1687.877 0.3646 0.40267 0.44413 0.5014 0.5864 0.6058 0.6554 0.6283 0.5747 0.607
1707.167 0.6334 0.62 0.6304 0.7125 0.7622 0.8221 0.8034 0.7226 0.7181 0.7207
1726.457 0.6692 0.6992 0.7531 0.8219 0.8948 0.8358 0.8079 0.8119 0.7848 0.7268
1745.747 0.6814 0.6756 0.6996 0.7181 0.6644 0.6392 0.6371 0.5871 0.5697 0.5755
1765.037 0.5169 0.4951 0.5029 0.4781 0.4866 0.45127 0.38893 0.36501 0.3295 0.3348
1784.327 0.3338 0.268 0.233 0.227 0.2982 0.2813 0.224 0.263 0.2901 0.2841
1803.617 0.238 0.214 0.267 0.274 0.225 0.181 0.173 0.205 0.234 0.259
1822.907 0.224 0.199 0.203 0.214 0.207 0.213 0.237 0.246 0.252 0.246
1842.197 0.262 0.241 0.237 0.25 0.212 0.175 0.163 0.186 0.209 0.217
1861.487 0.234 0.236 0.224 0.249 0.258 0.202 0.183 0.199 0.199 0.189
1880.777 0.178 0.184 0.196 0.197 0.164 0.169 0.204 0.217 0.212 0.178
1900.067 0.179 0.231 0.224 0.214 0.244 0.206 0.177 0.197 0.213 0.21
1919.357 0.187 0.216 0.219 0.177 0.194 0.218 0.256 0.257 0.222 0.239
1938.647 0.239 0.233 0.255 0.269 0.259 0.254 0.25 0.209 0.249 0.2877
1957.937 0.22 0.2 0.234 0.306 0.2932 0.196 0.12 0.114 0.184 0.229
1977.227 0.258 0.247 0.245 0.273 0.243 0.224 0.24 0.265 0.2809 0.2893
1996.517 0.327 0.2927 0.243 0.248 0.248 0.247 0.263 0.2917 0.2778 0.251
2015.807 0.273 0.24 0.204 0.267 0.203 0.141 0.184 0.209 0.219 0.215
2035.097 0.232 0.241 0.241 0.227 0.216 0.201 0.165 0.175 0.196 0.193
2054.387 0.217 0.222 0.233 0.231 0.217 0.218 0.24 0.261 0.226 0.212
2073.677 0.232 0.232 0.208 0.214 0.234 0.231 0.238 0.216 0.209 0.249
2092.967 0.234 0.226 0.249 0.271 0.262 0.249 0.262 0.27 0.2756 0.2796
2112.257 0.303 0.3091 0.3218 0.3179 0.3198 0.3348 0.3122 0.318 0.3299 0.3121
2131.547 0.257 0.232 0.231 0.231 0.2869 0.312 0.26 0.258 0.2921 0.268
2150.837 0.3021 0.2999 0.264 0.266 0.247 0.268 0.2817 0.2894 0.257 0.226
2170.127 0.249 0.269 0.277 0.2901 0.2885 0.264 0.267 0.262 0.217 0.196
2189.417 0.247 0.2971 0.2895 0.26 0.253 0.2866 0.2792 0.228 0.213 0.246
2208.707 0.2802 0.252 0.274 0.272 0.223 0.2 0.212 0.236 0.228 0.219
2227.997 0.232 0.226 0.207 0.229 0.243 0.232 0.235 0.252 0.239 0.223
2247.287 0.211 0.202 0.201 0.216 0.209 0.199 0.207 0.193 0.224 0.224
2266.577 0.219 0.191 0.136 0.134 0.11 0.132 0.159 0.171 0.173 0.195
2285.868 0.226 0.18 0.111 0.132 0.164 0.119 0.088 0.104 0.13 0.12
2305.158 0.11 0.122 0.115 0.107 0.152 0.184 0.171 0.16 0.144 0.1
2324.448 0.11 0.175 0.17 0.157 0.195 0.205 0.208 0.202 0.179 0.173
2343.738 0.144 0.153 0.178 0.193 0.182 0.216 0.2813 0.255 0.251 0.257
2363.028 0.242 0.215 0.19 0.177 0.201 0.229 0.179 0.138 0.11 0.046
2382.318 0.061 0.113 0.109 0.118 0.115 0.132 0.141 0.122 0.134 0.159
2401.608 0.146 0.106 0.131 0.164 0.131 0.129 0.185 0.161 0.139 0.183
2420.898 0.164 0.151 0.156 0.083 0.073 0.155 0.169 0.158 0.164 0.15
2440.188 0.119 0.088 0.101 0.158 0.185 0.189 0.201 0.167 0.179 0.197
2459.478 0.133 0.127 0.111 0.092 0.172 0.191 0.156 0.112 0.096 0.151
2478.768 0.152 0.136 0.132 0.101 0.085 0.116 0.108 0.113 0.138 0.1
2498.058 0.123 0.145 0.049 0.049 0.11 0.144 0.138 0.078 0.084 0.111
2517.348 0.133 0.142 0.184 0.21 0.157 0.089 0.064 0.136 0.154 0.089
2536.638 0.111 0.117 0.103 0.164 0.19 0.141 0.143 0.2 0.172 0.096
2555.928 0.097 0.128 0.122 0.116 0.119 0.095 0.111 0.155 0.181 0.167
2575.218 0.082 0.046 0.066 0.06 0.083 0.091 0.071 0.093 0.112 0.135
2594.508 0.13 0.132 0.1 0.115 0.159 0.158 0.19 0.201 0.167 0.087
2613.798 0 0.011 0.076 0.108 0.093 0.057 0.056 0.064 0.074 0.07
2633.088 0.093 0.151 0.118 0.076 0.079 0.068 0.053 0.066 0.094 0.097
2652.378 0.087 0.064 0.101 0.14 0.104 0.009 0.014 0.082 0.093 0.076
2671.668 0.054 0.081 0.103 0.076 0.125 0.186 0.214 0.178 0.107 0.129
2690.958 0.183 0.154 0.103 0.19 0.177 0.069 0.117 0.148 0.135 0.167
2710.248 0.136 0.096 0.129 0.165 0.15 0.097 0.071 0.06 0.05 0.113
2729.538 0.151 0.14 0.108 0.128 0.184 0.155 0.139 0.2 0.103 0.025
2748.828 0.096 0.077 0.08 0.17 0.237 0.213 0.22 0.254 0.231 0.217
2768.118 0.183 0.164 0.153 0.096 0.175 0.261 0.227 0.211 0.24 0.25
2787.408 0.219 0.232 0.196 0.198 0.227 0.2812 0.36562 0.383422 0.3467 0.2821
2806.698 0.266 0.2763 0.22 0.247 0.36923 0.2977 0.2846 0.3389 0.2996 0.3462
2825.988 0.362 0.3295 0.36687 0.42708 0.46529 0.47175 0.41829 0.42739 0.44381 0.45613
2845.278 0.5288 0.5211 0.4419 0.44642 0.5295 0.581 0.7072 0.7882 0.8023 0.872
2864.568 0.9321 0.9741 0.9593 1.063 1.1968 1.1747 1.2182 1.2325 1.2716 1.395
2883.858 1.445 1.445 1.435 1.495 1.545 1.555 1.595 1.645 1.625 1.655
2903.148 1.635 1.525 1.625 1.685 1.575 1.545 1.565 1.685 1.795 1.815
2922.438 1.845 1.865 2.025 2.215 2.315 2.375 2.445 2.595 2.785 2.915
2941.728 3.095 3.335 3.475 3.695 3.895 4.015 4.145 4.285 4.385 4.465
2961.018 4.655 4.825 5.055 5.315 5.575 5.635 5.535 5.445 5.395 5.495
2980.308 5.555 5.495 5.325 5.115 4.895 4.775 4.645 4.395 4.035 3.535
2999.598 3.205 3.015 2.735 2.585 2.425 2.105 1.875 1.665 1.475 1.3627
3018.888 1.2463 1.0912 0.9007 0.7559 0.7167 0.7265 0.5501 0.46705 0.5822 0.533
3038.178 0.36995 0.3002 0.3071 0.3436 0.3332 0.186 0.144 0.133 0.147 0.247
3057.468 0.233 0.178 0.129 0.213 0.267 0.191 0.218 0.215 0.181 0.158
3076.758 0.125 0.13 0.154 0.184 0.169 0.113 0.052 0.065 0.064 0.092
3096.048 0.12 0.053 0.055 0.066 0.074 0.126 0.14 0.12 0.123 0.142
3115.338 0.032 0.01 0.141 0.12 0.106 0.157 0.1 0.047 0.006 0.024
3134.628 0.101 0.121 0.156 0.146 0.099 0.115 0.087 0.08 0.113 0.086
3153.918 0.094 0.08 0.114 0.18 0.15 0.142 0.094 0.093 0.153 0.103
3173.208 0.148 0.205 0.141 0.207 0.213 0.11 0.151 0.17 0.093 0.063
3192.498 0.068 0.047 0.07 0.137 0.17 0.175 0.166 0.106 0.143 0.195
3211.788 0.127 0.179 0.25 0.198 0.147 0.131 0.048 0.043 0.127 0.064
3231.078 0.012 0.131 0.15 0.061 0.105 0.121 0.05 0.024 0.112 0.235
3250.368 0.222 0.154 0.141 0.165 0.15 0.169 0.224 0.154 0.074 0.044
3269.658 0.036 0.12 0.155 0.13 0.167 0.232 0.266 0.275 0.226 0.223
3288.948 0.217 0.205 0.258 0.207 0.181 0.165 0.165 0.134 0.031 0.114
3308.238 0.182 0.14 0.085 0.151 0.203 0.145 0.165 0.196 0.17 0.142
3327.528 0.129 0.201 0.238 0.168 0.155 0.176 0.156 0.128 0.068 0.037
3346.818 0.196 0.258 0.224 0.225 0.19 0.2752 0.3472 0.273 0.2787 0.235
3366.108 0.256 0.3315 0.2981 0.254 0.263 0.40702 0.43931 0.3406 0.39547 0.40561
3385.398 0.36627 0.3184 0.215 0.266 0.3494 0.40741 0.39878 0.2848 0.2764 0.273
3404.688 0.204 0.207 0.22 0.227 0.245 0.208 0.205 0.3292 0.3456 0.3305
3423.978 0.3447 0.2834 0.272 0.2798 0.271 0.243 0.3615 0.47004 0.42055 0.382883
3443.269 0.3162 0.316 0.45169 0.46901 0.3314 0.3413 0.286 0.186 0.3166 0.3508
3462.559 0.3009 0.2865 0.264 0.2852 0.2966 0.3118 0.267 0.2768 0.2934 0.3074
3481.849 0.3398 0.3147 0.3397 0.3408 0.42515 0.44359 0.40309 0.45417 0.42172 0.40384
3501.139 0.5006 0.47228 0.2797 0.258 0.2901 0.2978 0.3373 0.322 0.3303 0.3536
3520.429 0.4756 0.5127 0.3386 0.26 0.3207 0.3328 0.3506 0.3377 0.39994 0.46436
3539.719 0.3555 0.3032 0.3009 0.2808 0.3403 0.38949 0.39952 0.4839 0.42545 0.3148
3559.009 0.3606 0.493 0.484 0.43741 0.47407 0.42066 0.45518 0.39457 0.4047 0.5228
3578.299 0.44775 0.43738 0.47025 0.5387 0.5337 0.5068 0.45398 0.47088 0.5464 0.4799
3597.589 0.44317 0.5187 0.6447 0.639 0.5711 0.6303 0.8044 0.8196 0.6747 0.6853
3616.879 0.7797 0.946 1.0556 1.0549 1.1529 1.3185 1.505 1.555 1.595 1.775
3636.169 1.955 2.145 2.325 2.535 2.725 2.825 3.145 3.335 3.395 3.505
3655.459 3.445 3.415 3.525 3.535 3.385 3.475 3.625 3.565 3.475 3.275
3674.749 3.135 3.005 2.805 2.615 2.395 2.255 2.025 1.755 1.535 1.31
3694.039 1.2598 1.2217 1.0331 0.8921 0.818 0.8082 0.733 0.7299 0.7344 0.6363
3713.329 0.5842 0.4513 0.38104 0.45546 0.6645 0.7804 0.646 0.5039 0.42925 0.45625
3732.619 0.5277 0.6338 0.6403 0.6132 0.6553 0.6283 0.5605 0.43458 0.3379 0.42436
3751.909 0.5648 0.4803 0.3686 0.43448 0.5107 0.40782 0.348 0.45305 0.503 0.5713
3771.199 0.6068 0.5151 0.45513 0.39599 0.3409 0.40547 0.38617 0.43305 0.41721 0.3066
3790.489 0.3606 0.3375 0.318 0.253 0.204 0.3455 0.36899 0.3035 0.3574 0.39717
3809.779 0.273 0.166 0.2883 0.37367 0.2815 0.262 0.3138 0.2816 0.2918 0.3475
3829.069 0.2857 0.272 0.43605 0.4995 0.45891 0.41858 0.41507 0.41173 0.3536 0.3488
3848.359 0.3033 0.41283 0.5759 0.5056 0.40352 0.3482 0.234 0.2915 0.5077 0.5743
3867.649 0.47431 0.40972 0.3296 0.235 0.3313 0.40743 0.3414 0.3358 0.359 0.41731
3886.939 0.44883 0.4236 0.38768 0.3118 0.374085 0.5099 0.56 0.44127 0.3336 0.3282
3906.229 0.3086 0.3138 0.3192 0.26 0.191 0.214 0.3063 0.17 0.119 0.199
3925.519 0.203 0.3078 0.3403 0.273 0.152 0.139 0.281 0.3255 0.273 0.2993
3944.809 0.2953 0.239 0.3013 0.3058 0.3643 0.41557 0.36883 0.39695 0.36569 0.3145
3964.099 0.3247 0.31 0.259 0.197 0.117 0.149 0.245 0.223 0.271 0.2774
3983.389 0.201 0.3228 0.380069 0.271 0.15 0.086 0.142 0.158 0.213 0.269
##END=
