##TITLE=Ethylene, fluorotrichloro-
##JCAMP-DX=4.24
##DATA TYPE=INFRARED SPECTRUM
##CLASS=COBLENTZ
##ORIGIN=DOW CHEMICAL COMPANY
##OWNER=Copyright (C) 1987 by the Coblentz Society
Collection (C) 2018 copyright by the U.S. Secretary of Commerce
on behalf of the United States of America. All rights reserved.
##DATE=1964
##NAMES=1,1,2-trichloro-2-fluoroethylene
FLUORO TRICHLORO ETHYLENE
##CAS REGISTRY NO=359-29-5
##MOLFORM=C2 Cl3 F
##SOURCE REFERENCE=COBLENTZ NO. 8841
##$NIST SOURCE=COBLENTZ
##$NIST IMAGE=cob8841
##SPECTROMETER/DATA SYSTEM=DOW KBr FOREPRISM-GRATING
##INSTRUMENT PARAMETERS=GRATING CHANGED AT 5.0, 7.5, 15.0 MICRON
##STATE=GAS (60 mmHg, N2 ADDED, TOTAL PRESSURE 600 mmHg)
##PATH LENGTH=5 CM
##SAMPLING PROCEDURE=TRANSMISSION
##RESOLUTION=2
##DATA PROCESSING=DIGITIZED BY COBLENTZ SOCIETY (BATCH II) FROM HARD COPY
##XUNITS=1/CM
##YUNITS=TRANSMITTANCE
##XFACTOR=1.0
##YFACTOR=1
##FIRSTX=390
##LASTX=3766
##FIRSTY=0.8322
##MAXX=3766
##MINX=390
##MAXY=0.8933
##MINY=0.003
##NPOINTS=3377
##XYDATA=(X++(Y..Y))
390.000000 0.8322 0.8324 0.8326 0.8327 0.8329
395.000000 0.8331 0.8333 0.8335 0.8338 0.8341
400.000000 0.8344 0.8347 0.8350 0.8353 0.8354
405.000000 0.8355 0.8356 0.8357 0.8359 0.8360
410.000000 0.8361 0.8362 0.8363 0.8364 0.8366
415.000000 0.8367 0.8369 0.8370 0.8372 0.8374
420.000000 0.8375 0.8377 0.8378 0.8380 0.8382
425.000000 0.8383 0.8385 0.8386 0.8388 0.8390
430.000000 0.8391 0.8393 0.8394 0.8396 0.8398
435.000000 0.8400 0.8402 0.8404 0.8406 0.8408
440.000000 0.8410 0.8412 0.8415 0.8417 0.8419
445.000000 0.8421 0.8423 0.8425 0.8427 0.8429
450.000000 0.8430 0.8431 0.8432 0.8433 0.8434
455.000000 0.8435 0.8436 0.8437 0.8439 0.8440
460.000000 0.8441 0.8442 0.8434 0.8444 0.8445
465.000000 0.8446 0.8446 0.8446 0.8446 0.8446
470.000000 0.8446 0.8446 0.8446 0.8446 0.8446
475.000000 0.8446 0.8445 0.8444 0.8442 0.8440
480.000000 0.8438 0.8436 0.8434 0.8432 0.8430
485.000000 0.8429 0.8427 0.8425 0.8423 0.8419
490.000000 0.8416 0.8413 0.8410 0.8406 0.8403
495.000000 0.8400 0.8394 0.8389 0.8385 0.8387
500.000000 0.8388 0.8389 0.8391 0.8392 0.8392
505.000000 0.8390 0.8388 0.8386 0.8380 0.8373
510.000000 0.8361 0.8343 0.8325 0.8303 0.8278
515.000000 0.8253 0.8230 0.8209 0.8188 0.8167
520.000000 0.8144 0.8117 0.8090 0.8063 0.8035
525.000000 0.8008 0.7980 0.7953 0.7940 0.7927
530.000000 0.7914 0.7902 0.7888 0.7872 0.7760
535.000000 0.7648 0.7547 0.7544 0.7575 0.7749
540.000000 0.7927 0.8041 0.8064 0.8085 0.8106
545.000000 0.8132 0.8155 0.8174 0.8194 0.8214
550.000000 0.8236 0.8257 0.8276 0.8293 0.8309
555.000000 0.8322 0.8331 0.8340 0.8349 0.8358
560.000000 0.8363 0.8365 0.8367 0.8369 0.8369
565.000000 0.8369 0.8369 0.8369 0.8368 0.8365
570.000000 0.8362 0.8360 0.8356 0.8351 0.8346
575.000000 0.8341 0.8336 0.8335 0.8336 0.8337
580.000000 0.8338 0.8339 0.8341 0.8343 0.8346
585.000000 0.8348 0.8351 0.8353 0.8356 0.8362
590.000000 0.8367 0.8372 0.8375 0.8378 0.8381
595.000000 0.8384 0.8388 0.8391 0.8394 0.8397
600.000000 0.8400 0.8403 0.8406 0.8410 0.8413
605.000000 0.8415 0.8416 0.8418 0.8419 0.8421
610.000000 0.8422 0.8424 0.8425 0.8428 0.8433
615.000000 0.8438 0.8442 0.8448 0.8455 0.8462
620.000000 0.8469 0.8477 0.8484 0.8491 0.8497
625.000000 0.8498 0.8499 0.8500 0.8501 0.8502
630.000000 0.8503 0.8504 0.8506 0.8507 0.8509
635.000000 0.8510 0.8512 0.8516 0.8525 0.8534
640.000000 0.8551 0.8570 0.8588 0.8606 0.8618
645.000000 0.8624 0.8630 0.8630 0.8631 0.8632
650.000000 0.8633 0.8633 0.8634 0.8634 0.8634
655.000000 0.8634 0.8634 0.8637 0.8644 0.8652
660.000000 0.8670 0.8687 0.8703 0.8718 0.8733
665.000000 0.8749 0.8764 0.8774 0.8783 0.8792
670.000000 0.8801 0.8810 0.8816 0.8821 0.8827
675.000000 0.8833 0.8838 0.8844 0.8850 0.8855
680.000000 0.8859 0.8863 0.8867 0.8871 0.8876
685.000000 0.8880 0.8884 0.8888 0.8892 0.8897
690.000000 0.8900 0.8901 0.8901 0.8902 0.8903
695.000000 0.8904 0.8904 0.8905 0.8906 0.8907
700.000000 0.8907 0.8908 0.8908 0.8908 0.8908
705.000000 0.8908 0.8908 0.8908 0.8908 0.8905
710.000000 0.8899 0.8894 0.8888 0.8883 0.8878
715.000000 0.8872 0.8854 0.8829 0.8783 0.8741
720.000000 0.8719 0.8716 0.8772 0.8857 0.8908
725.000000 0.8917 0.8920 0.8923 0.8925 0.8927
730.000000 0.8928 0.8929 0.8931 0.8932 0.8933
735.000000 0.8933 0.8932 0.8931 0.8930 0.8928
740.000000 0.8925 0.8923 0.8921 0.8919 0.8917
745.000000 0.8914 0.8910 0.8910 0.8909 0.8908
750.000000 0.8907 0.8906 0.8905 0.8904 0.8903
755.000000 0.8899 0.8893 0.8888 0.8882 0.8877
760.000000 0.8871 0.8866 0.8860 0.8853 0.8842
765.000000 0.8830 0.8819 0.8808 0.8795 0.8781
770.000000 0.8767 0.8752 0.8738 0.8724 0.8710
775.000000 0.8704 0.8698 0.8692 0.8687 0.8690
780.000000 0.8692 0.8695 0.8700 0.8706 0.8711
785.000000 0.8717 0.8723 0.8728 0.8734 0.8737
790.000000 0.8739 0.8742 0.8745 0.8741 0.8734
795.000000 0.8727 0.8717 0.8702 0.8687 0.8671
800.000000 0.8652 0.8633 0.8609 0.8577 0.8546
805.000000 0.8514 0.8482 0.8450 0.8417 0.8384
810.000000 0.8338 0.8292 0.8246 0.8200 0.8154
815.000000 0.8107 0.8061 0.8031 0.8010 0.7991
820.000000 0.7975 0.7961 0.7947 0.7913 0.7879
825.000000 0.7819 0.7734 0.7618 0.7466 0.7274
830.000000 0.6989 0.6451 0.5682 0.4914 0.4145
835.000000 0.3855 0.3793 0.3766 0.3746 0.3730
840.000000 0.3710 0.3455 0.2867 0.2279 0.1692
845.000000 0.1104 0.0545 0.0368 0.0230 0.0108
850.000000 0.0075 0.0056 0.0049 0.0047 0.0046
855.000000 0.0047 0.0030 0.0051 0.0055 0.0059
860.000000 0.0067 0.0081 0.0100 0.0125 0.0174
865.000000 0.0383 0.0736 0.1594 0.2451 0.3308
870.000000 0.4166 0.5023 0.5881 0.6735 0.6776
875.000000 0.6796 0.6816 0.6837 0.6863 0.6892
880.000000 0.6923 0.6958 0.6993 0.7029 0.7067
885.000000 0.7105 0.7196 0.7269 0.7347 0.7447
890.000000 0.7548 0.7656 0.7774 0.7950 0.8088
895.000000 0.8200 0.8290 0.8321 0.8336 0.8343
900.000000 0.8351 0.8344 0.8332 0.8317 0.8295
905.000000 0.8269 0.8175 0.8081 0.7987 0.7893
910.000000 0.7800 0.7706 0.7612 0.7518 0.7424
915.000000 0.7331 0.7237 0.7143 0.7028 0.7008
920.000000 0.7026 0.7035 0.7065 0.7112 0.7158
925.000000 0.7203 0.7286 0.7367 0.7432 0.7498
930.000000 0.7575 0.7660 0.7701 0.7742 0.7767
935.000000 0.7787 0.7802 0.7802 0.7802 0.7821
940.000000 0.7783 0.7773 0.7760 0.7748 0.7735
945.000000 0.7715 0.7694 0.7672 0.7647 0.7622
950.000000 0.7594 0.7568 0.7562 0.7565 0.7578
955.000000 0.7602 0.7630 0.7651 0.7663 0.7659
960.000000 0.7654 0.7616 0.7340 0.7165 0.6964
965.000000 0.6407 0.5850 0.5294 0.4737 0.4181
970.000000 0.3624 0.3068 0.2511 0.1954 0.1576
975.000000 0.1176 0.0892 0.0322 0.0176 0.0105
980.000000 0.0075 0.0066 0.0065 0.0067 0.0056
985.000000 0.0077 0.0082 0.0088 0.0094 0.0103
990.000000 0.0113 0.0128 0.0144 0.0170 0.0205
995.000000 0.0247 0.0307 0.0388 0.0538 0.1053
1000.000000 0.1698 0.2344 0.2989 0.3634 0.4279
1005.000000 0.4925 0.5570 0.6215 0.6861 0.7506
1010.000000 0.7582 0.7622 0.7620 0.7646 0.7590
1015.000000 0.7572 0.7550 0.7526 0.7503 0.7472
1020.000000 0.7440 0.7408 0.7370 0.7333 0.7298
1025.000000 0.7266 0.7234 0.7218 0.7201 0.7191
1030.000000 0.7188 0.7185 0.7197 0.7244 0.7289
1035.000000 0.7344 0.7400 0.7455 0.7516 0.7588
1040.000000 0.7657 0.7718 0.7768 0.7806 0.7840
1045.000000 0.7870 0.7901 0.7931 0.7957 0.7984
1050.000000 0.8010 0.8037 0.8063 0.8069 0.8071
1055.000000 0.8083 0.8058 0.8018 0.7981 0.7947
1060.000000 0.7910 0.7872 0.7819 0.7746 0.7717
1065.000000 0.7715 0.7716 0.7711 0.7719 0.7720
1070.000000 0.7722 0.7736 0.7754 0.7777 0.7821
1075.000000 0.7866 0.7916 0.7970 0.8028 0.8092
1080.000000 0.8158 0.8224 0.8273 0.8312 0.8324
1085.000000 0.8327 0.8328 0.8329 0.8330 0.8330
1090.000000 0.8330 0.8330 0.8329 0.8328 0.8326
1095.000000 0.8325 0.8323 0.8320 0.8315 0.8311
1100.000000 0.8307 0.8302 0.8293 0.8285 0.8276
1105.000000 0.8261 0.8238 0.8229 0.8276 0.8229
1110.000000 0.8241 0.8256 0.8277 0.8289 0.8292
1115.000000 0.8292 0.8292 0.8292 0.8292 0.8291
1120.000000 0.8289 0.8286 0.8281 0.8276 0.8270
1125.000000 0.8264 0.8259 0.8251 0.8243 0.8235
1130.000000 0.8226 0.8215 0.8203 0.8189 0.8168
1135.000000 0.8148 0.8127 0.8105 0.8080 0.8054
1140.000000 0.8029 0.7996 0.7951 0.7906 0.7863
1145.000000 0.7820 0.7778 0.7747 0.7721 0.7695
1150.000000 0.7680 0.7666 0.7645 0.7546 0.7418
1155.000000 0.7295 0.7154 0.7000 0.6671 0.6495
1160.000000 0.6019 0.5772 0.5406 0.4814 0.4221
1165.000000 0.3629 0.3036 0.2444 0.1851 0.1259
1170.000000 0.0244 0.0165 0.0120 0.0090 0.0077
1175.000000 0.0076 0.0074 0.0074 0.0074 0.0074
1180.000000 0.0074 0.0076 0.0082 0.0090 0.0098
1185.000000 0.0106 0.0120 0.0135 0.0159 0.0185
1190.000000 0.0217 0.1120 0.1546 0.1974 0.2402
1195.000000 0.2830 0.3257 0.3685 0.4113 0.4541
1200.000000 0.4969 0.5397 0.5825 0.6246 0.6246
1205.000000 0.6248 0.6205 0.6119 0.6032 0.5946
1210.000000 0.5876 0.5824 0.5788 0.5763 0.5758
1215.000000 0.5761 0.5765 0.5775 0.5800 0.5828
1220.000000 0.5857 0.5888 0.5927 0.5969 0.6020
1225.000000 0.6097 0.6163 0.6315 0.6638 0.6962
1230.000000 0.7231 0.7360 0.7434 0.7504 0.7551
1235.000000 0.7588 0.7625 0.7650 0.7668 0.7685
1240.000000 0.7689 0.7693 0.7697 0.7692 0.7688
1245.000000 0.7681 0.7673 0.7664 0.7653 0.7643
1250.000000 0.7632 0.7620 0.7606 0.7592 0.7581
1255.000000 0.7569 0.7558 0.7551 0.7552 0.7554
1260.000000 0.7558 0.7576 0.7595 0.7614 0.7633
1265.000000 0.7654 0.7681 0.7709 0.7737 0.7769
1270.000000 0.7811 0.7853 0.7896 0.7941 0.7977
1275.000000 0.7986 0.7985 0.7984 0.7983 0.7981
1280.000000 0.7977 0.7972 0.7962 0.7952 0.7941
1285.000000 0.7932 0.7922 0.7913 0.7903 0.7894
1290.000000 0.7884 0.7875 0.7863 0.7850 0.7836
1295.000000 0.7822 0.7808 0.7795 0.7786 0.7779
1300.000000 0.7772 0.7778 0.7805 0.7789 0.7883
1305.000000 0.7935 0.7980 0.8003 0.8021 0.8033
1310.000000 0.8047 0.8065 0.8084 0.8107 0.8121
1315.000000 0.8129 0.8137 0.8143 0.8141 0.8139
1320.000000 0.8137 0.8128 0.8124 0.8117 0.8109
1325.000000 0.8100 0.8088 0.8076 0.8063 0.8051
1330.000000 0.8039 0.8023 0.8006 0.7989 0.7973
1335.000000 0.7955 0.7937 0.7919 0.7902 0.7881
1340.000000 0.7852 0.7823 0.7794 0.7765 0.7736
1345.000000 0.7707 0.7677 0.7637 0.7597 0.7557
1350.000000 0.7517 0.7453 0.7373 0.7293 0.7197
1355.000000 0.7079 0.6923 0.6846 0.6771 0.6708
1360.000000 0.6676 0.6643 0.6619 0.6607 0.6602
1365.000000 0.6605 0.6608 0.6611 0.6593 0.6623
1370.000000 0.6633 0.6644 0.6655 0.6691 0.6728
1375.000000 0.6760 0.6790 0.6821 0.6867 0.6913
1380.000000 0.6956 0.6999 0.7041 0.7081 0.7117
1385.000000 0.7153 0.7189 0.7224 0.7260 0.7294
1390.000000 0.7329 0.7364 0.7399 0.7434 0.7470
1395.000000 0.7506 0.7542 0.7575 0.7604 0.7633
1400.000000 0.7662 0.7691 0.7720 0.7748 0.7776
1405.000000 0.7797 0.7819 0.7840 0.7862 0.7884
1410.000000 0.7899 0.7912 0.7924 0.7936 0.7949
1415.000000 0.7956 0.7959 0.7962 0.7969 0.7975
1420.000000 0.7981 0.7988 0.7994 0.8001 0.8007
1425.000000 0.8010 0.8012 0.8014 0.8015 0.8017
1430.000000 0.8016 0.8015 0.8015 0.8014 0.8024
1435.000000 0.8037 0.8051 0.8064 0.8076 0.8086
1440.000000 0.8094 0.8101 0.8104 0.8107 0.8106
1445.000000 0.8104 0.8102 0.8100 0.8097 0.8092
1450.000000 0.8087 0.8083 0.8077 0.8071 0.8066
1455.000000 0.8071 0.8078 0.8092 0.8108 0.8128
1460.000000 0.8135 0.8139 0.8138 0.8137 0.8136
1465.000000 0.8135 0.8134 0.8132 0.8131 0.8129
1470.000000 0.8129 0.8132 0.8135 0.8138 0.8143
1475.000000 0.8149 0.8155 0.8160 0.8166 0.8171
1480.000000 0.8175 0.8175 0.8175 0.8173 0.8166
1485.000000 0.8158 0.8150 0.8143 0.8133 0.8122
1490.000000 0.8112 0.8101 0.8090 0.8079 0.8066
1495.000000 0.8054 0.8041 0.8029 0.8017 0.8007
1500.000000 0.7998 0.7990 0.7981 0.7974 0.7974
1505.000000 0.7974 0.7978 0.7986 0.7994 0.8018
1510.000000 0.8039 0.8052 0.8065 0.8078 0.8091
1515.000000 0.8107 0.8123 0.8139 0.8153 0.8163
1520.000000 0.8172 0.8182 0.8184 0.8183 0.8181
1525.000000 0.8180 0.8179 0.8177 0.8172 0.8167
1530.000000 0.8162 0.8157 0.8150 0.8143 0.8136
1535.000000 0.8129 0.8122 0.8121 0.8122 0.8124
1540.000000 0.8142 0.8162 0.8184 0.8207 0.8222
1545.000000 0.8234 0.8239 0.8234 0.8230 0.8224
1550.000000 0.8215 0.8207 0.8197 0.8186 0.8175
1555.000000 0.8164 0.8153 0.8142 0.8133 0.8140
1560.000000 0.8175 0.8213 0.8250 0.8269 0.8268
1565.000000 0.8263 0.8257 0.8249 0.8239 0.8228
1570.000000 0.8211 0.8195 0.8177 0.8153 0.8134
1575.000000 0.8132 0.8138 0.8156 0.8177 0.8197
1580.000000 0.8217 0.8235 0.8243 0.8247 0.8249
1585.000000 0.8250 0.8248 0.8246 0.8244 0.8240
1590.000000 0.8235 0.8229 0.8224 0.8219 0.8213
1595.000000 0.8207 0.8202 0.8196 0.8188 0.8178
1600.000000 0.8167 0.8151 0.8133 0.8115 0.8096
1605.000000 0.8073 0.8049 0.8026 0.8003 0.7975
1610.000000 0.7945 0.7913 0.7867 0.7820 0.7774
1615.000000 0.7728 0.7684 0.7646 0.7630 0.7622
1620.000000 0.7611 0.7553 0.7420 0.7301 0.7194
1625.000000 0.7075 0.6797 0.6669 0.6495 0.6249
1630.000000 0.6055 0.5406 0.4999 0.4591 0.4184
1635.000000 0.3776 0.3369 0.2961 0.2554 0.2146
1640.000000 0.1739 0.1331 0.1116 0.1078 0.1057
1645.000000 0.1100 0.1061 0.1072 0.1086 0.1101
1650.000000 0.1121 0.1141 0.1164 0.1236 0.1549
1655.000000 0.1830 0.2270 0.2503 0.2652 0.3343
1660.000000 0.4502 0.5662 0.6822 0.7582 0.7690
1665.000000 0.7778 0.7842 0.7899 0.7950 0.7985
1670.000000 0.8021 0.8040 0.8054 0.8068 0.8075
1675.000000 0.8080 0.8085 0.8088 0.8090 0.8135
1680.000000 0.8077 0.8045 0.7999 0.7967 0.7983
1685.000000 0.8012 0.8032 0.8038 0.8033 0.8022
1690.000000 0.7997 0.7968 0.7932 0.7891 0.7860
1695.000000 0.7831 0.7803 0.7787 0.7782 0.7780
1700.000000 0.7787 0.7782 0.7803 0.7812 0.7815
1705.000000 0.7817 0.7820 0.7821 0.7819 0.7816
1710.000000 0.7812 0.7805 0.7798 0.7795 0.7795
1715.000000 0.7795 0.7810 0.7826 0.7859 0.7892
1720.000000 0.7925 0.7950 0.7960 0.7965 0.7962
1725.000000 0.7956 0.7950 0.7945 0.7942 0.7938
1730.000000 0.7934 0.7930 0.7924 0.7918 0.7916
1735.000000 0.7916 0.7916 0.7916 0.7922 0.7928
1740.000000 0.7933 0.7940 0.7947 0.7953 0.7960
1745.000000 0.7967 0.7974 0.7981 0.7988 0.7996
1750.000000 0.8004 0.8011 0.8019 0.8026 0.8033
1755.000000 0.8040 0.8047 0.8054 0.8061 0.8068
1760.000000 0.8074 0.8081 0.8088 0.8094 0.8101
1765.000000 0.8108 0.8115 0.8122 0.8129 0.8136
1770.000000 0.8144 0.8151 0.8158 0.8165 0.8168
1775.000000 0.8169 0.8170 0.8172 0.8173 0.8174
1780.000000 0.8176 0.8177 0.8179 0.8180 0.8181
1785.000000 0.8183 0.8182 0.8182 0.8182 0.8181
1790.000000 0.8181 0.8180 0.8180 0.8179 0.8176
1795.000000 0.8174 0.8172 0.8169 0.8167 0.8165
1800.000000 0.8162 0.8159 0.8154 0.8148 0.8143
1805.000000 0.8138 0.8132 0.8128 0.8125 0.8123
1810.000000 0.8120 0.8117 0.8115 0.8118 0.8121
1815.000000 0.8125 0.8128 0.8132 0.8135 0.8139
1820.000000 0.8142 0.8148 0.8155 0.8161 0.8167
1825.000000 0.8172 0.8177 0.8181 0.8186 0.8191
1830.000000 0.8194 0.8195 0.8197 0.8198 0.8199
1835.000000 0.8201 0.8199 0.8198 0.8196 0.8194
1840.000000 0.8192 0.8191 0.8191 0.8203 0.8213
1845.000000 0.8221 0.8230 0.8233 0.8233 0.8232
1850.000000 0.8230 0.8228 0.8226 0.8224 0.8221
1855.000000 0.8219 0.8217 0.8215 0.8213 0.8212
1860.000000 0.8211 0.8210 0.8209 0.8209 0.8208
1865.000000 0.8207 0.8207 0.8207 0.8207 0.8208
1870.000000 0.8208 0.8208 0.8209 0.8209 0.8209
1875.000000 0.8210 0.8210 0.8210 0.8211 0.8211
1880.000000 0.8212 0.8213 0.8214 0.8214 0.8215
1885.000000 0.8216 0.8217 0.8218 0.8219 0.8219
1890.000000 0.8220 0.8221 0.8222 0.8223 0.8224
1895.000000 0.8226 0.8228 0.8230 0.8232 0.8234
1900.000000 0.8237 0.8239 0.8241 0.8243 0.8246
1905.000000 0.8248 0.8251 0.8250 0.8249 0.8248
1910.000000 0.8247 0.8245 0.8244 0.8243 0.8242
1915.000000 0.8241 0.8239 0.8238 0.8237 0.8234
1920.000000 0.8231 0.8228 0.8224 0.8221 0.8218
1925.000000 0.8215 0.8211 0.8208 0.8205 0.8201
1930.000000 0.8198 0.8195 0.8191 0.8188 0.8185
1935.000000 0.8182 0.8179 0.8175 0.8172 0.8169
1940.000000 0.8166 0.8162 0.8159 0.8156 0.8154
1945.000000 0.8151 0.8148 0.8145 0.8143 0.8140
1950.000000 0.8137 0.8141 0.8146 0.8151 0.8158
1955.000000 0.8166 0.8173 0.8178 0.8168 0.8189
1960.000000 0.8195 0.8200 0.8202 0.8204 0.8207
1965.000000 0.8209 0.8211 0.8211 0.8211 0.8210
1970.000000 0.8210 0.8210 0.8209 0.8209 0.8208
1975.000000 0.8207 0.8206 0.8204 0.8202 0.8201
1980.000000 0.8199 0.8197 0.8196 0.8194 0.8192
1985.000000 0.8187 0.8183 0.8179 0.8174 0.8170
1990.000000 0.8165 0.8161 0.8156 0.8152 0.8148
1995.000000 0.8143 0.8139 0.8133 0.8128 0.8123
2000.000000 0.8118 0.8113 0.8108 0.8105 0.8102
2005.000000 0.8099 0.8097 0.8094 0.8092 0.8089
2010.000000 0.8087 0.8084 0.8082 0.8079 0.8077
2015.000000 0.8074 0.8072 0.8069 0.8067 0.8065
2020.000000 0.8063 0.8061 0.8059 0.8059 0.8060
2025.000000 0.8061 0.8062 0.8062 0.8063 0.8064
2030.000000 0.8065 0.8065 0.8066 0.8068 0.8071
2035.000000 0.8073 0.8076 0.8079 0.8082 0.8085
2040.000000 0.8089 0.8092 0.8096 0.8100 0.8104
2045.000000 0.8108 0.8112 0.8117 0.8122 0.8126
2050.000000 0.8131 0.8135 0.8140 0.8144 0.8149
2055.000000 0.8153 0.8158 0.8162 0.8166 0.8169
2060.000000 0.8173 0.8177 0.8181 0.8183 0.8186
2065.000000 0.8188 0.8190 0.8192 0.8194 0.8195
2070.000000 0.8197 0.8199 0.8201 0.8203 0.8205
2075.000000 0.8207 0.8209 0.8210 0.8211 0.8211
2080.000000 0.8211 0.8210 0.8210 0.8210 0.8210
2085.000000 0.8210 0.8210 0.8209 0.8209 0.8209
2090.000000 0.8209 0.8208 0.8208 0.8208 0.8208
2095.000000 0.8207 0.8206 0.8205 0.8204 0.8203
2100.000000 0.8202 0.8201 0.8201 0.8200 0.8199
2105.000000 0.8198 0.8197 0.8196 0.8195 0.8194
2110.000000 0.8194 0.8192 0.8191 0.8189 0.8188
2115.000000 0.8186 0.8185 0.8183 0.8182 0.8180
2120.000000 0.8179 0.8177 0.8175 0.8173 0.8171
2125.000000 0.8168 0.8166 0.8163 0.8161 0.8158
2130.000000 0.8155 0.8152 0.8150 0.8147 0.8144
2135.000000 0.8141 0.8139 0.8136 0.8134 0.8131
2140.000000 0.8128 0.8125 0.8122 0.8117 0.8113
2145.000000 0.8108 0.8103 0.8098 0.8093 0.8088
2150.000000 0.8083 0.8078 0.8074 0.8069 0.8064
2155.000000 0.8059 0.8055 0.8050 0.8046 0.8042
2160.000000 0.8038 0.8034 0.8030 0.8029 0.8029
2165.000000 0.8030 0.8032 0.8033 0.8034 0.8039
2170.000000 0.8045 0.8052 0.8060 0.8068 0.8076
2175.000000 0.8086 0.8096 0.8107 0.8118 0.8132
2180.000000 0.8147 0.8162 0.8177 0.8185 0.8194
2185.000000 0.8201 0.8209 0.8214 0.8220 0.8225
2190.000000 0.8230 0.8230 0.8230 0.8230 0.8230
2195.000000 0.8230 0.8230 0.8230 0.8230 0.8230
2200.000000 0.8230 0.8230 0.8230 0.8230 0.8230
2205.000000 0.8230 0.8230 0.8229 0.8229 0.8228
2210.000000 0.8228 0.8227 0.8227 0.8227 0.8227
2215.000000 0.8226 0.8226 0.8225 0.8225 0.8224
2220.000000 0.8224 0.8223 0.8223 0.8223 0.8223
2225.000000 0.8223 0.8224 0.8224 0.8224 0.8224
2230.000000 0.8224 0.8224 0.8225 0.8225 0.8225
2235.000000 0.8225 0.8225 0.8225 0.8226 0.8226
2240.000000 0.8226 0.8226 0.8226 0.8226 0.8227
2245.000000 0.8227 0.8227 0.8227 0.8227 0.8227
2250.000000 0.8227 0.8226 0.8226 0.8225 0.8225
2255.000000 0.8224 0.8224 0.8223 0.8223 0.8223
2260.000000 0.8223 0.8222 0.8222 0.8221 0.8221
2265.000000 0.8220 0.8220 0.8219 0.8219 0.8219
2270.000000 0.8219 0.8218 0.8218 0.8217 0.8217
2275.000000 0.8216 0.8216 0.8216 0.8216 0.8216
2280.000000 0.8216 0.8215 0.8215 0.8215 0.8215
2285.000000 0.8215 0.8215 0.8214 0.8214 0.8214
2290.000000 0.8214 0.8213 0.8213 0.8213 0.8213
2295.000000 0.8213 0.8213 0.8213 0.8213 0.8213
2300.000000 0.8213 0.8213 0.8213 0.8213 0.8213
2305.000000 0.8213 0.8213 0.8213 0.8213 0.8212
2310.000000 0.8211 0.8210 0.8209 0.8207 0.8206
2315.000000 0.8205 0.8204 0.8199 0.8195 0.8186
2320.000000 0.8178 0.8167 0.8156 0.8142 0.8129
2325.000000 0.8115 0.8102 0.8077 0.8052 0.8024
2330.000000 0.7997 0.7968 0.7939 0.7908 0.7877
2335.000000 0.7846 0.7815 0.7781 0.7747 0.7713
2340.000000 0.7680 0.7643 0.7607 0.7574 0.7541
2345.000000 0.7521 0.7502 0.7492 0.7483 0.7482
2350.000000 0.7481 0.7482 0.7484 0.7486 0.7489
2355.000000 0.7497 0.7506 0.7541 0.7576 0.7690
2360.000000 0.7804 0.7918 0.8033 0.8097 0.8161
2365.000000 0.8175 0.8189 0.8198 0.8207 0.8213
2370.000000 0.8219 0.8224 0.8230 0.8233 0.8237
2375.000000 0.8241 0.8245 0.8246 0.8247 0.8247
2380.000000 0.8248 0.8248 0.8249 0.8249 0.8250
2385.000000 0.8250 0.8250 0.8250 0.8251 0.8251
2390.000000 0.8251 0.8251 0.8251 0.8251 0.8252
2395.000000 0.8253 0.8254 0.8255 0.8257 0.8258
2400.000000 0.8259 0.8260 0.8261 0.8262 0.8264
2405.000000 0.8265 0.8266 0.8267 0.8268 0.8269
2410.000000 0.8271 0.8272 0.8273 0.8274 0.8275
2415.000000 0.8275 0.8275 0.8275 0.8276 0.8276
