##TITLE=Hydroxylamine, N,N-diethyl-
##JCAMP-DX=4.24
##DATA TYPE=INFRARED SPECTRUM
##CLASS=COBLENTZ III
##ORIGIN=WESTERN REGIONAL RES. USDA
##OWNER=Copyright (C) 1987 by the Coblentz Society
Collection (C) 2018 copyright by the U.S. Secretary of Commerce
on behalf of the United States of America. All rights reserved.
##DATE=1967/04/19
##NAMES=N,N-diethylhydroxylamine
1-[ethyl(hydroxy)amino]ethane
##CAS REGISTRY NO=3710-84-7
##MOLFORM=C4 H11 N O
##SOURCE REFERENCE=COBLENTZ NO. 9886
##$NIST SOURCE=COBLENTZ
##$NIST IMAGE=cob9886
##SPECTROMETER/DATA SYSTEM=CARY 90 (GRATING)
##INSTRUMENT PARAMETERS=GRATING CHANGES: 3000, 2000, 1200 CM^-^1
##PATH LENGTH=CAPILLARY
##SAMPLING PROCEDURE=TRANSMISSION
##RESOLUTION=LIQUID (NEAT)
##DATA PROCESSING=DIGITIZED BY COBLENTZ SOCIETY (BATCH II) FROM HARD COPY
##XUNITS=1/CM
##YUNITS=TRANSMITTANCE
##XFACTOR=1.0
##YFACTOR=1
##FIRSTX=463
##LASTX=4000
##FIRSTY=0.7165
##MAXX=4000
##MINX=463
##MAXY=0.9122
##MINY=0.0642
##NPOINTS=3538
##XYDATA=(X++(Y..Y))
463.000000 0.7165 0.7149 0.7133 0.7117 0.7101
468.000000 0.7079 0.7051 0.7022 0.6993 0.6965
473.000000 0.6936 0.6908 0.6879 0.6839 0.6765
478.000000 0.6691 0.6618 0.6544 0.6470 0.6397
483.000000 0.6323 0.6250 0.6176 0.6102 0.6094
488.000000 0.6057 0.6134 0.6300 0.6467 0.6633
493.000000 0.6799 0.6966 0.7132 0.7298 0.7465
498.000000 0.7514 0.7558 0.7549 0.7528 0.7398
503.000000 0.7268 0.7138 0.7008 0.6878 0.6748
508.000000 0.6624 0.6651 0.6724 0.6804 0.6883
513.000000 0.6963 0.7043 0.7123 0.7203 0.7282
518.000000 0.7362 0.7442 0.7522 0.7602 0.7682
523.000000 0.7761 0.7841 0.7921 0.8001 0.8072
528.000000 0.8116 0.8198 0.8261 0.8313 0.8350
533.000000 0.8367 0.8377 0.8349 0.8380 0.8379
538.000000 0.8378 0.8377 0.8369 0.8361 0.8353
543.000000 0.8342 0.8330 0.8318 0.8305 0.8292
548.000000 0.8279 0.8266 0.8252 0.8232 0.8212
553.000000 0.8192 0.8172 0.8152 0.8133 0.8113
558.000000 0.8094 0.8075 0.8055 0.8036 0.8016
563.000000 0.7995 0.7975 0.7954 0.7934 0.7913
568.000000 0.7893 0.7872 0.7848 0.7824 0.7800
573.000000 0.7776 0.7752 0.7729 0.7705 0.7681
578.000000 0.7656 0.7632 0.7608 0.7584 0.7559
583.000000 0.7534 0.7510 0.7485 0.7460 0.7442
588.000000 0.7430 0.7418 0.7405 0.7393 0.7385
593.000000 0.7368 0.7390 0.7398 0.7412 0.7435
598.000000 0.7471 0.7508 0.7547 0.7591 0.7623
603.000000 0.7647 0.7665 0.7676 0.7684 0.7689
608.000000 0.7693 0.7696 0.7700 0.7702 0.7704
613.000000 0.7705 0.7706 0.7708 0.7709 0.7712
618.000000 0.7716 0.7720 0.7724 0.7728 0.7731
623.000000 0.7734 0.7736 0.7738 0.7741 0.7743
628.000000 0.7745 0.7747 0.7749 0.7752 0.7754
633.000000 0.7756 0.7758 0.7761 0.7764 0.7768
638.000000 0.7771 0.7774 0.7777 0.7775 0.7783
643.000000 0.7787 0.7790 0.7793 0.7796 0.7799
648.000000 0.7803 0.7806 0.7809 0.7812 0.7813
653.000000 0.7813 0.7812 0.7811 0.7810 0.7809
658.000000 0.7807 0.7805 0.7803 0.7800 0.7798
663.000000 0.7795 0.7793 0.7791 0.7788 0.7786
668.000000 0.7784 0.7782 0.7779 0.7777 0.7775
673.000000 0.7772 0.7770 0.7768 0.7765 0.7763
678.000000 0.7760 0.7758 0.7754 0.7750 0.7745
683.000000 0.7741 0.7736 0.7732 0.7728 0.7723
688.000000 0.7719 0.7714 0.7710 0.7706 0.7702
693.000000 0.7698 0.7694 0.7690 0.7685 0.7681
698.000000 0.7677 0.7673 0.7669 0.7665 0.7662
703.000000 0.7659 0.7655 0.7652 0.7649 0.7646
708.000000 0.7642 0.7639 0.7636 0.7633 0.7628
713.000000 0.7622 0.7616 0.7611 0.7605 0.7599
718.000000 0.7593 0.7588 0.7582 0.7576 0.7566
723.000000 0.7554 0.7543 0.7531 0.7520 0.7507
728.000000 0.7494 0.7480 0.7467 0.7454 0.7440
733.000000 0.7422 0.7404 0.7387 0.7363 0.7334
738.000000 0.7300 0.7244 0.7177 0.7106 0.7032
743.000000 0.6943 0.6786 0.6678 0.6578 0.6477
748.000000 0.6225 0.5978 0.5780 0.5578 0.5309
753.000000 0.5040 0.4771 0.4502 0.4233 0.3964
758.000000 0.3884 0.3900 0.3954 0.4164 0.4373
763.000000 0.4583 0.4793 0.5002 0.5212 0.5422
768.000000 0.5632 0.5841 0.6021 0.6125 0.6218
773.000000 0.6300 0.6413 0.6541 0.6742 0.6910
778.000000 0.7059 0.7154 0.7235 0.7302 0.7342
783.000000 0.7379 0.7403 0.7416 0.7428 0.7448
788.000000 0.7476 0.7506 0.7573 0.7593 0.7613
793.000000 0.7634 0.7654 0.7665 0.7677 0.7689
798.000000 0.7699 0.7709 0.7719 0.7729 0.7739
803.000000 0.7747 0.7755 0.7764 0.7771 0.7780
808.000000 0.7781 0.7787 0.7791 0.7789 0.7788
813.000000 0.7786 0.7784 0.7777 0.7769 0.7751
818.000000 0.7733 0.7714 0.7694 0.7673 0.7657
823.000000 0.7641 0.7622 0.7646 0.7651 0.7660
828.000000 0.7674 0.7693 0.7721 0.7764 0.7819
833.000000 0.7885 0.7954 0.8029 0.8101 0.8158
838.000000 0.8215 0.8270 0.8325 0.8354 0.8377
843.000000 0.8399 0.8409 0.8419 0.8429 0.8437
848.000000 0.8443 0.8449 0.8455 0.8459 0.8464
853.000000 0.8469 0.8474 0.8478 0.8484 0.8489
858.000000 0.8494 0.8500 0.8505 0.8510 0.8516
863.000000 0.8521 0.8526 0.8532 0.8537 0.8543
868.000000 0.8547 0.8551 0.8555 0.8559 0.8564
873.000000 0.8545 0.8563 0.8561 0.8560 0.8555
878.000000 0.8550 0.8546 0.8541 0.8536 0.8524
883.000000 0.8512 0.8494 0.8470 0.8416 0.8313
888.000000 0.8217 0.8130 0.8035 0.7940 0.7811
893.000000 0.7651 0.7404 0.7157 0.6911 0.6664
898.000000 0.6417 0.6170 0.5923 0.5677 0.5430
903.000000 0.5183 0.4936 0.4690 0.4443 0.4196
908.000000 0.3961 0.3926 0.3918 0.3922 0.3931
913.000000 0.4133 0.4420 0.4683 0.4946 0.5209
918.000000 0.5472 0.5735 0.5998 0.6261 0.6524
923.000000 0.6787 0.6950 0.6993 0.7017 0.7041
928.000000 0.7065 0.7101 0.7140 0.7314 0.7491
933.000000 0.7667 0.7844 0.8020 0.8197 0.8397
938.000000 0.8500 0.8609 0.8693 0.8738 0.8774
943.000000 0.8795 0.8808 0.8822 0.8832 0.8840
948.000000 0.8847 0.8852 0.8856 0.8860 0.8865
953.000000 0.8869 0.8873 0.8877 0.8881 0.8883
958.000000 0.8884 0.8885 0.8885 0.8886 0.8887
963.000000 0.8887 0.8887 0.8887 0.8888 0.8871
968.000000 0.8887 0.8886 0.8885 0.8884 0.8883
973.000000 0.8883 0.8882 0.8880 0.8879 0.8877
978.000000 0.8876 0.8873 0.8869 0.8866 0.8863
983.000000 0.8859 0.8856 0.8852 0.8848 0.8843
988.000000 0.8838 0.8833 0.8828 0.8823 0.8812
993.000000 0.8801 0.8790 0.8779 0.8768 0.8751
998.000000 0.8734 0.8713 0.8682 0.8652 0.8620
1003.000000 0.8582 0.8553 0.8533 0.8514 0.8497
1008.000000 0.8480 0.8456 0.8432 0.8411 0.8390
1013.000000 0.8359 0.8327 0.8293 0.8252 0.8189
1018.000000 0.8117 0.8038 0.7956 0.7870 0.7784
1023.000000 0.7704 0.7618 0.7524 0.7393 0.7225
1028.000000 0.7035 0.6822 0.6609 0.6397 0.6210
1033.000000 0.6210 0.6256 0.6349 0.6442 0.6535
1038.000000 0.6558 0.6423 0.6222 0.6021 0.5820
1043.000000 0.5619 0.5418 0.5216 0.5015 0.4814
1048.000000 0.4580 0.4516 0.4547 0.4494 0.4652
1053.000000 0.4889 0.5125 0.5362 0.5599 0.5835
1058.000000 0.6072 0.6308 0.6545 0.6782 0.7018
1063.000000 0.7199 0.7261 0.7336 0.7412 0.7479
1068.000000 0.7518 0.7527 0.7524 0.7281 0.7128
1073.000000 0.6976 0.6823 0.6735 0.6729 0.6753
1078.000000 0.7013 0.7304 0.7595 0.7887 0.8033
1083.000000 0.8049 0.8063 0.8078 0.8121 0.8188
1088.000000 0.8298 0.8415 0.8485 0.8485 0.8481
1093.000000 0.8478 0.8477 0.8460 0.8445 0.8415
1098.000000 0.8377 0.8332 0.8252 0.8149 0.8019
1103.000000 0.7889 0.7760 0.7630 0.7574 0.7578
1108.000000 0.7667 0.7763 0.7858 0.7954 0.8049
1113.000000 0.8101 0.8087 0.7987 0.7888 0.7814
1118.000000 0.7794 0.7772 0.7747 0.7707 0.7414
1123.000000 0.7111 0.6807 0.6504 0.6201 0.5897
1128.000000 0.5594 0.5290 0.4987 0.4818 0.4773
1133.000000 0.4774 0.4784 0.4799 0.4847 0.4880
1138.000000 0.5067 0.5350 0.5633 0.5916 0.6199
1143.000000 0.6482 0.6765 0.7048 0.7332 0.7601
1148.000000 0.7588 0.7583 0.7565 0.7508 0.7406
1153.000000 0.7206 0.6995 0.6849 0.6816 0.6789
1158.000000 0.6784 0.6756 0.6930 0.7012 0.7094
1163.000000 0.7176 0.7242 0.7254 0.7267 0.7270
1168.000000 0.7063 0.6948 0.6833 0.6718 0.6604
1173.000000 0.6489 0.6374 0.6259 0.6209 0.6216
1178.000000 0.6307 0.6569 0.6831 0.7093 0.7356
1183.000000 0.7618 0.7706 0.7736 0.7776 0.7822
1188.000000 0.7880 0.8062 0.8300 0.8356 0.8373
1193.000000 0.8374 0.8364 0.8341 0.8336 0.8336
1198.000000 0.8359 0.8415 0.8526 0.8552 0.8573
1203.000000 0.8576 0.8579 0.8579 0.8577 0.8575
1208.000000 0.8573 0.8572 0.8570 0.8577 0.8583
1213.000000 0.8590 0.8596 0.8606 0.8618 0.8629
1218.000000 0.8641 0.8652 0.8665 0.8680 0.8696
1223.000000 0.8711 0.8724 0.8733 0.8747 0.8750
1228.000000 0.8752 0.8753 0.8754 0.8750 0.8742
1233.000000 0.8732 0.8719 0.8706 0.8693 0.8667
1238.000000 0.8629 0.8590 0.8556 0.8529 0.8504
1243.000000 0.8485 0.8478 0.8480 0.8486 0.8503
1248.000000 0.8527 0.8544 0.8542 0.8530 0.8518
1253.000000 0.8486 0.8445 0.8396 0.8319 0.8237
1258.000000 0.8151 0.8045 0.7928 0.7809 0.7657
1263.000000 0.7438 0.7318 0.7198 0.7037 0.7043
1268.000000 0.6991 0.7005 0.7087 0.7293 0.7388
1273.000000 0.7458 0.7530 0.7606 0.7683 0.7753
1278.000000 0.7816 0.7829 0.7854 0.7819 0.7797
1283.000000 0.7768 0.7729 0.7682 0.7640 0.7585
1288.000000 0.7528 0.7474 0.7422 0.7370 0.7321
1293.000000 0.7273 0.7252 0.7286 0.7313 0.7348
1298.000000 0.7386 0.7394 0.7389 0.7389 0.7359
1303.000000 0.7333 0.7281 0.7247 0.7235 0.7237
1308.000000 0.7243 0.7274 0.7309 0.7345 0.7395
1313.000000 0.7446 0.7498 0.7552 0.7598 0.7642
1318.000000 0.7667 0.7684 0.7688 0.7683 0.7675
1323.000000 0.7663 0.7647 0.7628 0.7608 0.7584
1328.000000 0.7551 0.7493 0.7398 0.7316 0.7237
1333.000000 0.7149 0.7016 0.6885 0.6737 0.6385
1338.000000 0.6196 0.5746 0.5204 0.4663 0.4525
1343.000000 0.4528 0.4673 0.4909 0.5145 0.5381
1348.000000 0.5618 0.5854 0.6090 0.6206 0.6230
1353.000000 0.6158 0.6092 0.6026 0.5960 0.5893
1358.000000 0.5827 0.5761 0.5695 0.5629 0.5563
1363.000000 0.5496 0.5430 0.5350 0.5255 0.5138
1368.000000 0.4885 0.4511 0.4137 0.3763 0.3390
1373.000000 0.3116 0.3020 0.2970 0.2961 0.2951
1378.000000 0.2972 0.2968 0.3149 0.3475 0.3812
1383.000000 0.4150 0.4487 0.4825 0.5345 0.5658
1388.000000 0.5765 0.5873 0.5980 0.6064 0.6135
1393.000000 0.6193 0.6227 0.6261 0.6295 0.6329
1398.000000 0.6356 0.6379 0.6402 0.6422 0.6429
1403.000000 0.6435 0.6433 0.6470 0.6428 0.6421
1408.000000 0.6408 0.6395 0.6381 0.6369 0.6357
1413.000000 0.6345 0.6333 0.6317 0.6295 0.6273
1418.000000 0.6251 0.6229 0.6202 0.6176 0.6150
1423.000000 0.6123 0.6085 0.6042 0.5999 0.5939
1428.000000 0.5865 0.5791 0.5681 0.5564 0.5442
1433.000000 0.5310 0.5168 0.5016 0.4863 0.4711
1438.000000 0.4558 0.4406 0.4253 0.4101 0.3948
1443.000000 0.3796 0.3643 0.3491 0.3338 0.3188
1448.000000 0.3174 0.3153 0.3198 0.3291 0.3383
1453.000000 0.3476 0.3568 0.3661 0.3753 0.3774
1458.000000 0.3770 0.3759 0.3700 0.3641 0.3582
1463.000000 0.3523 0.3464 0.3426 0.3423 0.3423
1468.000000 0.3734 0.3944 0.4154 0.4365 0.4724
1473.000000 0.4878 0.4986 0.5111 0.5241 0.5386
1478.000000 0.5531 0.5676 0.5821 0.5926 0.6031
1483.000000 0.6116 0.6184 0.6251 0.6319 0.6406
1488.000000 0.6502 0.6598 0.6665 0.6730 0.6795
1493.000000 0.6860 0.6908 0.6952 0.6997 0.7042
1498.000000 0.7086 0.7130 0.7173 0.7217 0.7260
1503.000000 0.7304 0.7347 0.7391 0.7435 0.7479
1508.000000 0.7522 0.7561 0.7594 0.7627 0.7659
1513.000000 0.7692 0.7724 0.7755 0.7782 0.7809
1518.000000 0.7835 0.7862 0.7889 0.7916 0.7942
1523.000000 0.7976 0.8010 0.8036 0.8051 0.8066
1528.000000 0.8082 0.8097 0.8112 0.8128 0.8143
1533.000000 0.8158 0.8170 0.8183 0.8195 0.8207
1538.000000 0.8220 0.8232 0.8246 0.8263 0.8279
1543.000000 0.8296 0.8306 0.8315 0.8324 0.8333
1548.000000 0.8340 0.8347 0.8354 0.8361 0.8368
1553.000000 0.8375 0.8382 0.8389 0.8396 0.8403
1558.000000 0.8410 0.8417 0.8425 0.8432 0.8439
1563.000000 0.8445 0.8451 0.8458 0.8464 0.8471
1568.000000 0.8477 0.8484 0.8490 0.8496 0.8503
1573.000000 0.8509 0.8516 0.8522 0.8529 0.8534
1578.000000 0.8538 0.8542 0.8546 0.8550 0.8554
1583.000000 0.8558 0.8563 0.8567 0.8570 0.8574
1588.000000 0.8577 0.8581 0.8585 0.8588 0.8592
1593.000000 0.8595 0.8599 0.8602 0.8606 0.8609
1598.000000 0.8613 0.8617 0.8620 0.8624 0.8630
1603.000000 0.8638 0.8646 0.8653 0.8661 0.8669
1608.000000 0.8677 0.8685 0.8692 0.8695 0.8696
1613.000000 0.8697 0.8698 0.8699 0.8700 0.8701
1618.000000 0.8702 0.8703 0.8704 0.8704 0.8705
1623.000000 0.8706 0.8707 0.8706 0.8705 0.8704
1628.000000 0.8703 0.8702 0.8701 0.8701 0.8700
1633.000000 0.8699 0.8698 0.8698 0.8699 0.8699
1638.000000 0.8699 0.8699 0.8699 0.8699 0.8699
1643.000000 0.8700 0.8700 0.8700 0.8700 0.8700
1648.000000 0.8700 0.8701 0.8701 0.8701 0.8703
1653.000000 0.8704 0.8706 0.8708 0.8709 0.8711
1658.000000 0.8713 0.8714 0.8716 0.8718 0.8720
1663.000000 0.8722 0.8724 0.8726 0.8728 0.8730
1668.000000 0.8732 0.8734 0.8736 0.8738 0.8740
1673.000000 0.8742 0.8744 0.8746 0.8748 0.8750
1678.000000 0.8752 0.8754 0.8756 0.8758 0.8760
1683.000000 0.8762 0.8765 0.8768 0.8772 0.8775
1688.000000 0.8778 0.8781 0.8784 0.8787 0.8790
1693.000000 0.8793 0.8796 0.8799 0.8802 0.8805
1698.000000 0.8808 0.8812 0.8815 0.8818 0.8821
1703.000000 0.8824 0.8827 0.8830 0.8833 0.8836
1708.000000 0.8838 0.8841 0.8843 0.8845 0.8848
1713.000000 0.8850 0.8852 0.8854 0.8857 0.8859
1718.000000 0.8861 0.8863 0.8866 0.8868 0.8870
1723.000000 0.8873 0.8875 0.8877 0.8879 0.8882
1728.000000 0.8884 0.8886 0.8888 0.8891 0.8893
1733.000000 0.8895 0.8898 0.8900 0.8902 0.8904
1738.000000 0.8906 0.8907 0.8907 0.8908 0.8908
1743.000000 0.8909 0.8910 0.8910 0.8911 0.8912
1748.000000 0.8912 0.8913 0.8914 0.8914 0.8915
1753.000000 0.8915 0.8916 0.8917 0.8917 0.8918
1758.000000 0.8919 0.8919 0.8920 0.8920 0.8921
1763.000000 0.8922 0.8922 0.8923 0.8924 0.8924
1768.000000 0.8925 0.8925 0.8926 0.8927 0.8927
1773.000000 0.8928 0.8929 0.8929 0.8930 0.8930
1778.000000 0.8931 0.8932 0.8932 0.8933 0.8933
1783.000000 0.8934 0.8935 0.8935 0.8936 0.8936
1788.000000 0.8937 0.8938 0.8938 0.8939 0.8939
1793.000000 0.8940 0.8941 0.8941 0.8942 0.8942
1798.000000 0.8941 0.8941 0.8940 0.8940 0.8940
1803.000000 0.8939 0.8939 0.8938 0.8938 0.8937
1808.000000 0.8937 0.8937 0.8936 0.8936 0.8935
1813.000000 0.8935 0.8934 0.8934 0.8934 0.8933
1818.000000 0.8933 0.8932 0.8932 0.8931 0.8931
1823.000000 0.8931 0.8930 0.8930 0.8929 0.8929
1828.000000 0.8916 0.8928 0.8928 0.8927 0.8927
1833.000000 0.8926 0.8926 0.8926 0.8926 0.8925
1838.000000 0.8925 0.8925 0.8924 0.8924 0.8924
1843.000000 0.8923 0.8923 0.8923 0.8922 0.8922
1848.000000 0.8922 0.8921 0.8921 0.8921 0.8920
1853.000000 0.8918 0.8916 0.8913 0.8910 0.8907
1858.000000 0.8904 0.8901 0.8898 0.8896 0.8894
1863.000000 0.8894 0.8894 0.8894 0.8894 0.8894
1868.000000 0.8894 0.8894 0.8894 0.8894 0.8894
1873.000000 0.8894 0.8894 0.8894 0.8894 0.8894
1878.000000 0.8894 0.8894 0.8894 0.8894 0.8894
1883.000000 0.8894 0.8895 0.8896 0.8898 0.8899
1888.000000 0.8900 0.8902 0.8903 0.8904 0.8906
1893.000000 0.8907 0.8909 0.8910 0.8911 0.8913
1898.000000 0.8914 0.8915 0.8917 0.8918 0.8919
1903.000000 0.8921 0.8922 0.8924 0.8925 0.8926
1908.000000 0.8927 0.8928 0.8928 0.8929 0.8930
1913.000000 0.8931 0.8932 0.8933 0.8934 0.8935
1918.000000 0.8935 0.8936 0.8937 0.8938 0.8939
1923.000000 0.8940 0.8941 0.8941 0.8940 0.8938
1928.000000 0.8935 0.8933 0.8930 0.8928 0.8925
1933.000000 0.8922 0.8920 0.8917 0.8915 0.8912
1938.000000 0.8910 0.8902 0.8894 0.8886 0.8878
1943.000000 0.8870 0.8862 0.8854 0.8847 0.8839
1948.000000 0.8831 0.8823 0.8819 0.8815 0.8811
1953.000000 0.8807 0.8803 0.8799 0.8796 0.8792
1958.000000 0.8788 0.8784 0.8787 0.8792 0.8797
1963.000000 0.8801 0.8806 0.8811 0.8816 0.8820
1968.000000 0.8830 0.8842 0.8855 0.8867 0.8879
1973.000000 0.8892 0.8904 0.8909 0.8909 0.8910
1978.000000 0.8911 0.8911 0.8912 0.8912 0.8913
1983.000000 0.8913 0.8910 0.8906 0.8901 0.8897
1988.000000 0.8893 0.8889 0.8885 0.8881 0.8877
1993.000000 0.8871 0.8866 0.8865 0.8868 0.8870
1998.000000 0.8873 0.8875 0.8878 0.8884 0.8891
2003.000000 0.8895 0.8899 0.8903 0.8907 0.8908
2008.000000 0.8910 0.8911 0.8913 0.8915 0.8917
2013.000000 0.8918 0.8920 0.8922 0.8924 0.8925
2018.000000 0.8927 0.8928 0.8930 0.8931 0.8932
2023.000000 0.8933 0.8934 0.8935 0.8936 0.8936
2028.000000 0.8937 0.8938 0.8939 0.8939 0.8940
2033.000000 0.8941 0.8942 0.8942 0.8943 0.8944
2038.000000 0.8945 0.8945 0.8946 0.8947 0.8948
2043.000000 0.8948 0.8949 0.8950 0.8951 0.8951
2048.000000 0.8952 0.8953 0.8954 0.8954 0.8955
2053.000000 0.8956 0.8957 0.8957 0.8958 0.8959
2058.000000 0.8960 0.8961 0.8962 0.8963 0.8964
2063.000000 0.8965 0.8966 0.8967 0.8968 0.8969
2068.000000 0.8970 0.8971 0.8972 0.8973 0.8974
2073.000000 0.8974 0.8975 0.8976 0.8977 0.8978
2078.000000 0.8979 0.8980 0.8981 0.8982 0.8983
2083.000000 0.8984 0.8985 0.8986 0.8987 0.8988
2088.000000 0.8989 0.8990 0.8991 0.8992 0.8993
2093.000000 0.8994 0.8995 0.8995 0.8996 0.8996
2098.000000 0.8997 0.8997 0.8998 0.8998 0.8999
2103.000000 0.8999 0.9000 0.9000 0.9001 0.9001
2108.000000 0.9002 0.9002 0.9003 0.9004 0.9005
2113.000000 0.9005 0.9006 0.9006 0.9007 0.9007
2118.000000 0.9008 0.9008 0.9009 0.9009 0.9010
2123.000000 0.9010 0.9011 0.9011 0.9012 0.9012
2128.000000 0.9013 0.9013 0.9014 0.9014 0.9015
2133.000000 0.9015 0.9016 0.9016 0.9017 0.9017
2138.000000 0.9018 0.9018 0.9019 0.9018 0.9018
2143.000000 0.9017 0.9017 0.9016 0.9016 0.9015
2148.000000 0.9015 0.9014 0.9014 0.9013 0.9013
2153.000000 0.9012 0.9011 0.9010 0.9010 0.9009
2158.000000 0.9009 0.9008 0.9008 0.9007 0.9007
2163.000000 0.9006 0.9006 0.9005 0.9005 0.9004
2168.000000 0.9004 0.9003 0.9003 0.9002 0.9001
2173.000000 0.9000 0.9000 0.8999 0.8999 0.8998
2178.000000 0.8998 0.8997 0.8997 0.8996 0.8996
2183.000000 0.8995 0.8995 0.8994 0.8994 0.8993
2188.000000 0.8993 0.8992 0.8991 0.8990 0.8990
2193.000000 0.8989 0.8989 0.8989 0.8989 0.8989
2198.000000 0.8989 0.8988 0.8988 0.8988 0.8988
2203.000000 0.8988 0.8988 0.8988 0.8988 0.8987
2208.000000 0.8987 0.8987 0.8987 0.8987 0.8987
2213.000000 0.8986 0.8986 0.8986 0.8986 0.8986
2218.000000 0.8986 0.8986 0.8986 0.8985 0.8985
2223.000000 0.8985 0.8985 0.8985 0.8985 0.8985
2228.000000 0.8985 0.8984 0.8984 0.8984 0.8984
2233.000000 0.8984 0.8984 0.8983 0.8983 0.8983
2238.000000 0.8983 0.8983 0.8983 0.8982 0.8982
2243.000000 0.8981 0.8980 0.8979 0.8978 0.8977
2248.000000 0.8976 0.8974 0.8973 0.8972 0.8971
2253.000000 0.8970 0.8969 0.8968 0.8967 0.8966
2258.000000 0.8965 0.8963 0.8962 0.8961 0.8960
2263.000000 0.8959 0.8958 0.8957 0.8956 0.8955
2268.000000 0.8954 0.8952 0.8951 0.8950 0.8949
2273.000000 0.8948 0.8947 0.8946 0.8945 0.8944
2278.000000 0.8943 0.8941 0.8940 0.8939 0.8938
2283.000000 0.8937 0.8936 0.8935 0.8934 0.8933
2288.000000 0.8932 0.8931 0.8930 0.8928 0.8927
2293.000000 0.8926 0.8925 0.8924 0.8923 0.8922
2298.000000 0.8921 0.8919 0.8918 0.8916 0.8915
2303.000000 0.8913 0.8912 0.8910 0.8908 0.8906
2308.000000 0.8905 0.8903 0.8902 0.8900 0.8899
2313.000000 0.8897 0.8895 0.8893 0.8892 0.8890
2318.000000 0.8889 0.8887 0.8886 0.8884 0.8882
2323.000000 0.8880 0.8879 0.8877 0.8876 0.8874
2328.000000 0.8873 0.8871 0.8869 0.8867 0.8866
2333.000000 0.8864 0.8863 0.8861 0.8860 0.8858
2338.000000 0.8856 0.8854 0.8853 0.8851 0.8850
2343.000000 0.8848 0.8847 0.8845 0.8843 0.8841
2348.000000 0.8840 0.8838 0.8837 0.8835 0.8834
2353.000000 0.8832 0.8830 0.8828 0.8827 0.8826
2358.000000 0.8825 0.8823 0.8822 0.8820 0.8819
2363.000000 0.8818 0.8817 0.8815 0.8814 0.8813
2368.000000 0.8812 0.8810 0.8809 0.8807 0.8806
2373.000000 0.8805 0.8804 0.8802 0.8801 0.8800
2378.000000 0.8799 0.8797 0.8796 0.8794 0.8793
2383.000000 0.8792 0.8791 0.8789 0.8788 0.8787
2388.000000 0.8786 0.8784 0.8783 0.8781 0.8780
2393.000000 0.8779 0.8778 0.8776 0.8775 0.8774
2398.000000 0.8773 0.8771 0.8770 0.8768 0.8767
2403.000000 0.8766 0.8765 0.8763 0.8762 0.8761
2408.000000 0.8760 0.8759 0.8758 0.8757 0.8756
2413.000000 0.8755 0.8754 0.8753 0.8752 0.8751
2418.000000 0.8751 0.8750 0.8749 0.8748 0.8747
2423.000000 0.8746 0.8745 0.8744 0.8743 0.8742
2428.000000 0.8741 0.8740 0.8740 0.8739 0.8738
2433.000000 0.8737 0.8736 0.8735 0.8734 0.8733
2438.000000 0.8732 0.8731 0.8731 0.8730 0.8729
2443.000000 0.8728 0.8727 0.8726 0.8725 0.8724
2448.000000 0.8723 0.8722 0.8721 0.8720 0.8719
2453.000000 0.8718 0.8718 0.8717 0.8716 0.8715
2458.000000 0.8714 0.8713 0.8712 0.8711 0.8710
2463.000000 0.8709 0.8708 0.8707 0.8707 0.8706
2468.000000 0.8705 0.8704 0.8703 0.8702 0.8701
2473.000000 0.8696 0.8691 0.8682 0.8674 0.8666
2478.000000 0.8658 0.8649 0.8641 0.8632 0.8624
2483.000000 0.8616 0.8608 0.8599 0.8591 0.8586
2488.000000 0.8581 0.8578 0.8575 0.8572 0.8569
