##TITLE=Ethylamine, 2-methoxy-1-methyl-,
##JCAMP-DX=4.24
##DATA TYPE=INFRARED SPECTRUM
##CLASS=COBLENTZ III
##ORIGIN=WYANDOTTE CHEMICALS CORP.
##OWNER=Copyright (C) 1987 by the Coblentz Society
Collection (C) 2018 copyright by the U.S. Secretary of Commerce
on behalf of the United States of America. All rights reserved.
##DATE=Not specified, most likely prior to 1970
##NAMES=2-methoxy-1-methylethylamine
1-methoxy-2-propanamine
##CAS REGISTRY NO=37143-54-7
##MOLFORM=C4 H11 N O
##BP=98 C
##SOURCE REFERENCE=COBLENTZ NO. 5896
##$NIST SOURCE=COBLENTZ
##$NIST IMAGE=cob5896
##SPECTROMETER/DATA SYSTEM=BAIRD (GRATING)
##INSTRUMENT PARAMETERS=NaCl PRISM
##STATE=LIQUID (NEAT)
##PATH LENGTH=0.003 CM
##RESOLUTION=2
##XUNITS=1/CM
##YUNITS=TRANSMITTANCE
##XFACTOR=1.0
##YFACTOR=1
##FIRSTX=626
##LASTX=4000
##FIRSTY=0.6903
##MAXX=4000
##MINX=626
##MAXY=0.9682
##MINY=0.0034
##NPOINTS=3375
##XYDATA=(X++(Y..Y))
626.000000 0.6903 0.6933 0.6966 0.7000 0.7039
631.000000 0.7080 0.7117 0.7155 0.7190 0.7223
636.000000 0.7256 0.7285 0.7314 0.7343 0.7371
641.000000 0.7400 0.7415 0.7427 0.7441 0.7454
646.000000 0.7472 0.7490 0.7507 0.7527 0.7545
651.000000 0.7563 0.7580 0.7597 0.7612 0.7627
656.000000 0.7642 0.7649 0.7654 0.7660 0.7664
661.000000 0.7649 0.7626 0.7593 0.7582 0.7585
666.000000 0.7600 0.7638 0.7729 0.7804 0.7818
671.000000 0.7822 0.7823 0.7823 0.7823 0.7825
676.000000 0.7826 0.7826 0.7824 0.7821 0.7817
681.000000 0.7809 0.7800 0.7791 0.7782 0.7790
686.000000 0.7770 0.7764 0.7757 0.7752 0.7747
691.000000 0.7743 0.7744 0.7743 0.7739 0.7734
696.000000 0.7726 0.7716 0.7706 0.7696 0.7685
701.000000 0.7670 0.7655 0.7640 0.7625 0.7612
706.000000 0.7599 0.7587 0.7570 0.7552 0.7534
711.000000 0.7516 0.7499 0.7482 0.7465 0.7447
716.000000 0.7427 0.7406 0.7386 0.7366 0.7342
721.000000 0.7311 0.7280 0.7249 0.7218 0.7187
726.000000 0.7157 0.7126 0.7093 0.7061 0.7028
731.000000 0.6995 0.6963 0.6931 0.6894 0.6854
736.000000 0.6814 0.6775 0.6735 0.6695 0.6656
741.000000 0.6609 0.6557 0.6507 0.6457 0.6406
746.000000 0.6350 0.6293 0.6236 0.6179 0.6121
751.000000 0.6064 0.6005 0.5935 0.5867 0.5799
756.000000 0.5728 0.5657 0.5585 0.5513 0.5443
761.000000 0.5372 0.5293 0.5210 0.5127 0.5045
766.000000 0.4962 0.4859 0.4753 0.4648 0.4543
771.000000 0.4440 0.4336 0.4233 0.4131 0.4017
776.000000 0.3900 0.3784 0.3667 0.3551 0.3436
781.000000 0.3322 0.3208 0.3094 0.2951 0.2788
786.000000 0.2637 0.2516 0.2395 0.2274 0.2155
791.000000 0.2042 0.1929 0.1817 0.1706 0.1599
796.000000 0.1491 0.1385 0.1279 0.1183 0.1101
801.000000 0.1035 0.0978 0.0912 0.0842 0.0785
806.000000 0.0734 0.0689 0.0651 0.0614 0.0576
811.000000 0.0545 0.0522 0.0500 0.0478 0.0456
816.000000 0.0435 0.0416 0.0398 0.0379 0.0375
821.000000 0.0378 0.0357 0.0328 0.0299 0.0294
826.000000 0.0297 0.0284 0.0296 0.0296 0.0296
831.000000 0.0296 0.0297 0.0298 0.0308 0.0320
836.000000 0.0334 0.0348 0.0369 0.0394 0.0422
841.000000 0.0452 0.0484 0.0520 0.0568 0.0620
846.000000 0.0669 0.0718 0.0773 0.0829 0.0897
851.000000 0.0947 0.0956 0.0984 0.0937 0.0889
856.000000 0.0831 0.0768 0.0715 0.0664 0.0620
861.000000 0.0578 0.0537 0.0497 0.0455 0.0415
866.000000 0.0416 0.0415 0.0414 0.0407 0.0391
871.000000 0.0411 0.0420 0.0430 0.0441 0.0451
876.000000 0.0463 0.0474 0.0485 0.0497 0.0510
881.000000 0.0525 0.0540 0.0554 0.0565 0.0577
886.000000 0.0588 0.0598 0.0608 0.0615 0.0614
891.000000 0.0617 0.0632 0.0644 0.0657 0.0670
896.000000 0.0686 0.0701 0.0718 0.0733 0.0758
901.000000 0.0794 0.0837 0.0882 0.0928 0.0988
906.000000 0.1049 0.1096 0.1119 0.1129 0.1127
911.000000 0.1119 0.1105 0.1078 0.1048 0.0945
916.000000 0.0850 0.0815 0.0806 0.0820 0.0835
921.000000 0.0880 0.0954 0.1050 0.1165 0.1299
926.000000 0.1425 0.1547 0.1690 0.1817 0.1918
931.000000 0.1960 0.1972 0.1964 0.1937 0.1908
936.000000 0.1893 0.1893 0.1910 0.1944 0.1985
941.000000 0.2050 0.2125 0.2194 0.2270 0.2359
946.000000 0.2450 0.2545 0.2635 0.2707 0.2731
951.000000 0.2727 0.2739 0.2690 0.2659 0.2615
956.000000 0.2549 0.2462 0.2369 0.2225 0.2059
961.000000 0.1903 0.1747 0.1595 0.1442 0.1299
966.000000 0.1196 0.1139 0.1131 0.1098 0.1161
971.000000 0.1200 0.1242 0.1283 0.1321 0.1359
976.000000 0.1400 0.1441 0.1446 0.1452 0.1420
981.000000 0.1385 0.1336 0.1273 0.1226 0.1189
986.000000 0.1179 0.1177 0.1303 0.1640 0.2006
991.000000 0.2371 0.2735 0.3099 0.3463 0.3824
996.000000 0.4186 0.4543 0.4795 0.4987 0.5176
1001.000000 0.5401 0.5503 0.5598 0.5685 0.5769
1006.000000 0.5847 0.5889 0.5923 0.5882 0.5866
1011.000000 0.5840 0.5813 0.5781 0.5747 0.5706
1016.000000 0.5661 0.5598 0.5507 0.5418 0.5350
1021.000000 0.5292 0.5251 0.5214 0.5180 0.5153
1026.000000 0.5146 0.5140 0.5139 0.5139 0.5138
1031.000000 0.5139 0.5142 0.5145 0.5149 0.5152
1036.000000 0.5185 0.5159 0.5163 0.5166 0.5170
1041.000000 0.5175 0.5186 0.5200 0.5212 0.5224
1046.000000 0.5235 0.5244 0.5245 0.5247 0.5248
1051.000000 0.5244 0.5237 0.5230 0.5205 0.5170
1056.000000 0.5133 0.5078 0.5012 0.4946 0.4877
1061.000000 0.4778 0.4672 0.4561 0.4398 0.4222
1066.000000 0.4047 0.3872 0.3698 0.3523 0.3349
1071.000000 0.3176 0.3003 0.2830 0.2657 0.2478
1076.000000 0.2167 0.1778 0.1608 0.1446 0.1289
1081.000000 0.1188 0.1106 0.1041 0.0979 0.0918
1086.000000 0.0850 0.0782 0.0699 0.0599 0.0510
1091.000000 0.0421 0.0353 0.0294 0.0248 0.0208
1096.000000 0.0177 0.0160 0.0145 0.0141 0.0137
1101.000000 0.0134 0.0130 0.0127 0.0127 0.0126
1106.000000 0.0126 0.0126 0.0125 0.0125 0.0125
1111.000000 0.0110 0.0128 0.0130 0.0132 0.0134
1116.000000 0.0136 0.0138 0.0140 0.0142 0.0144
1121.000000 0.0150 0.0155 0.0161 0.0166 0.0171
1126.000000 0.0177 0.0182 0.0188 0.0196 0.0206
1131.000000 0.0215 0.0226 0.0236 0.0246 0.0255
1136.000000 0.0269 0.0291 0.0313 0.0336 0.0358
1141.000000 0.0384 0.0424 0.0464 0.0496 0.0522
1146.000000 0.0524 0.0537 0.0495 0.0464 0.0423
1151.000000 0.0381 0.0353 0.0335 0.0326 0.0314
1156.000000 0.0284 0.0238 0.0192 0.0186 0.0176
1161.000000 0.0210 0.0243 0.0298 0.0377 0.0489
1166.000000 0.0650 0.0810 0.0970 0.1130 0.1289
1171.000000 0.1449 0.1607 0.1766 0.1924 0.2082
1176.000000 0.2249 0.2340 0.2401 0.2408 0.2404
1181.000000 0.2409 0.2372 0.2326 0.2238 0.2102
1186.000000 0.1966 0.1830 0.1683 0.1513 0.1369
1191.000000 0.1235 0.1105 0.0985 0.0871 0.0755
1196.000000 0.0689 0.0640 0.0620 0.0605 0.0602
1201.000000 0.0617 0.0607 0.0617 0.0633 0.0666
1206.000000 0.0728 0.0794 0.0863 0.1077 0.1378
1211.000000 0.1679 0.1979 0.2280 0.2579 0.2878
1216.000000 0.3145 0.3331 0.3546 0.3693 0.3802
1221.000000 0.3865 0.3925 0.3989 0.4052 0.4118
1226.000000 0.4186 0.4268 0.4399 0.4536 0.4669
1231.000000 0.4790 0.4906 0.5008 0.5099 0.5190
1236.000000 0.5277 0.5362 0.5432 0.5494 0.5554
1241.000000 0.5605 0.5656 0.5697 0.5730 0.5764
1246.000000 0.5800 0.5837 0.5872 0.5887 0.5886
1251.000000 0.5904 0.5834 0.5795 0.5756 0.5715
1256.000000 0.5670 0.5625 0.5580 0.5538 0.5497
1261.000000 0.5455 0.5424 0.5411 0.5393 0.5420
1266.000000 0.5433 0.5456 0.5486 0.5516 0.5583
1271.000000 0.5653 0.5741 0.5849 0.5957 0.6067
1276.000000 0.6190 0.6315 0.6464 0.6615 0.6685
1281.000000 0.6727 0.6741 0.6775 0.6743 0.6741
1286.000000 0.6737 0.6731 0.6725 0.6716 0.6705
1291.000000 0.6696 0.6683 0.6669 0.6654 0.6645
1296.000000 0.6636 0.6626 0.6613 0.6599 0.6585
1301.000000 0.6569 0.6550 0.6525 0.6476 0.6355
1306.000000 0.6172 0.5989 0.5806 0.5623 0.5441
1311.000000 0.5259 0.5077 0.4896 0.4760 0.4708
1316.000000 0.4679 0.4695 0.4698 0.4775 0.4853
1321.000000 0.4930 0.5008 0.5053 0.5058 0.5055
1326.000000 0.5074 0.5019 0.4941 0.4860 0.4780
1331.000000 0.4701 0.4621 0.4572 0.4573 0.4572
1336.000000 0.4725 0.4817 0.4908 0.4998 0.5032
1341.000000 0.5042 0.5027 0.5025 0.4878 0.4621
1346.000000 0.4361 0.4102 0.3842 0.3584 0.3325
1351.000000 0.3067 0.2809 0.2552 0.2343 0.2286
1356.000000 0.2297 0.2296 0.2322 0.2494 0.2845
1361.000000 0.3196 0.3546 0.3709 0.3708 0.3725
1366.000000 0.3686 0.3655 0.3613 0.3546 0.3473
1371.000000 0.3398 0.3314 0.3227 0.3096 0.2873
1376.000000 0.2641 0.2409 0.2178 0.1946 0.1715
1381.000000 0.1556 0.1520 0.1538 0.1545 0.1561
1386.000000 0.1602 0.1659 0.1713 0.1765 0.1816
1391.000000 0.1870 0.1927 0.2199 0.2499 0.2798
1396.000000 0.3097 0.3396 0.3693 0.3991 0.4288
1401.000000 0.4585 0.4857 0.5023 0.5161 0.5230
1406.000000 0.5299 0.5369 0.5464 0.5625 0.5795
1411.000000 0.6006 0.6181 0.6277 0.6363 0.6446
1416.000000 0.6511 0.6565 0.6593 0.6608 0.6617
1421.000000 0.6624 0.6618 0.6638 0.6598 0.6589
1426.000000 0.6581 0.6572 0.6558 0.6543 0.6520
1431.000000 0.6487 0.6448 0.6407 0.6358 0.6308
1436.000000 0.6224 0.6125 0.6016 0.5885 0.5671
1441.000000 0.5430 0.5345 0.5254 0.5041 0.4773
1446.000000 0.4505 0.4237 0.3970 0.3703 0.3436
1451.000000 0.3170 0.2905 0.2640 0.2375 0.2110
1456.000000 0.1846 0.1582 0.1318 0.1055 0.0796
1461.000000 0.0681 0.0642 0.0629 0.0624 0.0615
1466.000000 0.0620 0.0620 0.0622 0.0624 0.0626
1471.000000 0.0632 0.0643 0.0757 0.0918 0.1079
1476.000000 0.1240 0.1401 0.1561 0.1770 0.1913
1481.000000 0.1998 0.2079 0.2172 0.2304 0.2413
1486.000000 0.2619 0.2909 0.3198 0.3487 0.3775
1491.000000 0.4063 0.4351 0.4639 0.4926 0.5213
1496.000000 0.5499 0.5785 0.6059 0.6213 0.6314
1501.000000 0.6400 0.6458 0.6511 0.6562 0.6613
1506.000000 0.6652 0.6687 0.6722 0.6755 0.6777
1511.000000 0.6795 0.6811 0.6821 0.6829 0.6838
1516.000000 0.6848 0.6857 0.6860 0.6862 0.6863
1521.000000 0.6864 0.6876 0.6860 0.6857 0.6853
1526.000000 0.6849 0.6844 0.6838 0.6831 0.6824
1531.000000 0.6817 0.6810 0.6801 0.6789 0.6778
1536.000000 0.6766 0.6753 0.6740 0.6724 0.6707
1541.000000 0.6687 0.6664 0.6640 0.6615 0.6591
1546.000000 0.6550 0.6504 0.6458 0.6403 0.6343
1551.000000 0.6282 0.6222 0.6162 0.6103 0.6043
1556.000000 0.5979 0.5916 0.5856 0.5808 0.5767
1561.000000 0.5725 0.5677 0.5624 0.5570 0.5516
1566.000000 0.5462 0.5407 0.5347 0.5280 0.5212
1571.000000 0.5140 0.5024 0.4890 0.4762 0.4632
1576.000000 0.4496 0.4270 0.4116 0.4021 0.3922
1581.000000 0.3804 0.3709 0.3634 0.3564 0.3494
1586.000000 0.3433 0.3377 0.3321 0.3265 0.3208
1591.000000 0.3152 0.3096 0.3039 0.2983 0.2924
1596.000000 0.2859 0.2792 0.2728 0.2670 0.2608
1601.000000 0.2525 0.2451 0.2421 0.2410 0.2402
1606.000000 0.2400 0.2402 0.2385 0.2411 0.2423
1611.000000 0.2448 0.2474 0.2500 0.2528 0.2586
1616.000000 0.2667 0.2748 0.2829 0.2910 0.2991
1621.000000 0.3071 0.3151 0.3231 0.3312 0.3392
1626.000000 0.3472 0.3552 0.3632 0.3712 0.3791
1631.000000 0.3871 0.3951 0.4030 0.4110 0.4189
1636.000000 0.4268 0.4347 0.4425 0.4504 0.4583
1641.000000 0.4662 0.4740 0.4819 0.4897 0.4975
1646.000000 0.5054 0.5132 0.5209 0.5288 0.5372
1651.000000 0.5461 0.5542 0.5620 0.5696 0.5771
1656.000000 0.5844 0.5915 0.5984 0.6053 0.6121
1661.000000 0.6198 0.6277 0.6357 0.6434 0.6504
1666.000000 0.6571 0.6637 0.6703 0.6767 0.6825
1671.000000 0.6884 0.6943 0.7001 0.7060 0.7130
1676.000000 0.7209 0.7288 0.7365 0.7432 0.7479
1681.000000 0.7526 0.7572 0.7618 0.7664 0.7708
1686.000000 0.7750 0.7792 0.7833 0.7876 0.7918
1691.000000 0.7959 0.7995 0.8027 0.8059 0.8090
1696.000000 0.8121 0.8153 0.8184 0.8215 0.8246
1701.000000 0.8276 0.8305 0.8335 0.8364 0.8393
1706.000000 0.8422 0.8452 0.8478 0.8499 0.8519
1711.000000 0.8538 0.8556 0.8576 0.8600 0.8631
1716.000000 0.8667 0.8701 0.8744 0.8789 0.8835
1721.000000 0.8870 0.8890 0.8910 0.8930 0.8949
1726.000000 0.8965 0.8978 0.8990 0.9004 0.9016
1731.000000 0.9029 0.9042 0.9055 0.9067 0.9081
1736.000000 0.9093 0.9106 0.9120 0.9133 0.9146
1741.000000 0.9158 0.9171 0.9182 0.9192 0.9201
1746.000000 0.9209 0.9217 0.9226 0.9235 0.9243
1751.000000 0.9251 0.9260 0.9268 0.9276 0.9285
1756.000000 0.9293 0.9300 0.9307 0.9314 0.9321
1761.000000 0.9327 0.9334 0.9340 0.9347 0.9353
1766.000000 0.9359 0.9366 0.9370 0.9374 0.9377
1771.000000 0.9380 0.9383 0.9386 0.9390 0.9393
1776.000000 0.9396 0.9398 0.9398 0.9400 0.9402
1781.000000 0.9403 0.9404 0.9405 0.9406 0.9407
1786.000000 0.9409 0.9411 0.9411 0.9413 0.9414
1791.000000 0.9415 0.9415 0.9416 0.9416 0.9417
1796.000000 0.9417 0.9417 0.9418 0.9418 0.9419
1801.000000 0.9419 0.9420 0.9420 0.9421 0.9421
1806.000000 0.9421 0.9422 0.9422 0.9423 0.9423
1811.000000 0.9423 0.9424 0.9425 0.9425 0.9426
1816.000000 0.9427 0.9428 0.9428 0.9428 0.9429
1821.000000 0.9430 0.9430 0.9431 0.9432 0.9433
1826.000000 0.9433 0.9434 0.9435 0.9435 0.9435
1831.000000 0.9442 0.9437 0.9438 0.9438 0.9439
1836.000000 0.9440 0.9439 0.9439 0.9439 0.9439
1841.000000 0.9438 0.9438 0.9438 0.9437 0.9437
1846.000000 0.9437 0.9436 0.9436 0.9436 0.9435
1851.000000 0.9435 0.9435 0.9435 0.9434 0.9434
1856.000000 0.9433 0.9433 0.9433 0.9432 0.9432
1861.000000 0.9432 0.9432 0.9431 0.9431 0.9431
1866.000000 0.9430 0.9430 0.9430 0.9429 0.9429
1871.000000 0.9429 0.9429 0.9429 0.9429 0.9429
1876.000000 0.9429 0.9429 0.9429 0.9428 0.9428
1881.000000 0.9428 0.9428 0.9428 0.9428 0.9428
1886.000000 0.9428 0.9428 0.9428 0.9427 0.9427
1891.000000 0.9427 0.9427 0.9427 0.9427 0.9427
1896.000000 0.9426 0.9426 0.9426 0.9426 0.9425
1901.000000 0.9423 0.9417 0.9411 0.9405 0.9399
1906.000000 0.9392 0.9386 0.9381 0.9375 0.9370
1911.000000 0.9364 0.9359 0.9353 0.9348 0.9342
1916.000000 0.9337 0.9332 0.9327 0.9323 0.9323
1921.000000 0.9323 0.9322 0.9322 0.9321 0.9320
1926.000000 0.9320 0.9319 0.9319 0.9319 0.9319
1931.000000 0.9320 0.9321 0.9321 0.9321 0.9322
1936.000000 0.9322 0.9323 0.9323 0.9323 0.9324
1941.000000 0.9325 0.9325 0.9325 0.9325 0.9326
1946.000000 0.9326 0.9326 0.9326 0.9327 0.9327
1951.000000 0.9327 0.9327 0.9327 0.9328 0.9328
1956.000000 0.9328 0.9327 0.9326 0.9322 0.9320
1961.000000 0.9317 0.9314 0.9311 0.9308 0.9306
1966.000000 0.9303 0.9299 0.9293 0.9286 0.9278
1971.000000 0.9270 0.9261 0.9253 0.9245 0.9236
1976.000000 0.9228 0.9220 0.9211 0.9203 0.9194
1981.000000 0.9185 0.9176 0.9168 0.9159 0.9150
1986.000000 0.9141 0.9130 0.9118 0.9106 0.9094
1991.000000 0.9082 0.9069 0.9057 0.9045 0.9033
1996.000000 0.9021 0.9008 0.8988 0.8969 0.8949
2001.000000 0.8937 0.8926 0.8916 0.8911 0.8909
2006.000000 0.8910 0.8914 0.8921 0.8929 0.8937
2011.000000 0.8945 0.8954 0.8964 0.8973 0.8977
2016.000000 0.8977 0.8973 0.8969 0.8964 0.8958
2021.000000 0.8951 0.8943 0.8936 0.8927 0.8918
2026.000000 0.8908 0.8898 0.8888 0.8879 0.8869
2031.000000 0.8860 0.8851 0.8842 0.8832 0.8823
2036.000000 0.8814 0.8805 0.8795 0.8785 0.8775
2041.000000 0.8766 0.8756 0.8747 0.8737 0.8727
2046.000000 0.8718 0.8708 0.8699 0.8689 0.8681
2051.000000 0.8674 0.8667 0.8662 0.8658 0.8660
2056.000000 0.8664 0.8667 0.8670 0.8673 0.8680
2061.000000 0.8689 0.8650 0.8714 0.8728 0.8743
2066.000000 0.8758 0.8773 0.8789 0.8810 0.8832
2071.000000 0.8853 0.8874 0.8895 0.8917 0.8938
2076.000000 0.8959 0.8979 0.8998 0.9017 0.9036
2081.000000 0.9054 0.9073 0.9092 0.9110 0.9128
2086.000000 0.9143 0.9158 0.9173 0.9188 0.9203
2091.000000 0.9218 0.9234 0.9249 0.9263 0.9277
2096.000000 0.9289 0.9298 0.9307 0.9317 0.9326
2101.000000 0.9335 0.9345 0.9352 0.9356 0.9359
2106.000000 0.9362 0.9364 0.9367 0.9370 0.9372
2111.000000 0.9374 0.9377 0.9379 0.9382 0.9384
2116.000000 0.9387 0.9389 0.9392 0.9394 0.9397
2121.000000 0.9399 0.9402 0.9404 0.9406 0.9409
2126.000000 0.9412 0.9415 0.9417 0.9420 0.9424
2131.000000 0.9427 0.9429 0.9430 0.9429 0.9427
2136.000000 0.9425 0.9423 0.9421 0.9420 0.9417
2141.000000 0.9414 0.9410 0.9406 0.9401 0.9396
2146.000000 0.9390 0.9385 0.9381 0.9377 0.9374
2151.000000 0.9372 0.9369 0.9367 0.9365 0.9363
2156.000000 0.9361 0.9359 0.9356 0.9354 0.9352
2161.000000 0.9351 0.9351 0.9351 0.9351 0.9351
2166.000000 0.9351 0.9351 0.9351 0.9352 0.9352
2171.000000 0.9352 0.9352 0.9352 0.9353 0.9353
2176.000000 0.9353 0.9354 0.9355 0.9358 0.9361
2181.000000 0.9364 0.9367 0.9370 0.9373 0.9376
2186.000000 0.9379 0.9382 0.9385 0.9389 0.9394
2191.000000 0.9399 0.9404 0.9409 0.9414 0.9419
2196.000000 0.9424 0.9430 0.9436 0.9443 0.9450
2201.000000 0.9458 0.9465 0.9472 0.9477 0.9482
2206.000000 0.9486 0.9489 0.9494 0.9497 0.9501
2211.000000 0.9502 0.9501 0.9500 0.9499 0.9498
2216.000000 0.9496 0.9495 0.9494 0.9493 0.9492
2221.000000 0.9491 0.9490 0.9490 0.9486 0.9484
2226.000000 0.9482 0.9480 0.9479 0.9477 0.9475
2231.000000 0.9473 0.9471 0.9469 0.9468 0.9466
2236.000000 0.9464 0.9462 0.9460 0.9458 0.9456
2241.000000 0.9454 0.9453 0.9451 0.9449 0.9447
2246.000000 0.9445 0.9443 0.9441 0.9439 0.9438
2251.000000 0.9436 0.9434 0.9433 0.9433 0.9433
2256.000000 0.9433 0.9432 0.9432 0.9432 0.9432
2261.000000 0.9432 0.9432 0.9431 0.9431 0.9431
2266.000000 0.9431 0.9430 0.9430 0.9430 0.9430
2271.000000 0.9430 0.9430 0.9430 0.9430 0.9431
2276.000000 0.9432 0.9433 0.9434 0.9436 0.9437
2281.000000 0.9438 0.9440 0.9441 0.9443 0.9444
2286.000000 0.9446 0.9447 0.9449 0.9451 0.9454
2291.000000 0.9459 0.9464 0.9468 0.9473 0.9477
2296.000000 0.9481 0.9483 0.9485 0.9486 0.9488
2301.000000 0.9489 0.9490 0.9491 0.9492 0.9493
2306.000000 0.9494 0.9492 0.9488 0.9484 0.9480
2311.000000 0.9476 0.9472 0.9468 0.9463 0.9457
2316.000000 0.9450 0.9442 0.9435 0.9427 0.9420
2321.000000 0.9412 0.9405 0.9398 0.9390 0.9384
2326.000000 0.9377 0.9370 0.9363 0.9355 0.9348
2331.000000 0.9342 0.9336 0.9332 0.9328 0.9323
2336.000000 0.9319 0.9316 0.9314 0.9313 0.9313
2341.000000 0.9312 0.9312 0.9312 0.9311 0.9310
2346.000000 0.9310 0.9310 0.9309 0.9309 0.9309
2351.000000 0.9309 0.9309 0.9309 0.9309 0.9309
2356.000000 0.9309 0.9309 0.9309 0.9309 0.9309
2361.000000 0.9309 0.9309 0.9309 0.9309 0.9309
2366.000000 0.9311 0.9313 0.9315 0.9316 0.9318
2371.000000 0.9320 0.9322 0.9323 0.9324 0.9326
2376.000000 0.9329 0.9332 0.9336 0.9340 0.9344
2381.000000 0.9348 0.9352 0.9356 0.9360 0.9364
2386.000000 0.9367 0.9369 0.9372 0.9375 0.9377
2391.000000 0.9380 0.9382 0.9384 0.9387 0.9389
2396.000000 0.9391 0.9394 0.9394 0.9394 0.9394
2401.000000 0.9393 0.9392 0.9391 0.9390 0.9389
2406.000000 0.9388 0.9386 0.9384 0.9381 0.9379
2411.000000 0.9377 0.9375 0.9373 0.9371 0.9368
2416.000000 0.9366 0.9363 0.9360 0.9356 0.9353
2421.000000 0.9350 0.9346 0.9343 0.9339 0.9336
2426.000000 0.9332 0.9328 0.9325 0.9321 0.9318
2431.000000 0.9316 0.9313 0.9311 0.9308 0.9306
2436.000000 0.9303 0.9301 0.9298 0.9296 0.9293
2441.000000 0.9291 0.9290 0.9292 0.9294 0.9296
2446.000000 0.9297 0.9299 0.9301 0.9302 0.9304
2451.000000 0.9306 0.9307 0.9309 0.9311 0.9312
2456.000000 0.9314 0.9315 0.9317 0.9318 0.9320
2461.000000 0.9321 0.9323 0.9324 0.9326 0.9328
2466.000000 0.9329 0.9330 0.9332 0.9333 0.9335
2471.000000 0.9336 0.9337 0.9338 0.9338 0.9338
2476.000000 0.9339 0.9339 0.9339 0.9339 0.9339
2481.000000 0.9340 0.9340 0.9341 0.9341 0.9341
2486.000000 0.9340 0.9338 0.9335 0.9332 0.9329
2491.000000 0.9322 0.9314 0.9307 0.9299 0.9292
2496.000000 0.9283 0.9274 0.9265 0.9256 0.9247
2501.000000 0.9237 0.9228 0.9218 0.9206 0.9194
2506.000000 0.9181 0.9168 0.9155 0.9143 0.9130
2511.000000 0.9116 0.9102 0.9088 0.9074 0.9060
2516.000000 0.9046 0.9031 0.9017 0.9004 0.8991
2521.000000 0.8977 0.8963 0.8950 0.8936 0.8923
2526.000000 0.8910 0.8896 0.8883 0.8869 0.8855
2531.000000 0.8842 0.8829 0.8815 0.8801 0.8787
2536.000000 0.8773 0.8759 0.8745 0.8731 0.8717
2541.000000 0.8703 0.8689 0.8675 0.8661 0.8646
2546.000000 0.8632 0.8618 0.8604 0.8589 0.8574
2551.000000 0.8558 0.8542 0.8526 0.8511 0.8495
2556.000000 0.8479 0.8464 0.8448 0.8432 0.8417
2561.000000 0.8401 0.8386 0.8370 0.8355 0.8341
2566.000000 0.8327 0.8313 0.8299 0.8285 0.8271
2571.000000 0.8257 0.8243 0.8229 0.8216 0.8204
2576.000000 0.8195 0.8187 0.8180 0.8174 0.8168
2581.000000 0.8162 0.8156 0.8150 0.8144 0.8138
2586.000000 0.8136 0.8135 0.8133 0.8133 0.8132
2591.000000 0.8131 0.8131 0.8130 0.8129 0.8128
2596.000000 0.8128 0.8127 0.8126 0.8125 0.8124
2601.000000 0.8122 0.8121 0.8119 0.8118 0.8116
2606.000000 0.8115 0.8113 0.8112 0.8110 0.8109
2611.000000 0.8107 0.8106 0.8102 0.8098 0.8093
2616.000000 0.8083 0.8073 0.8062 0.8042 0.8023
2621.000000 0.8003 0.7982 0.7962 0.7941 0.7921
2626.000000 0.7902 0.7892 0.7883 0.7874 0.7868
2631.000000 0.7862 0.7856 0.7850 0.7845 0.7840
2636.000000 0.7836 0.7832 0.7828 0.7824 0.7820
2641.000000 0.7814 0.7808 0.7802 0.7795 0.7789
2646.000000 0.7779 0.7767 0.7754 0.7739 0.7723
2651.000000 0.7707 0.7686 0.7665 0.7643 0.7619
2656.000000 0.7596 0.7568 0.7527 0.7486 0.7446
