##TITLE=ETHYLENE SULFITE
##JCAMP-DX=4.24
##DATA TYPE=INFRARED SPECTRUM
##CLASS=COBLENTZ
##ORIGIN=STANDARD OIL OF OHIO
##OWNER=COBLENTZ SOCIETY
Collection (C) 2018 copyright by the U.S. Secretary of Commerce
on behalf of the United States of America. All rights reserved.
##DATE=Not specified, most likely prior to 1970
##NAMES=1,3,2-dioxathiolane 2-oxide
##CAS REGISTRY NO=3741-38-6
##MOLFORM=C2 H4 S O3
##SOURCE REFERENCE=COBLENTZ NO. 4357
##$NIST SOURCE=COBLENTZ
##$NIST IMAGE=cob4357
##SPECTROMETER/DATA SYSTEM=Not specified, most likely a grating spectrometer.
##STATE=LIQUID
##PATH LENGTH=FILM
##SAMPLING PROCEDURE=TRANSMISSION
##RESOLUTION=4
##DATA PROCESSING=DIGITIZED BY NIST FROM HARD COPY (FROM TWO SEGMENTS)
##XUNITS=1/CM
##YUNITS=TRANSMITTANCE
##XFACTOR=1.000000
##YFACTOR=1
##DELTAX=1.351355
##FIRSTX=237.838
##LASTX=3895.96
##FIRSTY=0.703
##MAXX=3895.96
##MINX=237.838
##MAXY=0.932
##MINY=0.050008
##NPOINTS=2708
##XYDATA=(X++(Y..Y))
237.838000 0.7030 0.7030 0.7030 0.7030 0.7030
244.594774 0.7050 0.7050 0.7050 0.7050 0.7030
251.351547 0.7030 0.7020 0.7020 0.7020 0.7030
258.108321 0.7100 0.7150 0.7250 0.7270 0.7270
264.865094 0.7270 0.7290 0.7300 0.7320 0.7340
271.621868 0.7340 0.7340 0.7360 0.7370 0.7370
278.378642 0.7370 0.7370 0.7360 0.7340 0.7340
285.135415 0.7340 0.7340 0.7340 0.7340 0.7340
291.892189 0.7340 0.7340 0.7340 0.7340 0.7360
298.648962 0.7370 0.7370 0.7370 0.7390 0.7370
305.405736 0.7360 0.7360 0.7360 0.7370 0.7370
312.162510 0.7370 0.7370 0.7370 0.7360 0.7360
318.919283 0.7370 0.7370 0.7370 0.7370 0.7340
325.676057 0.7270 0.7240 0.7220 0.7220 0.7220
332.432830 0.7200 0.7200 0.7190 0.7140 0.7120
339.189604 0.7100 0.7080 0.7080 0.7050 0.7020
345.946378 0.6970 0.6920 0.6880 0.6860 0.6850
352.703151 0.6780 0.6760 0.6661 0.6590 0.6540
359.459925 0.6460 0.6320 0.6200 0.6120 0.5970
366.216698 0.5711 0.5481 0.5072 0.4831 0.4562
372.973472 0.4140 0.3800 0.3550 0.3241 0.3011
379.730246 0.2970 0.3010 0.3129 0.3289 0.3409
386.487019 0.3620 0.3850 0.4060 0.4380 0.4580
393.243793 0.4749 0.4989 0.5259 0.5439 0.5539
400.000566 0.5610 0.5660 0.5710 0.5750 0.5780
406.757340 0.5780 0.5800 0.5800 0.5780 0.5780
413.514113 0.5780 0.5760 0.5780 0.5800 0.5800
420.270887 0.5800 0.5780 0.5760 0.5750 0.5750
427.027661 0.5730 0.5730 0.5700 0.5660 0.5630
433.784434 0.5580 0.5530 0.5490 0.5460 0.5361
440.541208 0.5290 0.5210 0.5120 0.5020 0.4890
447.297981 0.4751 0.4581 0.4381 0.4141 0.3872
454.054755 0.3570 0.3240 0.2800 0.2401 0.1961
460.811529 0.1591 0.1311 0.1230 0.1250 0.1369
467.568302 0.1550 0.1820 0.2229 0.2529 0.3009
474.325076 0.3289 0.3599 0.3869 0.4009 0.4338
481.081849 0.4500 0.4610 0.4750 0.4870 0.5000
487.838623 0.5040 0.5140 0.5220 0.5270 0.5320
494.595397 0.5380 0.5410 0.5460 0.5480 0.5490
501.352170 0.5490 0.5510 0.5530 0.5530 0.5530
508.108944 0.5530 0.5540 0.5540 0.5540 0.5530
514.865717 0.5510 0.5490 0.5480 0.5460 0.5410
521.622491 0.5380 0.5290 0.5260 0.5260 0.5310
528.379265 0.5410 0.5529 0.5610 0.5680 0.5750
535.136038 0.5800 0.5900 0.5930 0.5970 0.5970
541.892812 0.5980 0.6000 0.6000 0.6020 0.6020
548.649585 0.6020 0.6040 0.6040 0.6040 0.6040
555.406359 0.6040 0.6020 0.6020 0.6020 0.6000
562.163133 0.6000 0.6000 0.6000 0.5970 0.5970
568.919906 0.5930 0.5900 0.5870 0.5850 0.5850
575.676680 0.5880 0.5900 0.5920 0.5950 0.5970
582.433453 0.5970 0.6020 0.6040 0.6050 0.6050
589.190227 0.6050 0.6040 0.6020 0.6000 0.5980
595.947001 0.5950 0.5930 0.5870 0.5751 0.5661
602.703774 0.5580 0.5440 0.5260 0.5120 0.4950
609.460548 0.4800 0.4700 0.4610 0.4600 0.4600
616.217321 0.4610 0.4650 0.4720 0.4830 0.4900
622.974095 0.5020 0.5100 0.5210 0.5309 0.5360
629.730869 0.5380 0.5380 0.5360 0.5320 0.5220
636.487642 0.5120 0.5000 0.4781 0.4561 0.4431
643.244416 0.3770 0.3580 0.3450 0.3350 0.3230
650.001189 0.3090 0.3010 0.2851 0.2770 0.2531
656.757963 0.2330 0.2230 0.1920 0.1700 0.1600
663.514737 0.1470 0.1211 0.1150 0.1130 0.1130
670.271510 0.1130 0.1150 0.1160 0.1210 0.1310
677.028284 0.1380 0.1500 0.1619 0.1809 0.1909
683.785057 0.2090 0.2410 0.2690 0.3010 0.3239
690.541831 0.3679 0.3889 0.4338 0.4599 0.4799
697.298605 0.5020 0.5240 0.5440 0.5630 0.5660
704.055378 0.5820 0.5900 0.5980 0.6000 0.6020
710.812152 0.6020 0.6020 0.6020 0.6000 0.6000
717.568925 0.5920 0.5850 0.5731 0.5601 0.5411
724.325699 0.5240 0.4990 0.4600 0.4360 0.3941
731.082473 0.3501 0.3091 0.2791 0.2482 0.2231
737.839246 0.2010 0.1860 0.1770 0.1770 0.1790
744.596020 0.1810 0.1870 0.2009 0.2209 0.2498
751.352793 0.2820 0.3130 0.3500 0.3820 0.4359
758.109567 0.4799 0.5308 0.5778 0.6118 0.6508
764.866340 0.6830 0.7030 0.7320 0.7510 0.7730
771.623114 0.7810 0.7900 0.8069 0.8130 0.8200
778.379888 0.8250 0.8340 0.8390 0.8420 0.8490
785.136661 0.8510 0.8520 0.8540 0.8610 0.8640
791.893435 0.8660 0.8660 0.8690 0.8710 0.8730
798.650208 0.8740 0.8760 0.8780 0.8790 0.8810
805.406982 0.8830 0.8830 0.8840 0.8840 0.8860
812.163756 0.8860 0.8860 0.8860 0.8860 0.8860
818.920529 0.8840 0.8840 0.8840 0.8810 0.8810
825.677303 0.8790 0.8760 0.8740 0.8730 0.8690
832.434076 0.8680 0.8640 0.8610 0.8570 0.8520
839.190850 0.8510 0.8440 0.8390 0.8271 0.8171
845.947624 0.8030 0.7930 0.7880 0.7760 0.7690
852.704397 0.7560 0.7520 0.7420 0.7301 0.7250
859.461171 0.7190 0.7170 0.7170 0.7170 0.7170
866.217944 0.7170 0.7150 0.7140 0.7120 0.7100
872.974718 0.7070 0.7020 0.7000 0.6930 0.6920
879.731492 0.6860 0.6800 0.6750 0.6700 0.6630
886.488265 0.6510 0.6410 0.6290 0.6150 0.5920
893.245039 0.5661 0.5361 0.5002 0.4552 0.4013
900.001812 0.2799 0.2430 0.1970 0.1700 0.0841
906.758586 0.0621 0.0520 0.0500 0.0520 0.0540
913.515360 0.0570 0.0640 0.0720 0.0910 0.1110
920.272133 0.1299 0.1689 0.2178 0.3125 0.3895
927.028907 0.4581 0.5100 0.5600 0.6000 0.6200
933.785680 0.6509 0.6610 0.6849 0.6999 0.7099
940.542454 0.7200 0.7240 0.7270 0.7270 0.7270
947.299228 0.7240 0.7220 0.7150 0.7100 0.7020
954.056001 0.7000 0.6900 0.6860 0.6850 0.6850
960.812775 0.6860 0.6860 0.6900 0.6930 0.6950
967.569548 0.6980 0.7000 0.7020 0.7020 0.7020
974.326322 0.6980 0.6880 0.6810 0.6730 0.6531
981.083096 0.6420 0.6220 0.5980 0.5680 0.5291
987.839869 0.4891 0.4531 0.3952 0.3383 0.3012
994.596643 0.2380 0.2010 0.1600 0.0941 0.0670
1001.353416 0.0640 0.0620 0.0620 0.0650 0.0710
1008.110190 0.0790 0.0910 0.1010 0.1210 0.1530
1014.866964 0.2009 0.2299 0.2888 0.3308 0.4006
1021.623737 0.4290 0.4650 0.4850 0.5190 0.5390
1028.380511 0.5540 0.5680 0.5750 0.5850 0.5900
1035.137284 0.6000 0.6020 0.6140 0.6200 0.6320
1041.894058 0.6490 0.6510 0.6590 0.6700 0.6760
1048.650832 0.6800 0.6830 0.6850 0.6860 0.6880
1055.407605 0.6900 0.6920 0.6930 0.6930 0.6850
1062.164379 0.6780 0.6680 0.6590 0.6480 0.6340
1068.921152 0.6270 0.6240 0.6240 0.6240 0.6260
1075.677926 0.6260 0.6260 0.6270 0.6310 0.6360
1082.434699 0.6410 0.6490 0.6590 0.6709 0.6899
1089.191473 0.7080 0.7300 0.7420 0.7630 0.7780
1095.948247 0.7900 0.7980 0.8070 0.8120 0.8130
1102.705020 0.8170 0.8170 0.8130 0.8100 0.8070
1109.461794 0.8030 0.8020 0.7900 0.7850 0.7741
1116.218567 0.7680 0.7640 0.7660 0.7680 0.7710
1122.975341 0.7780 0.7860 0.7980 0.8020 0.8030
1129.732115 0.8050 0.8080 0.8080 0.8080 0.8080
1136.488888 0.8070 0.8030 0.8020 0.7950 0.7910
1143.245662 0.7810 0.7760 0.7730 0.7710 0.7690
1150.002435 0.7640 0.7610 0.7520 0.7510 0.7410
1156.759209 0.7300 0.7190 0.7070 0.7000 0.6810
1163.515983 0.6640 0.6490 0.6291 0.6051 0.5851
1170.272756 0.5489 0.5220 0.4900 0.4600 0.4190
1177.029530 0.3801 0.3511 0.3022 0.2751 0.2531
1183.786303 0.2190 0.1920 0.1640 0.1450 0.1250
1190.543077 0.0911 0.0790 0.0710 0.0670 0.0650
1197.299851 0.0650 0.0650 0.0650 0.0650 0.0670
1204.056624 0.0670 0.0710 0.0740 0.0790 0.0820
1210.813398 0.0930 0.0980 0.1030 0.1150 0.1330
1217.570171 0.1520 0.1739 0.2059 0.2309 0.2628
1224.326945 0.2941 0.3241 0.3650 0.4060 0.4380
1231.083719 0.4749 0.5049 0.5309 0.5539 0.5829
1237.840492 0.6071 0.6360 0.6510 0.6610 0.6800
1244.597266 0.6900 0.7020 0.7050 0.7189 0.7270
1251.354039 0.7360 0.7420 0.7460 0.7540 0.7590
1258.110813 0.7630 0.7660 0.7710 0.7740 0.7760
1264.867587 0.7780 0.7800 0.7800 0.7800 0.7800
1271.624360 0.7780 0.7780 0.7780 0.7780 0.7780
1278.381134 0.7780 0.7780 0.7780 0.7780 0.7760
1285.137907 0.7740 0.7730 0.7710 0.7690 0.7660
1291.894681 0.7640 0.7640 0.7640 0.7660 0.7660
1298.651455 0.7690 0.7730 0.7780 0.7830 0.7860
1305.408228 0.7880 0.7900 0.7910 0.7930 0.7950
1312.165002 0.7950 0.7930 0.7930 0.7910 0.7900
1318.921775 0.7880 0.7830 0.7800 0.7660 0.7590
1325.678549 0.7490 0.7320 0.7240 0.7220 0.7250
1332.435323 0.7320 0.7440 0.7590 0.7740 0.7900
1339.192096 0.8000 0.8070 0.8120 0.8130 0.8150
1345.948870 0.8150 0.8130 0.8120 0.8030 0.8000
1352.705643 0.7950 0.7900 0.7880 0.7880 0.7880
1359.462417 0.7910 0.7980 0.8020 0.8100 0.8150
1366.219191 0.8200 0.8220 0.8250 0.8270 0.8290
1372.975964 0.8300 0.8300 0.8300 0.8300 0.8300
1379.732738 0.8300 0.8300 0.8320 0.8320 0.8320
1386.489511 0.8320 0.8340 0.8340 0.8350 0.8350
1393.246285 0.8370 0.8390 0.8400 0.8400 0.8420
1400.003058 0.8440 0.8460 0.8470 0.8470 0.8470
1406.759832 0.8510 0.8510 0.8510 0.8520 0.8520
1413.516606 0.8520 0.8520 0.8520 0.8520 0.8520
1420.273379 0.8510 0.8510 0.8510 0.8460 0.8400
1427.030153 0.8340 0.8300 0.8290 0.8300 0.8340
1433.786926 0.8370 0.8440 0.8470 0.8510 0.8510
1440.543700 0.8510 0.8470 0.8460 0.8420 0.8390
1447.300474 0.8390 0.8340 0.8220 0.8130 0.8050
1454.057247 0.7950 0.7880 0.7760 0.7710 0.7520
1460.814021 0.7300 0.7031 0.6681 0.6411 0.6420
1467.570794 0.6561 0.6851 0.7300 0.7560 0.7710
1474.327568 0.7830 0.7930 0.8020 0.8030 0.8130
1481.084342 0.8220 0.8300 0.8370 0.8420 0.8520
1487.841115 0.8540 0.8620 0.8660 0.8690 0.8710
1494.597889 0.8790 0.8810 0.8830 0.8840 0.8910
1501.354662 0.8930 0.8980 0.9010 0.9030 0.9030
1508.111436 0.9030 0.9030 0.9050 0.9050 0.9050
1514.868210 0.9060 0.9080 0.9080 0.9100 0.9120
1521.624983 0.9120 0.9130 0.9130 0.9130 0.9130
1528.381757 0.9120 0.9120 0.9130 0.9130 0.9120
1535.138530 0.9120 0.9120 0.9120 0.9120 0.9120
1541.895304 0.9120 0.9130 0.9120 0.9120 0.9120
1548.652078 0.9120 0.9120 0.9120 0.9120 0.9120
1555.408851 0.9120 0.9130 0.9130 0.9120 0.9100
1562.165625 0.9100 0.9100 0.9100 0.9100 0.9080
1568.922398 0.9060 0.9060 0.9060 0.9060 0.9060
1575.679172 0.9060 0.9050 0.9050 0.9030 0.9030
1582.435946 0.9030 0.9030 0.9030 0.9030 0.9030
1589.192719 0.9050 0.9050 0.9050 0.9050 0.9050
1595.949493 0.9050 0.9050 0.9050 0.9030 0.9030
1602.706266 0.9030 0.9050 0.9050 0.9050 0.9030
1609.463040 0.9030 0.9030 0.9030 0.9030 0.9050
1616.219814 0.9050 0.9030 0.9010 0.9010 0.9010
1622.976587 0.9010 0.9010 0.9010 0.9010 0.9010
1629.733361 0.9010 0.9010 0.9010 0.9010 0.9030
1636.490134 0.9030 0.9030 0.9030 0.9030 0.9030
1643.246908 0.9030 0.9030 0.9050 0.9030 0.9030
1650.003682 0.9030 0.9050 0.9050 0.9030 0.9030
1656.760455 0.9030 0.9050 0.9050 0.9050 0.9050
1663.517229 0.9080 0.9080 0.9080 0.9120 0.9120
1670.274002 0.9130 0.9130 0.9130 0.9150 0.9150
1677.030776 0.9150 0.9150 0.9150 0.9150 0.9170
1683.787550 0.9180 0.9170 0.9170 0.9170 0.9150
1690.544323 0.9150 0.9150 0.9150 0.9150 0.9150
1697.301097 0.9150 0.9170 0.9170 0.9170 0.9170
1704.057870 0.9170 0.9170 0.9170 0.9170 0.9170
1710.814644 0.9170 0.9170 0.9170 0.9180 0.9180
1717.571418 0.9180 0.9180 0.9180 0.9180 0.9180
1724.328191 0.9180 0.9180 0.9180 0.9180 0.9180
1731.084965 0.9180 0.9180 0.9200 0.9200 0.9200
1737.841738 0.9200 0.9200 0.9200 0.9200 0.9200
1744.598512 0.9200 0.9200 0.9200 0.9200 0.9180
1751.355285 0.9180 0.9180 0.9180 0.9180 0.9200
1758.112059 0.9200 0.9200 0.9200 0.9200 0.9200
1764.868833 0.9200 0.9200 0.9200 0.9200 0.9200
1771.625606 0.9200 0.9200 0.9200 0.9200 0.9200
1778.382380 0.9200 0.9200 0.9180 0.9180 0.9180
1785.139153 0.9180 0.9180 0.9170 0.9170 0.9170
1791.895927 0.9170 0.9150 0.9150 0.9150 0.9150
1798.652701 0.9150 0.9150 0.9150 0.9130 0.9130
1805.409474 0.9130 0.9130 0.9130 0.9130 0.9130
1812.166248 0.9130 0.9130 0.9130 0.9130 0.9130
1818.923021 0.9130 0.9130 0.9130 0.9170 0.9170
1825.679795 0.9180 0.9180 0.9180 0.9180 0.9180
1832.436569 0.9180 0.9180 0.9200 0.9200 0.9200
1839.193342 0.9200 0.9200 0.9200 0.9200 0.9200
1845.950116 0.9200 0.9200 0.9200 0.9200 0.9200
1852.706889 0.9200 0.9200 0.9200 0.9200 0.9200
1859.463663 0.9200 0.9180 0.9180 0.9180 0.9180
1866.220437 0.9180 0.9180 0.9180 0.9180 0.9180
1872.977210 0.9180 0.9180 0.9180 0.9180 0.9180
1879.733984 0.9170 0.9170 0.9150 0.9150 0.9150
1886.490757 0.9150 0.9150 0.9130 0.9120 0.9120
1893.247531 0.9120 0.9120 0.9100 0.9100 0.9100
1900.004305 0.9080 0.9060 0.9050 0.9050 0.9030
1906.761078 0.9030 0.9030 0.9050 0.9050 0.9050
1913.517852 0.9060 0.9080 0.9080 0.9080 0.9100
1920.274625 0.9120 0.9130 0.9130 0.9130 0.9150
1927.031399 0.9150 0.9150 0.9170 0.9180 0.9180
1933.788173 0.9180 0.9180 0.9180 0.9180 0.9180
1940.544946 0.9180 0.9180 0.9180 0.9180 0.9180
1947.301720 0.9180 0.9180 0.9180 0.9180 0.9180
1954.058493 0.9180 0.9180 0.9180 0.9180 0.9180
1960.815267 0.9180 0.9180 0.9180 0.9180 0.9180
1967.572041 0.9180 0.9180 0.9180 0.9180 0.9180
1974.328814 0.9180 0.9180 0.9180 0.9180 0.9180
1981.085588 0.9180 0.9180 0.9180 0.9180 0.9180
1987.842361 0.9180 0.9180 0.9180 0.9180 0.9200
1994.599135 0.9200 0.9200 0.9250 0.9270 0.9270
2001.355909 0.9270 0.9270 0.9275 0.9280 0.9280
2008.112682 0.9280 0.9280 0.9280 0.9280 0.9280
2014.869456 0.9280 0.9280 0.9280 0.9280 0.9290
2021.626229 0.9300 0.9300 0.9300 0.9300 0.9300
2028.383003 0.9300 0.9300 0.9300 0.9300 0.9300
2035.139777 0.9300 0.9290 0.9280 0.9280 0.9280
2041.896550 0.9290 0.9300 0.9300 0.9300 0.9300
2048.653324 0.9300 0.9300 0.9300 0.9300 0.9300
2055.410097 0.9290 0.9280 0.9280 0.9280 0.9280
2062.166871 0.9280 0.9280 0.9280 0.9290 0.9300
2068.923644 0.9300 0.9300 0.9300 0.9300 0.9290
2075.680418 0.9280 0.9280 0.9280 0.9280 0.9280
2082.437192 0.9280 0.9280 0.9280 0.9280 0.9280
2089.193965 0.9280 0.9280 0.9280 0.9280 0.9280
2095.950739 0.9280 0.9280 0.9280 0.9280 0.9280
2102.707512 0.9280 0.9280 0.9280 0.9280 0.9280
2109.464286 0.9280 0.9280 0.9280 0.9280 0.9280
2116.221060 0.9280 0.9280 0.9280 0.9280 0.9280
2122.977833 0.9280 0.9280 0.9280 0.9280 0.9280
2129.734607 0.9280 0.9280 0.9280 0.9280 0.9280
2136.491380 0.9290 0.9300 0.9300 0.9300 0.9300
2143.248154 0.9300 0.9300 0.9300 0.9300 0.9300
2150.004928 0.9310 0.9320 0.9320 0.9320 0.9310
2156.761701 0.9300 0.9300 0.9300 0.9300 0.9300
2163.518475 0.9300 0.9300 0.9300 0.9300 0.9300
2170.275248 0.9300 0.9300 0.9300 0.9290 0.9280
2177.032022 0.9280 0.9280 0.9290 0.9300 0.9300
2183.788796 0.9300 0.9300 0.9300 0.9290 0.9280
2190.545569 0.9280 0.9280 0.9280 0.9280 0.9280
2197.302343 0.9280 0.9280 0.9280 0.9280 0.9280
2204.059116 0.9280 0.9280 0.9280 0.9280 0.9280
2210.815890 0.9280 0.9280 0.9280 0.9280 0.9280
2217.572664 0.9280 0.9280 0.9290 0.9300 0.9290
2224.329437 0.9280 0.9280 0.9280 0.9280 0.9280
2231.086211 0.9280 0.9280 0.9280 0.9280 0.9280
2237.842984 0.9280 0.9280 0.9280 0.9280 0.9280
2244.599758 0.9280 0.9280 0.9280 0.9280 0.9280
2251.356532 0.9280 0.9280 0.9280 0.9280 0.9280
2258.113305 0.9280 0.9280 0.9280 0.9280 0.9280
2264.870079 0.9280 0.9280 0.9280 0.9280 0.9280
2271.626852 0.9280 0.9280 0.9280 0.9280 0.9290
2278.383626 0.9300 0.9300 0.9300 0.9290 0.9280
2285.140400 0.9290 0.9300 0.9300 0.9300 0.9300
2291.897173 0.9300 0.9300 0.9300 0.9300 0.9300
2298.653947 0.9300 0.9300 0.9300 0.9300 0.9300
2305.410720 0.9300 0.9300 0.9300 0.9300 0.9300
2312.167494 0.9300 0.9300 0.9290 0.9280 0.9280
2318.924268 0.9280 0.9280 0.9280 0.9280 0.9280
2325.681041 0.9275 0.9270 0.9270 0.9270 0.9260
2332.437815 0.9250 0.9240 0.9230 0.9230 0.9230
2339.194588 0.9225 0.9220 0.9220 0.9220 0.9220
2345.951362 0.9220 0.9210 0.9200 0.9200 0.9200
2352.708136 0.9190 0.9180 0.9180 0.9180 0.9175
2359.464909 0.9170 0.9170 0.9170 0.9160 0.9150
2366.221683 0.9140 0.9130 0.9130 0.9130 0.9115
2372.978456 0.9100 0.9090 0.9080 0.9080 0.9080
2379.735230 0.9065 0.9050 0.9050 0.9050 0.9050
2386.492004 0.9050 0.9050 0.9050 0.9055 0.9060
2393.248777 0.9060 0.9060 0.9060 0.9060 0.9070
2400.005551 0.9080 0.9090 0.9100 0.9110 0.9120
2406.762324 0.9120 0.9120 0.9125 0.9130 0.9130
2413.519098 0.9130 0.9140 0.9150 0.9150 0.9150
2420.275871 0.9150 0.9150 0.9150 0.9150 0.9160
2427.032645 0.9170 0.9170 0.9170 0.9170 0.9170
2433.789419 0.9175 0.9180 0.9180 0.9180 0.9180
2440.546192 0.9180 0.9180 0.9180 0.9180 0.9180
2447.302966 0.9180 0.9180 0.9175 0.9170 0.9170
2454.059739 0.9170 0.9170 0.9170 0.9170 0.9170
2460.816513 0.9170 0.9170 0.9170 0.9170 0.9170
2467.573287 0.9170 0.9170 0.9170 0.9170 0.9170
2474.330060 0.9170 0.9170 0.9170 0.9170 0.9170
2481.086834 0.9170 0.9170 0.9170 0.9160 0.9150
2487.843607 0.9150 0.9150 0.9150 0.9150 0.9150
2494.600381 0.9150 0.9165 0.9180 0.9180 0.9180
2501.357155 0.9175 0.9170 0.9175 0.9180 0.9175
2508.113928 0.9170 0.9170 0.9170 0.9170 0.9170
2514.870702 0.9170 0.9170 0.9170 0.9170 0.9170
2521.627475 0.9170 0.9170 0.9170 0.9170 0.9170
2528.384249 0.9170 0.9170 0.9160 0.9150 0.9150
2535.141023 0.9150 0.9150 0.9150 0.9150 0.9150
2541.897796 0.9150 0.9150 0.9150 0.9150 0.9150
2548.654570 0.9150 0.9150 0.9150 0.9150 0.9150
2555.411343 0.9150 0.9150 0.9150 0.9150 0.9150
2562.168117 0.9150 0.9150 0.9150 0.9150 0.9150
2568.924891 0.9140 0.9130 0.9130 0.9130 0.9130
2575.681664 0.9130 0.9130 0.9130 0.9140 0.9150
2582.438438 0.9150 0.9150 0.9150 0.9150 0.9150
2589.195211 0.9150 0.9150 0.9150 0.9150 0.9150
2595.951985 0.9150 0.9150 0.9160 0.9170 0.9160
2602.708759 0.9150 0.9150 0.9150 0.9150 0.9150
2609.465532 0.9150 0.9150 0.9150 0.9150 0.9150
2616.222306 0.9150 0.9140 0.9130 0.9130 0.9130
2622.979079 0.9130 0.9130 0.9130 0.9130 0.9125
2629.735853 0.9120 0.9120 0.9120 0.9120 0.9120
2636.492627 0.9120 0.9120 0.9120 0.9120 0.9120
2643.249400 0.9120 0.9120 0.9120 0.9120 0.9120
2650.006174 0.9110 0.9100 0.9100 0.9100 0.9100
2656.762947 0.9100 0.9100 0.9100 0.9100 0.9100
2663.519721 0.9100 0.9100 0.9090 0.9080 0.9080
2670.276495 0.9080 0.9080 0.9080 0.9080 0.9080
2677.033268 0.9080 0.9080 0.9080 0.9080 0.9080
2683.790042 0.9080 0.9080 0.9080 0.9070 0.9060
2690.546815 0.9055 0.9050 0.9050 0.9050 0.9050
2697.303589 0.9050 0.9050 0.9050 0.9055 0.9060
2704.060363 0.9055 0.9050 0.9050 0.9050 0.9040
2710.817136 0.9030 0.9030 0.9030 0.9030 0.9030
2717.573910 0.9030 0.9030 0.9020 0.9010 0.9010
2724.330683 0.9010 0.9010 0.9010 0.9020 0.9030
2731.087457 0.9030 0.9030 0.9030 0.9030 0.9030
2737.844230 0.9030 0.9030 0.9030 0.9020 0.9010
2744.601004 0.9010 0.9010 0.9010 0.9010 0.9010
2751.357778 0.9010 0.9010 0.9010 0.9010 0.9010
2758.114551 0.9010 0.9010 0.9010 0.9010 0.9005
2764.871325 0.9000 0.9000 0.9000 0.8990 0.8980
2771.628098 0.8980 0.8980 0.8970 0.8960 0.8960
2778.384872 0.8960 0.8945 0.8930 0.8920 0.8910
2785.141646 0.8895 0.8880 0.8880 0.8880 0.8870
2791.898419 0.8860 0.8860 0.8860 0.8850 0.8840
2798.655193 0.8835 0.8830 0.8820 0.8810 0.8800
2805.411966 0.8790 0.8785 0.8780 0.8780 0.8780
2812.168740 0.8770 0.8760 0.8750 0.8740 0.8735
2818.925514 0.8730 0.8720 0.8710 0.8700 0.8690
2825.682287 0.8685 0.8680 0.8660 0.8640 0.8601
2832.439061 0.8561 0.8540 0.8520 0.8515 0.8510
2839.195834 0.8485 0.8460 0.8440 0.8420 0.8410
2845.952608 0.8400 0.8370 0.8340 0.8315 0.8290
2852.709382 0.8270 0.8250 0.8225 0.8200 0.8161
2859.466155 0.8121 0.8086 0.8051 0.8035 0.8020
2866.222929 0.7965 0.7910 0.7905 0.7900 0.7890
2872.979702 0.7880 0.7855 0.7830 0.7820 0.7810
2879.736476 0.7795 0.7780 0.7745 0.7711 0.7676
2886.493250 0.7641 0.7576 0.7511 0.7460 0.7410
2893.250023 0.7350 0.7290 0.7135 0.6980 0.6820
2900.006797 0.6661 0.6645 0.6630 0.6645 0.6660
2906.763570 0.6734 0.6809 0.6854 0.6899 0.6959
2913.520344 0.7019 0.7079 0.7139 0.7180 0.7220
2920.277118 0.7230 0.7240 0.7245 0.7250 0.7245
2927.033891 0.7240 0.7220 0.7200 0.7185 0.7170
2933.790665 0.7145 0.7120 0.7076 0.7031 0.7025
2940.547438 0.7020 0.6971 0.6921 0.6910 0.6900
2947.304212 0.6855 0.6810 0.6785 0.6760 0.6735
2954.060986 0.6710 0.6685 0.6660 0.6625 0.6590
2960.817759 0.6575 0.6560 0.6550 0.6540 0.6540
2967.574533 0.6540 0.6550 0.6560 0.6620 0.6680
2974.331306 0.6730 0.6780 0.6820 0.6860 0.6920
2981.088080 0.6980 0.7030 0.7080 0.7199 0.7319
