##TITLE=ETHYLENE SULFIDE
##JCAMP-DX=4.24
$$ By DXEDIT 1.05 (RS McDonald)
##DATA TYPE=INFRARED SPECTRUM
##CLASS=COBLENTZ III
##ORIGIN=WYANDOTTE CHEMICALS CORP.
##OWNER=COBLENTZ SOC.
Collection (C) 2018 copyright by the U.S. Secretary of Commerce
on behalf of the United States of America. All rights reserved.
##DATE=1962/11/12
##NAMES=thiirane
THIIRANE
##CAS REGISTRY NO=420-12-2
##MOLFORM=C2 H4 S
##SOURCE REFERENCE=COBLENTZ NO. 05947
##$NIST SOURCE=COBLENTZ
##$NIST IMAGE=cob5947
##SPECTROMETER/DATA SYSTEM=BAIRD (GRATING)
##INSTRUMENT PARAMETERS=NaCl PRISM
##STATE=LIQUID (NEAT)
##PATH LENGTH=0.003 CM
##SAMPLING PROCEDURE=TRANSMISSION
##RESOLUTION=2
##DATA PROCESSING=DIGITIZED BY COBLENTZ SOCIETY (BATCH I) FROM HARD COPY
##XUNITS=1/CM
##YUNITS=TRANSMITTANCE
##XLABEL=Wavenumbers (cm-1)
##YLABEL=Transmittance
##XFACTOR=1
##YFACTOR=1
##DELTAX=1
##FIRSTX=4000
##LASTX=626
##FIRSTY=0.8978
##MAXX=4000
##MINX=626
##MAXY=0.9143
##MINY=0.0179
##NPOINTS=3375
##XYDATA=(X++(Y..Y))
4000.000000 0.8978 0.8978 0.8978 0.8978 0.8978
3995.000000 0.8978 0.8978 0.8977 0.8977 0.8975
3990.000000 0.8975 0.8975 0.8975 0.8974 0.8973
3985.000000 0.8971 0.8971 0.8970 0.8968 0.8968
3980.000000 0.8967 0.8966 0.8965 0.8964 0.8963
3975.000000 0.8962 0.8961 0.8960 0.8959 0.8958
3970.000000 0.8956 0.8955 0.8955 0.8955 0.8955
3965.000000 0.8955 0.8955 0.8955 0.8955 0.8956
3960.000000 0.8956 0.8956 0.8956 0.8956 0.8956
3955.000000 0.8957 0.8957 0.8957 0.8957 0.8957
3950.000000 0.8957 0.8957 0.8957 0.8957 0.8957
3945.000000 0.8957 0.8957 0.8958 0.8959 0.8960
3940.000000 0.8961 0.8962 0.8963 0.8965 0.8966
3935.000000 0.8967 0.8968 0.8968 0.8970 0.8971
3930.000000 0.8971 0.8973 0.8974 0.8975 0.8975
3925.000000 0.8977 0.8978 0.8978 0.8981 0.8982
3920.000000 0.8983 0.8984 0.8985 0.8986 0.8988
3915.000000 0.8989 0.8990 0.8992 0.8993 0.8994
3910.000000 0.8995 0.8996 0.8997 0.8999 0.9000
3905.000000 0.9001 0.9002 0.9004 0.9005 0.9006
3900.000000 0.9008 0.9009 0.9010 0.9012 0.9013
3895.000000 0.9014 0.9016 0.9017 0.9018 0.9018
3890.000000 0.9020 0.9021 0.9023 0.9024 0.9025
3885.000000 0.9027 0.9028 0.9028 0.9030 0.9032
3880.000000 0.9034 0.9036 0.9038 0.9040 0.9041
3875.000000 0.9043 0.9045 0.9047 0.9049 0.9051
3870.000000 0.9053 0.9055 0.9057 0.9059 0.9061
3865.000000 0.9063 0.9064 0.9066 0.9068 0.9070
3860.000000 0.9071 0.9074 0.9075 0.9078 0.9080
3855.000000 0.9082 0.9084 0.9086 0.9088 0.9090
3850.000000 0.9091 0.9093 0.9095 0.9097 0.9099
3845.000000 0.9101 0.9103 0.9104 0.9106 0.9108
3840.000000 0.9110 0.9112 0.9114 0.9116 0.9118
3835.000000 0.9120 0.9121 0.9124 0.9125 0.9128
3830.000000 0.9130 0.9132 0.9134 0.9136 0.9137
3825.000000 0.9139 0.9140 0.9142 0.9143 0.9143
3820.000000 0.9143 0.9143 0.9143 0.9143 0.9142
3815.000000 0.9142 0.9142 0.9142 0.9142 0.9142
3810.000000 0.9141 0.9140 0.9139 0.9139 0.9138
3805.000000 0.9137 0.9135 0.9133 0.9130 0.9128
3800.000000 0.9125 0.9121 0.9117 0.9112 0.9107
3795.000000 0.9102 0.9096 0.9091 0.9085 0.9078
3790.000000 0.9073 0.9067 0.9061 0.9054 0.9046
3785.000000 0.9038 0.9030 0.9021 0.9014 0.9007
3780.000000 0.9000 0.8992 0.8985 0.8978 0.8971
3775.000000 0.8967 0.8962 0.8957 0.8952 0.8948
3770.000000 0.8943 0.8938 0.8933 0.8928 0.8924
3765.000000 0.8918 0.8915 0.8910 0.8905 0.8901
3760.000000 0.8896 0.8893 0.8892 0.8891 0.8890
3755.000000 0.8890 0.8889 0.8889 0.8889 0.8889
3750.000000 0.8889 0.8889 0.8889 0.8889 0.8889
3745.000000 0.8889 0.8889 0.8889 0.8888 0.8887
3740.000000 0.8886 0.8885 0.8884 0.8883 0.8882
3735.000000 0.8880 0.8878 0.8878 0.8877 0.8875
3730.000000 0.8875 0.8874 0.8873 0.8871 0.8871
3725.000000 0.8867 0.8863 0.8858 0.8854 0.8850
3720.000000 0.8845 0.8840 0.8834 0.8828 0.8823
3715.000000 0.8817 0.8812 0.8806 0.8800 0.8795
3710.000000 0.8789 0.8783 0.8775 0.8766 0.8758
3705.000000 0.8750 0.8742 0.8734 0.8725 0.8718
3700.000000 0.8711 0.8703 0.8697 0.8693 0.8690
3695.000000 0.8687 0.8684 0.8680 0.8677 0.8674
3690.000000 0.8671 0.8668 0.8665 0.8662 0.8659
3685.000000 0.8657 0.8655 0.8652 0.8650 0.8648
3680.000000 0.8645 0.8643 0.8641 0.8639 0.8637
3675.000000 0.8636 0.8636 0.8635 0.8634 0.8633
3670.000000 0.8633 0.8632 0.8631 0.8630 0.8630
3665.000000 0.8628 0.8628 0.8628 0.8627 0.8627
3660.000000 0.8625 0.8625 0.8625 0.8625 0.8624
3655.000000 0.8624 0.8623 0.8621 0.8621 0.8621
3650.000000 0.8620 0.8618 0.8618 0.8618 0.8617
3645.000000 0.8617 0.8616 0.8616 0.8615 0.8615
3640.000000 0.8614 0.8613 0.8613 0.8613 0.8613
3635.000000 0.8613 0.8613 0.8612 0.8612 0.8612
3630.000000 0.8612 0.8612 0.8611 0.8611 0.8611
3625.000000 0.8611 0.8611 0.8610 0.8610 0.8610
3620.000000 0.8610 0.8610 0.8610 0.8610 0.8610
3615.000000 0.8610 0.8610 0.8610 0.8610 0.8611
3610.000000 0.8612 0.8613 0.8614 0.8615 0.8616
3605.000000 0.8617 0.8618 0.8618 0.8620 0.8621
3600.000000 0.8621 0.8621 0.8623 0.8624 0.8625
3595.000000 0.8625 0.8627 0.8627 0.8628 0.8630
3590.000000 0.8632 0.8634 0.8636 0.8638 0.8640
3585.000000 0.8642 0.8644 0.8647 0.8649 0.8651
3580.000000 0.8653 0.8655 0.8657 0.8660 0.8662
3575.000000 0.8664 0.8666 0.8668 0.8670 0.8674
3570.000000 0.8678 0.8683 0.8688 0.8692 0.8697
3565.000000 0.8703 0.8709 0.8715 0.8720 0.8725
3560.000000 0.8732 0.8737 0.8743 0.8749 0.8755
3555.000000 0.8761 0.8767 0.8774 0.8780 0.8786
3550.000000 0.8792 0.8799 0.8805 0.8811 0.8817
3545.000000 0.8823 0.8828 0.8834 0.8839 0.8845
3540.000000 0.8850 0.8855 0.8860 0.8866 0.8871
3535.000000 0.8873 0.8875 0.8878 0.8881 0.8884
3530.000000 0.8884 0.8885 0.8885 0.8886 0.8887
3525.000000 0.8887 0.8888 0.8888 0.8889 0.8890
3520.000000 0.8890 0.8890 0.8891 0.8891 0.8891
3515.000000 0.8891 0.8891 0.8890 0.8890 0.8889
3510.000000 0.8889 0.8889 0.8888 0.8888 0.8887
3505.000000 0.8887 0.8887 0.8886 0.8886 0.8885
3500.000000 0.8885 0.8885 0.8885 0.8885 0.8884
3495.000000 0.8884 0.8883 0.8883 0.8883 0.8882
3490.000000 0.8882 0.8881 0.8881 0.8881 0.8880
3485.000000 0.8878 0.8878 0.8878 0.8878 0.8877
3480.000000 0.8875 0.8875 0.8874 0.8873 0.8873
3475.000000 0.8871 0.8871 0.8871 0.8870 0.8868
3470.000000 0.8868 0.8868 0.8867 0.8866 0.8865
3465.000000 0.8864 0.8864 0.8863 0.8862 0.8861
3460.000000 0.8861 0.8860 0.8860 0.8859 0.8858
3455.000000 0.8858 0.8857 0.8856 0.8856 0.8856
3450.000000 0.8855 0.8855 0.8854 0.8854 0.8854
3445.000000 0.8853 0.8853 0.8852 0.8852 0.8851
3440.000000 0.8851 0.8851 0.8850 0.8850 0.8849
3435.000000 0.8849 0.8848 0.8848 0.8848 0.8848
3430.000000 0.8848 0.8848 0.8849 0.8850 0.8851
3425.000000 0.8852 0.8853 0.8854 0.8855 0.8856
3420.000000 0.8857 0.8859 0.8860 0.8861 0.8862
3415.000000 0.8863 0.8864 0.8865 0.8866 0.8867
3410.000000 0.8868 0.8868 0.8870 0.8871 0.8871
3405.000000 0.8873 0.8874 0.8875 0.8875 0.8877
3400.000000 0.8878 0.8878 0.8880 0.8881 0.8882
3395.000000 0.8883 0.8884 0.8885 0.8886 0.8886
3390.000000 0.8887 0.8888 0.8889 0.8890 0.8891
3385.000000 0.8892 0.8893 0.8894 0.8895 0.8896
3380.000000 0.8897 0.8898 0.8899 0.8899 0.8900
3375.000000 0.8900 0.8900 0.8901 0.8901 0.8901
3370.000000 0.8901 0.8902 0.8902 0.8902 0.8902
3365.000000 0.8902 0.8903 0.8903 0.8903 0.8903
3360.000000 0.8903 0.8903 0.8903 0.8903 0.8903
3355.000000 0.8904 0.8904 0.8904 0.8904 0.8905
3350.000000 0.8905 0.8905 0.8905 0.8905 0.8905
3345.000000 0.8905 0.8905 0.8905 0.8904 0.8904
3340.000000 0.8903 0.8903 0.8903 0.8902 0.8902
3335.000000 0.8901 0.8901 0.8900 0.8900 0.8899
3330.000000 0.8898 0.8898 0.8896 0.8894 0.8892
3325.000000 0.8890 0.8887 0.8884 0.8881 0.8878
3320.000000 0.8874 0.8871 0.8868 0.8865 0.8863
3315.000000 0.8860 0.8857 0.8854 0.8851 0.8848
3310.000000 0.8844 0.8841 0.8838 0.8835 0.8831
3305.000000 0.8825 0.8821 0.8818 0.8813 0.8809
3300.000000 0.8805 0.8800 0.8796 0.8791 0.8787
3295.000000 0.8783 0.8778 0.8774 0.8770 0.8765
3290.000000 0.8761 0.8757 0.8754 0.8750 0.8747
3285.000000 0.8744 0.8741 0.8738 0.8734 0.8731
3280.000000 0.8728 0.8725 0.8721 0.8718 0.8715
3275.000000 0.8711 0.8708 0.8705 0.8702 0.8698
3270.000000 0.8695 0.8692 0.8689 0.8686 0.8682
3265.000000 0.8678 0.8675 0.8674 0.8671 0.8668
3260.000000 0.8665 0.8662 0.8659 0.8657 0.8654
3255.000000 0.8651 0.8648 0.8645 0.8642 0.8639
3250.000000 0.8636 0.8633 0.8630 0.8627 0.8625
3245.000000 0.8621 0.8620 0.8618 0.8615 0.8613
3240.000000 0.8610 0.8608 0.8606 0.8603 0.8601
3235.000000 0.8599 0.8596 0.8594 0.8592 0.8590
3230.000000 0.8588 0.8585 0.8583 0.8580 0.8578
3225.000000 0.8575 0.8573 0.8571 0.8568 0.8566
3220.000000 0.8564 0.8561 0.8559 0.8556 0.8554
3215.000000 0.8552 0.8550 0.8547 0.8544 0.8541
3210.000000 0.8538 0.8535 0.8531 0.8527 0.8524
3205.000000 0.8520 0.8516 0.8512 0.8508 0.8504
3200.000000 0.8501 0.8497 0.8493 0.8490 0.8486
3195.000000 0.8482 0.8478 0.8475 0.8471 0.8468
3190.000000 0.8464 0.8460 0.8457 0.8453 0.8449
3185.000000 0.8446 0.8440 0.8435 0.8428 0.8423
3180.000000 0.8417 0.8411 0.8404 0.8398 0.8392
3175.000000 0.8385 0.8378 0.8371 0.8366 0.8359
3170.000000 0.8353 0.8346 0.8340 0.8333 0.8327
3165.000000 0.8320 0.8313 0.8305 0.8296 0.8288
3160.000000 0.8280 0.8271 0.8263 0.8254 0.8246
3155.000000 0.8237 0.8228 0.8220 0.8212 0.8203
3150.000000 0.8195 0.8187 0.8178 0.8168 0.8158
3145.000000 0.8150 0.8138 0.8125 0.8114 0.8101
3140.000000 0.8089 0.8075 0.8062 0.8051 0.8038
3135.000000 0.8025 0.8011 0.8000 0.7987 0.7975
3130.000000 0.7961 0.7950 0.7938 0.7926 0.7915
3125.000000 0.7904 0.7892 0.7880 0.7868 0.7856
3120.000000 0.7845 0.7833 0.7821 0.7810 0.7799
3115.000000 0.7787 0.7775 0.7762 0.7751 0.7738
3110.000000 0.7725 0.7712 0.7700 0.7687 0.7675
3105.000000 0.7661 0.7650 0.7637 0.7625 0.7610
3100.000000 0.7593 0.7576 0.7561 0.7539 0.7515
3095.000000 0.7492 0.7468 0.7446 0.7422 0.7399
3090.000000 0.7376 0.7356 0.7335 0.7315 0.7294
3085.000000 0.7274 0.7254 0.7234 0.7214 0.7194
3080.000000 0.7174 0.7154 0.7136 0.7117 0.7099
3075.000000 0.7081 0.7060 0.7040 0.7018 0.6994
3070.000000 0.6955 0.6915 0.6876 0.6828 0.6769
3065.000000 0.6711 0.6653 0.6633 0.6628 0.6624
3060.000000 0.6619 0.6618 0.6618 0.6617 0.6615
3055.000000 0.6615 0.6615 0.6614 0.6612 0.6611
3050.000000 0.6611 0.6610 0.6608 0.6606 0.6604
3045.000000 0.6601 0.6598 0.6595 0.6592 0.6587
3040.000000 0.6576 0.6567 0.6558 0.6525 0.6484
3035.000000 0.6442 0.6400 0.6293 0.6184 0.6075
3030.000000 0.5966 0.5857 0.5748 0.5639 0.5530
3025.000000 0.5420 0.5310 0.5201 0.5092 0.4982
3020.000000 0.4873 0.4762 0.4653 0.4543 0.4433
3015.000000 0.4323 0.4212 0.4103 0.3993 0.3882
3010.000000 0.3772 0.3662 0.3552 0.3441 0.3330
3005.000000 0.3218 0.3108 0.2997 0.2885 0.2775
3000.000000 0.2664 0.2553 0.2442 0.2350 0.2271
2995.000000 0.2135 0.2115 0.2115 0.2116 0.2116
2990.000000 0.2131 0.2164 0.2197 0.2230 0.2470
2985.000000 0.2745 0.3019 0.3294 0.3570 0.3845
2980.000000 0.4120 0.4396 0.4672 0.4947 0.5223
2975.000000 0.5500 0.5776 0.6053 0.6322 0.6587
2970.000000 0.6851 0.7088 0.7115 0.7144 0.7171
2965.000000 0.7199 0.7226 0.7254 0.7281 0.7297
2960.000000 0.7312 0.7328 0.7344 0.7358 0.7372
2955.000000 0.7388 0.7401 0.7417 0.7432 0.7446
2950.000000 0.7458 0.7472 0.7486 0.7500 0.7512
2945.000000 0.7526 0.7540 0.7554 0.7567 0.7581
2940.000000 0.7592 0.7604 0.7615 0.7626 0.7636
2935.000000 0.7646 0.7656 0.7665 0.7675 0.7686
2930.000000 0.7694 0.7701 0.7708 0.7717 0.7725
2925.000000 0.7732 0.7740 0.7748 0.7756 0.7762
2920.000000 0.7771 0.7778 0.7785 0.7792 0.7796
2915.000000 0.7800 0.7804 0.7808 0.7811 0.7815
2910.000000 0.7819 0.7822 0.7825 0.7828 0.7832
2905.000000 0.7834 0.7884 0.7838 0.7840 0.7842
2900.000000 0.7844 0.7846 0.7848 0.7849 0.7849
2895.000000 0.7848 0.7847 0.7846 0.7844 0.7843
2890.000000 0.7841 0.7840 0.7839 0.7838 0.7836
2885.000000 0.7835 0.7834 0.7833 0.7831 0.7830
2880.000000 0.7828 0.7825 0.7821 0.7818 0.7814
2875.000000 0.7810 0.7805 0.7801 0.7797 0.7793
2870.000000 0.7788 0.7785 0.7781 0.7776 0.7774
2865.000000 0.7771 0.7768 0.7765 0.7761 0.7758
2860.000000 0.7756 0.7754 0.7751 0.7748 0.7747
2855.000000 0.7746 0.7745 0.7743 0.7742 0.7740
2850.000000 0.7739 0.7737 0.7736 0.7735 0.7734
2845.000000 0.7733 0.7731 0.7731 0.7731 0.7731
2840.000000 0.7737 0.7745 0.7751 0.7767 0.7784
2835.000000 0.7801 0.7819 0.7838 0.7696 0.7872
2830.000000 0.7891 0.7908 0.7925 0.7944 0.7961
2825.000000 0.7980 0.7998 0.8015 0.8034 0.8051
2820.000000 0.8068 0.8087 0.8105 0.8122 0.8141
2815.000000 0.8158 0.8176 0.8195 0.8213 0.8231
2810.000000 0.8249 0.8267 0.8285 0.8303 0.8321
2805.000000 0.8340 0.8358 0.8375 0.8394 0.8412
2800.000000 0.8430 0.8449 0.8467 0.8485 0.8503
2795.000000 0.8521 0.8540 0.8555 0.8562 0.8568
2790.000000 0.8575 0.8578 0.8580 0.8583 0.8585
2785.000000 0.8587 0.8589 0.8592 0.8594 0.8596
2780.000000 0.8598 0.8601 0.8603 0.8605 0.8607
2775.000000 0.8609 0.8610 0.8611 0.8612 0.8613
2770.000000 0.8614 0.8615 0.8616 0.8617 0.8618
2765.000000 0.8618 0.8620 0.8621 0.8621 0.8623
2760.000000 0.8624 0.8625 0.8625 0.8627 0.8628
2755.000000 0.8628 0.8630 0.8631 0.8632 0.8633
2750.000000 0.8634 0.8635 0.8636 0.8637 0.8638
2745.000000 0.8639 0.8640 0.8641 0.8642 0.8643
2740.000000 0.8644 0.8645 0.8646 0.8647 0.8648
2735.000000 0.8649 0.8649 0.8650 0.8651 0.8651
2730.000000 0.8652 0.8653 0.8654 0.8655 0.8656
2725.000000 0.8656 0.8657 0.8658 0.8658 0.8659
2720.000000 0.8660 0.8661 0.8662 0.8663 0.8663
2715.000000 0.8664 0.8665 0.8665 0.8666 0.8667
2710.000000 0.8668 0.8668 0.8670 0.8671 0.8671
2705.000000 0.8671 0.8673 0.8673 0.8674 0.8675
2700.000000 0.8675 0.8677 0.8678 0.8678 0.8678
2695.000000 0.8680 0.8680 0.8681 0.8683 0.8684
2690.000000 0.8684 0.8684 0.8685 0.8685 0.8686
2685.000000 0.8687 0.8687 0.8688 0.8689 0.8689
2680.000000 0.8689 0.8690 0.8691 0.8691 0.8692
2675.000000 0.8693 0.8693 0.8694 0.8695 0.8695
2670.000000 0.8696 0.8696 0.8697 0.8697 0.8698
2665.000000 0.8699 0.8699 0.8700 0.8701 0.8701
2660.000000 0.8701 0.8702 0.8703 0.8703 0.8704
2655.000000 0.8705 0.8705 0.8706 0.8707 0.8708
2650.000000 0.8708 0.8708 0.8708 0.8708 0.8708
2645.000000 0.8709 0.8709 0.8709 0.8710 0.8710
2640.000000 0.8710 0.8711 0.8711 0.8711 0.8711
2635.000000 0.8711 0.8712 0.8712 0.8712 0.8712
2630.000000 0.8710 0.8709 0.8707 0.8706 0.8704
2625.000000 0.8703 0.8702 0.8700 0.8699 0.8697
2620.000000 0.8696 0.8694 0.8693 0.8691 0.8690
2615.000000 0.8688 0.8687 0.8685 0.8684 0.8682
2610.000000 0.8680 0.8677 0.8673 0.8668 0.8665
2605.000000 0.8661 0.8657 0.8652 0.8648 0.8644
2600.000000 0.8640 0.8636 0.8631 0.8627 0.8623
2595.000000 0.8620 0.8617 0.8614 0.8612 0.8610
2590.000000 0.8608 0.8606 0.8605 0.8603 0.8601
2585.000000 0.8599 0.8597 0.8595 0.8593 0.8591
2580.000000 0.8589 0.8587 0.8585 0.8585 0.8588
2575.000000 0.8591 0.8596 0.8600 0.8605 0.8609
2570.000000 0.8614 0.8618 0.8621 0.8624 0.8624
2565.000000 0.8623 0.8621 0.8621 0.8621 0.8620
2560.000000 0.8618 0.8618 0.8617 0.8616 0.8615
2555.000000 0.8615 0.8614 0.8613 0.8612 0.8611
2550.000000 0.8611 0.8610 0.8609 0.8608 0.8608
2545.000000 0.8607 0.8606 0.8605 0.8604 0.8603
2540.000000 0.8602 0.8601 0.8600 0.8600 0.8599
2535.000000 0.8598 0.8597 0.8596 0.8596 0.8597
2530.000000 0.8598 0.8599 0.8600 0.8601 0.8602
2525.000000 0.8603 0.8604 0.8605 0.8606 0.8608
2520.000000 0.8609 0.8610 0.8611 0.8612 0.8613
2515.000000 0.8615 0.8616 0.8617 0.8618 0.8618
2510.000000 0.8620 0.8620 0.8620 0.8621 0.8621
2505.000000 0.8621 0.8621 0.8621 0.8620 0.8620
2500.000000 0.8620 0.8620 0.8620 0.8620 0.8620
2495.000000 0.8618 0.8618 0.8618 0.8618 0.8618
2490.000000 0.8618 0.8618 0.8617 0.8615 0.8613
2485.000000 0.8611 0.8609 0.8606 0.8604 0.8602
2480.000000 0.8599 0.8597 0.8594 0.8592 0.8589
2475.000000 0.8587 0.8585 0.8583 0.8581 0.8578
2470.000000 0.8575 0.8573 0.8571 0.8568 0.8566
2465.000000 0.8564 0.8561 0.8559 0.8558 0.8557
2460.000000 0.8556 0.8556 0.8556 0.8556 0.8556
2455.000000 0.8555 0.8555 0.8554 0.8554 0.8554
2450.000000 0.8553 0.8553 0.8553 0.8553 0.8552
2445.000000 0.8552 0.8552 0.8551 0.8551 0.8551
2440.000000 0.8552 0.8554 0.8555 0.8557 0.8559
2435.000000 0.8561 0.8563 0.8565 0.8566 0.8568
2430.000000 0.8571 0.8573 0.8575 0.8577 0.8578
2425.000000 0.8580 0.8582 0.8584 0.8586 0.8588
2420.000000 0.8590 0.8592 0.8594 0.8596 0.8598
2415.000000 0.8599 0.8599 0.8600 0.8600 0.8601
2410.000000 0.8602 0.8602 0.8603 0.8604 0.8605
2405.000000 0.8605 0.8605 0.8606 0.8606 0.8605
2400.000000 0.8604 0.8603 0.8602 0.8602 0.8600
2395.000000 0.8599 0.8598 0.8597 0.8596 0.8595
2390.000000 0.8594 0.8593 0.8592 0.8591 0.8590
2385.000000 0.8589 0.8588 0.8587 0.8586 0.8585
2380.000000 0.8581 0.8577 0.8573 0.8568 0.8565
2375.000000 0.8561 0.8557 0.8553 0.8549 0.8545
2370.000000 0.8541 0.8537 0.8533 0.8528 0.8524
2365.000000 0.8518 0.8514 0.8509 0.8503 0.8498
2360.000000 0.8493 0.8488 0.8483 0.8478 0.8474
2355.000000 0.8471 0.8470 0.8478 0.8485 0.8496
2350.000000 0.8507 0.8520 0.8534 0.8547 0.8560
2345.000000 0.8573 0.8587 0.8600 0.8613 0.8625
2340.000000 0.8639 0.8652 0.8659 0.8664 0.8668
2335.000000 0.8673 0.8678 0.8682 0.8687 0.8692
2330.000000 0.8697 0.8696 0.8694 0.8692 0.8690
2325.000000 0.8689 0.8687 0.8686 0.8684 0.8682
2320.000000 0.8680 0.8678 0.8674 0.8670 0.8665
2315.000000 0.8659 0.8654 0.8648 0.8643 0.8637
2310.000000 0.8631 0.8625 0.8620 0.8615 0.8609
2305.000000 0.8603 0.8598 0.8591 0.8585 0.8580
2300.000000 0.8574 0.8568 0.8562 0.8556 0.8549
2295.000000 0.8544 0.8538 0.8532 0.8525 0.8521
2290.000000 0.8516 0.8511 0.8506 0.8501 0.8496
2285.000000 0.8491 0.8486 0.8481 0.8477 0.8473
2280.000000 0.8471 0.8468 0.8464 0.8461 0.8458
2275.000000 0.8458 0.8458 0.8465 0.8471 0.8477
2270.000000 0.8484 0.8490 0.8496 0.8502 0.8508
2265.000000 0.8514 0.8521 0.8527 0.8533 0.8540
2260.000000 0.8547 0.8557 0.8565 0.8571 0.8575
2255.000000 0.8575 0.8575 0.8575 0.8574 0.8573
2250.000000 0.8570 0.8564 0.8557 0.8551 0.8544
2245.000000 0.8538 0.8531 0.8525 0.8518 0.8511
2240.000000 0.8503 0.8495 0.8487 0.8478 0.8471
2235.000000 0.8463 0.8454 0.8446 0.8438 0.8431
2230.000000 0.8424 0.8417 0.8411 0.8407 0.8407
2225.000000 0.8407 0.8410 0.8413 0.8416 0.8418
2220.000000 0.8421 0.8425 0.8428 0.8431 0.8433
2215.000000 0.8437 0.8440 0.8443 0.8446 0.8450
2210.000000 0.8455 0.8460 0.8465 0.8468 0.8474
2205.000000 0.8478 0.8485 0.8490 0.8495 0.8500
2200.000000 0.8505 0.8510 0.8515 0.8520 0.8525
2195.000000 0.8530 0.8532 0.8534 0.8536 0.8538
2190.000000 0.8539 0.8541 0.8542 0.8544 0.8546
2185.000000 0.8548 0.8550 0.8551 0.8553 0.8555
2180.000000 0.8557 0.8558 0.8560 0.8562 0.8563
2175.000000 0.8565 0.8567 0.8568 0.8570 0.8571
2170.000000 0.8573 0.8574 0.8575 0.8577 0.8578
2165.000000 0.8578 0.8580 0.8582 0.8583 0.8584
2160.000000 0.8586 0.8587 0.8588 0.8590 0.8591
2155.000000 0.8593 0.8594 0.8595 0.8597 0.8598
2150.000000 0.8599 0.8600 0.8602 0.8603 0.8604
2145.000000 0.8605 0.8605 0.8605 0.8604 0.8604
2140.000000 0.8603 0.8603 0.8603 0.8603 0.8602
2135.000000 0.8602 0.8601 0.8600 0.8600 0.8600
2130.000000 0.8600 0.8598 0.8594 0.8589 0.8584
2125.000000 0.8578 0.8574 0.8568 0.8564 0.8559
2120.000000 0.8554 0.8549 0.8544 0.8538 0.8532
2115.000000 0.8525 0.8513 0.8501 0.8490 0.8477
2110.000000 0.8465 0.8453 0.8441 0.8430 0.8418
2105.000000 0.8406 0.8393 0.8377 0.8360 0.8341
2100.000000 0.8323 0.8304 0.8285 0.8267 0.8248
2095.000000 0.8228 0.8208 0.8188 0.8168 0.8148
2090.000000 0.8128 0.8108 0.8089 0.8068 0.8049
2085.000000 0.8028 0.8008 0.7988 0.7967 0.7946
2080.000000 0.7925 0.7906 0.7887 0.7868 0.7851
2075.000000 0.7833 0.7818 0.7807 0.7799 0.7792
2070.000000 0.7784 0.7776 0.7769 0.7762 0.7756
2065.000000 0.7749 0.7743 0.7736 0.7728 0.7721
2060.000000 0.7701 0.7668 0.7611 0.7560 0.7514
2055.000000 0.7472 0.7433 0.7397 0.7361 0.7328
2050.000000 0.7300 0.7275 0.7215 0.7267 0.7267
2045.000000 0.7268 0.7271 0.7283 0.7295 0.7308
2040.000000 0.7321 0.7335 0.7348 0.7361 0.7375
2035.000000 0.7396 0.7415 0.7436 0.7456 0.7475
2030.000000 0.7496 0.7517 0.7537 0.7557 0.7576
2025.000000 0.7598 0.7619 0.7644 0.7671 0.7700
2020.000000 0.7728 0.7758 0.7788 0.7818 0.7847
2015.000000 0.7876 0.7906 0.7934 0.7962 0.7991
2010.000000 0.8018 0.8048 0.8075 0.8105 0.8131
2005.000000 0.8153 0.8172 0.8192 0.8212 0.8228
2000.000000 0.8242 0.8251 0.8260 0.8268 0.8278
1995.000000 0.8287 0.8295 0.8366 0.8305 0.8310
1990.000000 0.8315 0.8320 0.8325 0.8330 0.8335
1985.000000 0.8340 0.8345 0.8347 0.8347 0.8346
