##TITLE=2,2-DICHLOROBUTANE
##JCAMP-DX=4.24
##DATA TYPE=INFRARED SPECTRUM
##CLASS=COBLENTZ
##ORIGIN=W.T. BOLLETER
##OWNER=COBLENTZ SOCIETY
Collection (C) 2018 copyright by the U.S. Secretary of Commerce
on behalf of the United States of America. All rights reserved.
##DATE=Not specified, most likely prior to 1970
##CAS REGISTRY NO=4279-22-5
##MOLFORM=C4 H8 Cl2
##SOURCE REFERENCE=COBLENTZ NO. 4501
##$NIST SOURCE=COBLENTZ
##$NIST IMAGE=cob4501
##SPECTROMETER/DATA SYSTEM=Not specified, most likely a prism, grating, or hybrid spectrometer.
##PATH LENGTH=0.0025 CM
##SAMPLING PROCEDURE=TRANSMISSION
##RESOLUTION=4
##DATA PROCESSING=DIGITIZED BY NIST FROM HARD COPY
##XUNITS=MICROMETERS
##YUNITS=TRANSMITTANCE
##XFACTOR=1.000000
##YFACTOR=1
##DELTAX=000.017628
##FIRSTX=14.519
##LASTX=38.0355
##FIRSTY=0.016
##MAXX=38.0355
##MINX=14.519
##MAXY=0.978
##MINY=0.016
##NPOINTS=1335
##XYDATA=(X++(Y..Y))
14.519000 0.0160 0.0160 0.0160 0.0160 0.0160
14.607207 0.0160 0.0160 0.0160 0.0160 0.0160
14.696000 0.0160 0.0160 0.0170 0.0170 0.0170
14.784207 0.0190 0.0190 0.0210 0.0210 0.0230
14.872000 0.0250 0.0260 0.0260 0.0280 0.0280
14.960207 0.0320 0.0350 0.0370 0.0410 0.0420
15.048000 0.0420 0.0440 0.0440 0.0440 0.0410
15.136207 0.0410 0.0390 0.0370 0.0350 0.0320
15.224000 0.0300 0.0260 0.0250 0.0230 0.0170
15.312207 0.0170 0.0170 0.0160 0.0160 0.0160
15.401000 0.0160 0.0160 0.0160 0.0160 0.0160
15.489207 0.0160 0.0160 0.0160 0.0160 0.0160
15.577000 0.0160 0.0160 0.0160 0.0160 0.0160
15.665207 0.0160 0.0160 0.0170 0.0170 0.0170
15.753000 0.0170 0.0170 0.0190 0.0190 0.0210
15.841207 0.0230 0.0230 0.0250 0.0280 0.0320
15.929000 0.0370 0.0410 0.0460 0.0510 0.0570
16.017207 0.0710 0.0910 0.1090 0.1180 0.1300
16.106000 0.1530 0.1690 0.1840 0.1980 0.2140
16.194207 0.2300 0.2480 0.2660 0.2790 0.2890
16.282000 0.3020 0.3250 0.3470 0.3520 0.3730
16.370207 0.3790 0.3890 0.3980 0.4130 0.4220
16.458000 0.4310 0.4380 0.4430 0.4540 0.4660
16.546207 0.4700 0.4740 0.4770 0.4790 0.4810
16.635000 0.4810 0.4830 0.4840 0.4840 0.4860
16.723207 0.4880 0.4900 0.4900 0.4910 0.4910
16.811000 0.4930 0.4930 0.4910 0.4910 0.4900
16.899207 0.4900 0.4860 0.4840 0.4810 0.4740
16.987000 0.4650 0.4560 0.4450 0.4340 0.4180
17.075207 0.4020 0.3860 0.3720 0.3500 0.3360
17.163000 0.3180 0.2980 0.2700 0.2520 0.2300
17.251207 0.2030 0.1840 0.1660 0.1480 0.1320
17.340000 0.1100 0.0980 0.0910 0.0760 0.0600
17.428207 0.0510 0.0480 0.0460 0.0420 0.0330
17.516000 0.0320 0.0320 0.0300 0.0280 0.0280
17.604207 0.0280 0.0260 0.0260 0.0260 0.0250
17.692000 0.0250 0.0250 0.0260 0.0260 0.0260
17.780207 0.0260 0.0280 0.0320 0.0390 0.0460
17.869000 0.0480 0.0480 0.0510 0.0590 0.0600
17.957207 0.0640 0.0710 0.0780 0.0850 0.0980
18.045000 0.1000 0.0980 0.0960 0.0940 0.0890
18.133207 0.0800 0.0730 0.0640 0.0600 0.0550
18.221000 0.0500 0.0440 0.0420 0.0410 0.0390
18.309207 0.0370 0.0350 0.0330 0.0320 0.0300
18.397000 0.0300 0.0280 0.0280 0.0300 0.0300
18.485207 0.0330 0.0370 0.0420 0.0460 0.0480
18.574000 0.0500 0.0570 0.0660 0.0760 0.1010
18.662207 0.1120 0.1210 0.1340 0.1530 0.1710
18.750000 0.1980 0.2140 0.2300 0.2500 0.2710
18.838207 0.2980 0.3160 0.3340 0.3540 0.3750
18.926000 0.3980 0.4060 0.4270 0.4430 0.4520
19.014207 0.4720 0.5020 0.5090 0.5200 0.5340
19.103000 0.5490 0.5540 0.5740 0.5860 0.5990
19.191207 0.6060 0.6180 0.6330 0.6470 0.6580
19.279000 0.6670 0.6700 0.6790 0.6900 0.7010
19.367207 0.7010 0.7100 0.7220 0.7280 0.7330
19.455000 0.7370 0.7400 0.7490 0.7540 0.7580
19.543207 0.7620 0.7650 0.7690 0.7740 0.7780
19.631000 0.7810 0.7830 0.7850 0.7870 0.7880
19.719207 0.7900 0.7900 0.7880 0.7880 0.7870
19.808000 0.7850 0.7830 0.7810 0.7790 0.7780
19.896207 0.7760 0.7740 0.7690 0.7670 0.7630
19.984000 0.7540 0.7470 0.7420 0.7280 0.7190
20.072207 0.7060 0.7030 0.6970 0.6790 0.6700
20.160000 0.6600 0.6510 0.6470 0.6350 0.6260
20.248207 0.6180 0.6080 0.5990 0.5920 0.5860
20.337000 0.5830 0.5810 0.5790 0.5790 0.5810
20.425207 0.5920 0.6010 0.6110 0.6200 0.6350
20.513000 0.6510 0.6650 0.6770 0.6950 0.7010
20.601207 0.7200 0.7350 0.7490 0.7560 0.7670
20.689000 0.7830 0.7880 0.7970 0.8010 0.8100
20.777207 0.8150 0.8220 0.8310 0.8350 0.8380
20.865000 0.8420 0.8490 0.8490 0.8530 0.8550
20.953207 0.8580 0.8620 0.8670 0.8710 0.8740
21.042000 0.8780 0.8800 0.8810 0.8830 0.8850
21.130207 0.8870 0.8890 0.8900 0.8920 0.8960
21.218000 0.8960 0.9010 0.9010 0.9030 0.9030
21.306207 0.9060 0.9060 0.9080 0.9080 0.9100
21.394000 0.9120 0.9140 0.9150 0.9150 0.9170
21.482207 0.9190 0.9210 0.9230 0.9240 0.9260
21.571000 0.9260 0.9280 0.9280 0.9280 0.9280
21.659207 0.9280 0.9280 0.9280 0.9280 0.9280
21.747000 0.9280 0.9260 0.9260 0.9260 0.9260
21.835207 0.9260 0.9260 0.9260 0.9240 0.9240
21.923000 0.9230 0.9230 0.9230 0.9230 0.9210
22.011207 0.9190 0.9170 0.9150 0.9140 0.9120
22.099000 0.9100 0.9100 0.9080 0.9080 0.9080
22.187207 0.9080 0.9080 0.9080 0.9080 0.9100
22.276000 0.9100 0.9100 0.9100 0.9100 0.9100
22.364207 0.9100 0.9100 0.9120 0.9120 0.9100
22.452000 0.9100 0.9100 0.9120 0.9120 0.9120
22.540207 0.9100 0.9100 0.9100 0.9080 0.9080
22.628000 0.9080 0.9080 0.9060 0.9060 0.9060
22.716207 0.9050 0.9050 0.9030 0.9030 0.9030
22.804000 0.9010 0.9010 0.8990 0.8990 0.8990
22.892207 0.8980 0.8960 0.8960 0.8940 0.8920
22.981000 0.8920 0.8900 0.8890 0.8890 0.8870
23.069207 0.8850 0.8830 0.8810 0.8800 0.8760
23.157000 0.8720 0.8690 0.8670 0.8650 0.8640
23.245207 0.8560 0.8530 0.8530 0.8510 0.8490
23.333000 0.8400 0.8370 0.8330 0.8280 0.8220
23.421207 0.8170 0.8130 0.8120 0.8080 0.8050
23.510000 0.7880 0.7720 0.7650 0.7560 0.7510
23.598207 0.7440 0.7310 0.7170 0.7010 0.6850
23.686000 0.6700 0.6520 0.6450 0.6260 0.6060
23.774207 0.5840 0.5650 0.5490 0.5180 0.4990
23.862000 0.4700 0.4450 0.4200 0.3950 0.3720
23.950207 0.3520 0.3300 0.3070 0.2770 0.2500
24.038000 0.2250 0.2020 0.1820 0.1610 0.1430
24.126207 0.1300 0.1030 0.1000 0.0980 0.0930
24.215000 0.0870 0.0760 0.0730 0.0690 0.0690
24.303207 0.0670 0.0670 0.0660 0.0670 0.0710
24.391000 0.0750 0.0870 0.0980 0.1050 0.1180
24.479207 0.1300 0.1500 0.1660 0.1930 0.2020
24.567000 0.2210 0.2450 0.2620 0.2840 0.3000
24.655207 0.3200 0.3470 0.3660 0.3840 0.4060
24.744000 0.4250 0.4450 0.4520 0.4610 0.4750
24.832207 0.5240 0.5500 0.5670 0.5740 0.5830
24.920000 0.5950 0.6010 0.6100 0.6200 0.6310
25.008207 0.6440 0.6560 0.6690 0.6790 0.6860
25.096000 0.6970 0.6990 0.7040 0.7150 0.7240
25.184207 0.7290 0.7350 0.7400 0.7490 0.7530
25.272000 0.7540 0.7600 0.7630 0.7710 0.7740
25.360207 0.7780 0.7790 0.7870 0.7920 0.7940
25.449000 0.7960 0.7970 0.7990 0.8030 0.8060
25.537207 0.8080 0.8100 0.8120 0.8150 0.8170
25.625000 0.8190 0.8210 0.8220 0.8220 0.8240
25.713207 0.8260 0.8280 0.8310 0.8310 0.8310
25.801000 0.8300 0.8300 0.8280 0.8280 0.8260
25.889207 0.8260 0.8240 0.8220 0.8190 0.8190
25.978000 0.8170 0.8130 0.8100 0.8050 0.7990
26.066207 0.7940 0.7920 0.7880 0.7880 0.7870
26.154000 0.7850 0.7830 0.7810 0.7790 0.7740
26.242207 0.7690 0.7600 0.7540 0.7530 0.7490
26.330000 0.7380 0.7310 0.7200 0.7130 0.7040
26.418207 0.6970 0.6830 0.6720 0.6670 0.6600
26.506000 0.6520 0.6380 0.6330 0.6270 0.6150
26.594207 0.5970 0.5760 0.5630 0.5490 0.5270
26.683000 0.5160 0.5040 0.4970 0.4740 0.4500
26.771207 0.4380 0.4270 0.4060 0.3950 0.3770
26.859000 0.3630 0.3500 0.3300 0.3160 0.3020
26.947207 0.2910 0.2800 0.2700 0.2590 0.2500
27.035000 0.2370 0.2340 0.2300 0.2210 0.2140
27.123207 0.2000 0.1890 0.1860 0.1820 0.1770
27.212000 0.1690 0.1680 0.1660 0.1620 0.1620
27.300207 0.1610 0.1590 0.1590 0.1570 0.1570
27.388000 0.1550 0.1530 0.1520 0.1500 0.1480
27.476207 0.1440 0.1430 0.1350 0.1280 0.1210
27.564000 0.1120 0.1090 0.1070 0.1010 0.1000
27.652207 0.0980 0.0930 0.0850 0.0780 0.0730
27.740000 0.0690 0.0660 0.0620 0.0550 0.0530
27.828207 0.0510 0.0500 0.0480 0.0460 0.0460
27.917000 0.0440 0.0440 0.0440 0.0440 0.0440
28.005207 0.0440 0.0460 0.0460 0.0480 0.0500
28.093000 0.0510 0.0530 0.0570 0.0600 0.0660
28.181207 0.0710 0.0780 0.0910 0.1010 0.1090
28.269000 0.1190 0.1280 0.1350 0.1500 0.1640
28.357207 0.1870 0.2030 0.2230 0.2340 0.2500
28.446000 0.2710 0.2880 0.3050 0.3200 0.3380
28.534207 0.3550 0.3750 0.3980 0.4130 0.4310
28.622000 0.4490 0.4680 0.4840 0.5000 0.5130
28.710207 0.5250 0.5330 0.5490 0.5670 0.5740
28.798000 0.5810 0.5950 0.6110 0.6200 0.6290
28.886207 0.6380 0.6520 0.6690 0.6770 0.6810
28.974000 0.6860 0.6950 0.7110 0.7370 0.7400
29.062207 0.7440 0.7510 0.7600 0.7630 0.7760
29.151000 0.7810 0.7880 0.7990 0.8010 0.8030
29.239207 0.8120 0.8170 0.8240 0.8300 0.8330
29.327000 0.8370 0.8440 0.8510 0.8550 0.8620
29.415207 0.8640 0.8710 0.8710 0.8720 0.8740
29.503000 0.8800 0.8830 0.8870 0.8900 0.8940
29.591207 0.8960 0.9010 0.9030 0.9030 0.9050
29.679000 0.9060 0.9100 0.9140 0.9150 0.9190
29.767207 0.9230 0.9230 0.9240 0.9240 0.9260
29.856000 0.9260 0.9280 0.9280 0.9280 0.9300
29.944207 0.9300 0.9300 0.9300 0.9320 0.9350
30.032000 0.9370 0.9370 0.9390 0.9390 0.9390
30.120207 0.9390 0.9390 0.9390 0.9390 0.9400
30.208000 0.9400 0.9400 0.9400 0.9400 0.9400
30.296207 0.9400 0.9400 0.9400 0.9400 0.9400
30.385000 0.9400 0.9400 0.9390 0.9390 0.9390
30.473207 0.9390 0.9370 0.9350 0.9330 0.9300
30.561000 0.9280 0.9260 0.9230 0.9190 0.9150
30.649207 0.9140 0.9120 0.9100 0.9080 0.9060
30.737000 0.9050 0.9030 0.9010 0.8990 0.8980
30.825207 0.8960 0.8940 0.8920 0.8920 0.8900
30.913000 0.8890 0.8870 0.8850 0.8850 0.8830
31.001207 0.8830 0.8830 0.8830 0.8830 0.8850
31.090000 0.8850 0.8870 0.8890 0.8900 0.8920
31.178207 0.8940 0.8960 0.8980 0.8990 0.9010
31.266000 0.9030 0.9050 0.9060 0.9080 0.9140
31.354207 0.9170 0.9210 0.9210 0.9230 0.9240
31.442000 0.9280 0.9320 0.9330 0.9350 0.9370
31.530207 0.9400 0.9440 0.9460 0.9480 0.9490
31.619000 0.9510 0.9530 0.9550 0.9550 0.9580
31.707207 0.9600 0.9640 0.9660 0.9670 0.9670
31.795000 0.9690 0.9710 0.9710 0.9730 0.9730
31.883207 0.9730 0.9730 0.9730 0.9730 0.9730
31.971000 0.9730 0.9730 0.9730 0.9730 0.9730
32.059207 0.9730 0.9740 0.9740 0.9760 0.9760
32.147000 0.9780 0.9780 0.9780 0.9780 0.9780
32.235207 0.9780 0.9780 0.9760 0.9760 0.9760
32.324000 0.9760 0.9780 0.9780 0.9760 0.9760
32.412207 0.9760 0.9740 0.9740 0.9740 0.9740
32.500000 0.9740 0.9730 0.9730 0.9730 0.9740
32.588207 0.9740 0.9740 0.9730 0.9730 0.9730
32.676000 0.9730 0.9730 0.9730 0.9730 0.9740
32.764207 0.9740 0.9740 0.9740 0.9740 0.9760
32.853000 0.9760 0.9780 0.9780 0.9760 0.9760
32.941207 0.9760 0.9760 0.9760 0.9760 0.9740
33.029000 0.9740 0.9740 0.9730 0.9710 0.9710
33.117207 0.9710 0.9690 0.9690 0.9670 0.9660
33.205000 0.9640 0.9640 0.9620 0.9620 0.9600
33.293207 0.9600 0.9600 0.9580 0.9570 0.9550
33.381000 0.9550 0.9530 0.9530 0.9530 0.9550
33.469207 0.9570 0.9570 0.9570 0.9570 0.9570
33.558000 0.9550 0.9530 0.9530 0.9530 0.9530
33.646207 0.9530 0.9530 0.9510 0.9510 0.9490
33.734000 0.9460 0.9440 0.9440 0.9420 0.9390
33.822207 0.9390 0.9370 0.9350 0.9350 0.9350
33.910000 0.9350 0.9350 0.9370 0.9370 0.9370
33.998207 0.9350 0.9330 0.9300 0.9280 0.9240
34.087000 0.9210 0.9150 0.9140 0.9120 0.9100
34.175207 0.9100 0.9080 0.9050 0.9030 0.9010
34.263000 0.8990 0.8980 0.8960 0.8920 0.8900
34.351207 0.8890 0.8870 0.8870 0.8850 0.8830
34.439000 0.8760 0.8740 0.8740 0.8720 0.8720
34.527207 0.8690 0.8650 0.8600 0.8550 0.8510
34.615000 0.8420 0.8380 0.8370 0.8330 0.8310
34.703207 0.8280 0.8260 0.8240 0.8220 0.8210
34.792000 0.8170 0.8150 0.8130 0.8120 0.8100
34.880207 0.8060 0.8050 0.8030 0.8010 0.7970
34.968000 0.7880 0.7850 0.7850 0.7810 0.7790
35.056207 0.7780 0.7740 0.7720 0.7710 0.7690
35.144000 0.7670 0.7650 0.7630 0.7620 0.7600
35.232207 0.7560 0.7540 0.7530 0.7490 0.7400
35.321000 0.7370 0.7350 0.7290 0.7220 0.7200
35.409207 0.7150 0.7040 0.7030 0.7010 0.6940
35.497000 0.6860 0.6790 0.6650 0.6560 0.6520
35.585207 0.6510 0.6490 0.6440 0.6400 0.6350
35.673000 0.6310 0.6290 0.6240 0.6200 0.6170
35.761207 0.6130 0.6100 0.6100 0.6040 0.6040
35.849000 0.6020 0.5990 0.5990 0.5970 0.5950
35.937207 0.5920 0.5880 0.5880 0.5900 0.5920
36.026000 0.5920 0.5920 0.5920 0.5900 0.5880
36.114207 0.5860 0.5860 0.5860 0.5880 0.5880
36.202000 0.5880 0.5860 0.5860 0.5840 0.5840
36.290207 0.5810 0.5790 0.5790 0.5740 0.5720
36.378000 0.5740 0.5740 0.5760 0.5760 0.5760
36.466207 0.5760 0.5740 0.5740 0.5740 0.5740
36.554000 0.5740 0.5720 0.5720 0.5720 0.5740
36.642207 0.5740 0.5740 0.5740 0.5740 0.5740
36.731000 0.5760 0.5770 0.5770 0.5770 0.5760
36.819207 0.5760 0.5760 0.5760 0.5760 0.5760
36.907000 0.5760 0.5770 0.5770 0.5770 0.5760
36.995207 0.5760 0.5770 0.5790 0.5790 0.5790
37.083000 0.5790 0.5770 0.5770 0.5770 0.5760
37.171207 0.5760 0.5760 0.5760 0.5760 0.5760
37.260000 0.5770 0.5770 0.5760 0.5760 0.5760
37.348207 0.5760 0.5760 0.5770 0.5770 0.5770
37.436000 0.5770 0.5790 0.5770 0.5770 0.5770
37.524207 0.5770 0.5770 0.5770 0.5760 0.5760
37.612000 0.5760 0.5760 0.5760 0.5760 0.5760
37.700207 0.5770 0.5770 0.5790 0.5790 0.5810
37.788000 0.5810 0.5790 0.5790 0.5790 0.5790
37.876207 0.5770 0.5770 0.5790 0.5810 0.5810
37.965000 0.5810 0.5790 0.5790 0.5790 0.5790
##END=
