##TITLE=Bromocyclobutane
##JCAMP-DX=4.24
##DATA TYPE=INFRARED SPECTRUM
##ORIGIN=NIST Mass Spectrometry Data Center
##OWNER=NIST Standard Reference Data Program
Collection (C) 2018 copyright by the U.S. Secretary of Commerce
on behalf of the United States of America. All rights reserved.
##CAS REGISTRY NO=4399-47-7
##MOLFORM=C 4 H 7 Br
##$NIST SOURCE=MSDC-IR
##SPECTROMETER/DATA SYSTEM=HP-GC/MS/IRD
##STATE=gas
##XUNITS=1/CM
##YUNITS=ABSORBANCE
##XFACTOR=1.0
##YFACTOR=0.000000800
##DELTAX=4.0
##FIRSTX=550.0
##LASTX=3846.0
##FIRSTY=0.000565
##MAXX=3846
##MINX=550
##MAXY=0.008
##MINY=0
##NPOINTS=825
##XYDATA=(X++(Y..Y))
550.0 706 499 271 222 106 264 369 167 108 113
590.0 177 205 123 70 32 11 146 218 108 143
630.0 240 305 321 243 159 96 113 140 180 269
670.0 236 215 319 539 809 1034 1123 1284 1332 1252
710.0 1296 1095 719 499 367 234 184 143 126 168
750.0 197 198 241 258 257 307 367 462 467 525
790.0 649 819 1259 1849 2543 3344 3956 4144 4131 4065
830.0 3698 2716 1581 847 495 342 336 343 339 314
870.0 197 196 301 356 340 358 407 430 435 387
910.0 359 402 406 426 411 372 363 351 367 334
950.0 287 299 308 262 259 283 292 286 332 443
990.0 616 860 1081 1266 1396 1438 1381 1182 981 748
1030.0 473 281 113 110 119 58 51 37 90 140
1070.0 250 351 401 441 406 376 404 336 201 135
1110.0 85 69 76 99 118 127 142 210 298 342
1150.0 348 408 490 623 772 917 1142 1368 1610 1820
1190.0 1933 1946 1880 1807 1759 1659 1578 1802 2274 2777
1230.0 3236 3668 4182 4830 5549 6144 6300 6018 5685 5340
1270.0 4478 3106 1983 1361 973 677 495 434 390 361
1310.0 343 304 283 252 213 179 174 170 154 136
1350.0 90 54 57 89 113 101 112 119 127 128
1390.0 139 177 230 285 330 391 468 561 668 786
1430.0 860 911 995 1016 1001 988 914 846 759 656
1470.0 573 492 396 299 257 203 145 146 163 143
1510.0 118 121 127 104 74 83 90 66 62 67
1550.0 35 37 43 15 20 36 35 13 38 47
1590.0 0 12 30 23 48 59 44 32 41 71
1630.0 90 73 72 100 108 68 42 58 62 69
1670.0 72 54 21 6 11 20 32 56 72 52
1710.0 53 63 46 39 62 77 70 78 87 78
1750.0 85 89 55 55 53 35 53 65 56 41
1790.0 36 56 57 45 45 52 71 73 73 75
1830.0 65 72 102 126 115 111 107 86 64 55
1870.0 74 72 49 48 70 57 37 50 49 49
1910.0 51 44 70 81 66 77 87 87 63 50
1950.0 78 97 76 88 92 60 45 63 86 93
1990.0 79 81 91 83 63 71 106 78 58 78
2030.0 75 79 96 109 107 88 85 111 132 131
2070.0 122 131 153 151 139 153 164 150 155 156
2110.0 163 192 190 191 208 187 167 168 142 140
2150.0 163 154 126 124 134 135 139 129 117 133
2190.0 128 103 110 119 103 117 118 82 80 90
2230.0 112 106 87 91 96 102 127 120 117 140
2270.0 113 89 94 116 132 129 99 60 66 82
2310.0 79 72 49 44 62 57 66 57 47 62
2350.0 77 78 73 65 62 60 58 80 89 75
2390.0 72 93 69 24 26 54 49 40 81 66
2430.0 36 55 59 56 81 100 102 80 62 45
2470.0 56 69 68 73 92 106 98 80 85 110
2510.0 91 69 51 18 19 52 24 25 71 71
2550.0 44 55 58 11 8 45 71 60 52 47
2590.0 61 70 70 88 85 54 30 17 64 98
2630.0 74 63 65 78 41 54 66 40 62 76
2670.0 103 109 80 51 63 81 99 124 150 133
2710.0 88 112 130 121 87 29 60 95 55 68
2750.0 81 78 67 43 84 109 99 53 76 112
2790.0 78 60 98 126 95 107 163 218 274 331
2830.0 392 423 502 614 749 922 1018 1105 1269 1467
2870.0 1708 1991 2172 2242 2277 2250 2196 2054 1902 1903
2910.0 2047 2243 2487 2808 3203 3699 4276 4918 5676 6452
2950.0 7120 7617 8014 8400 8776 8973 9089 9247 9435 9525
2990.0 9469 9564 9773 10000 8787 6996 5997 4986 4012 3134
3030.0 2326 1717 1298 971 721 571 541 523 445 466
3070.0 476 417 376 364 362 349 364 352 322 262
3110.0 191 163 173 157 134 150 161 157 151 141
3150.0 106 84 123 116 149 172 73 17 42 70
3190.0 125 80 86 106 56 78 107 131 106 87
3230.0 88 105 108 86 90 91 105 120 107 54
3270.0 43 114 155 169 148 92 72 110 57 5
3310.0 69 143 160 119 132 122 90 87 73 136
3350.0 162 107 116 168 178 157 123 129 165 156
3390.0 118 111 96 70 89 120 106 78 120 184
3430.0 121 107 171 181 180 151 121 112 131 134
3470.0 116 104 83 95 104 117 99 32 5 59
3510.0 91 69 103 111 77 88 124 98 114 78
3550.0 80 157 98 47 82 104 76 53 85 135
3590.0 139 129 112 98 104 34 23 119 118 109
3630.0 156 154 162 158 76 68 146 165 158 194
3670.0 196 142 110 109 98 117 121 102 121 129
3710.0 106 116 88 54 110 120 135 172 170 127
3750.0 126 120 73 110 83 24 60 109 94 85
3790.0 92 58 66 127 164 143 149 162 117 110
3830.0 119 69 128 166 156
##END=
