##TITLE=CARBONYL SULFIDE
##JCAMP-DX=4.24
##DATA TYPE=INFRARED SPECTRUM
##CLASS=COBLENTZ
##ORIGIN=DOW CHEMICAL COMPANY
##OWNER=COBLENTZ SOCIETY
Collection (C) 2018 copyright by the U.S. Secretary of Commerce
on behalf of the United States of America. All rights reserved.
##DATE=1964
##NAMES=oxo(thioxo)methane
##CAS REGISTRY NO=463-58-1
##MOLFORM=C O S
##SOURCE REFERENCE=COBLENTZ NO. 8756
##$NIST SOURCE=COBLENTZ
##$NIST IMAGE=cob8756
##SPECTROMETER/DATA SYSTEM=DOW KBr FOREPRISM
##INSTRUMENT PARAMETERS=GRATING CHANGED AT 5.0, 7.5, 15.0 MICRON
##STATE=GAS (100 mmHg DILUTED TO A TOTAL PRESSURE OF 600 mmHg WITH N2)
##PATH LENGTH=5 CM
$$ SPECTRAL CONTAMINATION DUE TO CO2 AROUND 2350 CM^-^1 AND CS2 AROUND 1550 CM^-^1.
##SAMPLING PROCEDURE=TRANSMISSION
##RESOLUTION=4
##DATA PROCESSING=DIGITIZED BY NIST FROM HARD COPY (FROM TWO SEGMENTS)
##XUNITS=1/CM
##YUNITS=TRANSMITTANCE
##XFACTOR=1.000000
##YFACTOR=1
##DELTAX=0.936915
##FIRSTX=460.65
##LASTX=3799.82
##FIRSTY=0.976
##MAXX=3799.82
##MINX=460.65
##MAXY=1.007
##MINY=0.004
##NPOINTS=3565
##XYDATA=(X++(Y..Y))
460.650000 0.9760 0.9760 0.9750 0.9750 0.9730
465.334575 0.9730 0.9730 0.9730 0.9730 0.9730
470.019151 0.9730 0.9720 0.9720 0.9720 0.9720
474.703726 0.9720 0.9720 0.9720 0.9720 0.9720
479.388301 0.9720 0.9720 0.9710 0.9710 0.9710
484.072877 0.9710 0.9710 0.9710 0.9710 0.9710
488.757452 0.9710 0.9710 0.9710 0.9690 0.9690
493.442027 0.9690 0.9690 0.9680 0.9660 0.9660
498.126603 0.9630 0.9620 0.9620 0.9580 0.9560
502.811178 0.9530 0.9450 0.9400 0.9370 0.9320
507.495753 0.9210 0.9130 0.9060 0.8940 0.8910
512.180329 0.8840 0.8800 0.8780 0.8740 0.8720
516.864904 0.8690 0.8670 0.8590 0.8550 0.8550
521.549479 0.8560 0.9009 0.9110 0.4339 0.3494
526.234055 0.3490 0.4659 0.7956 0.8689 0.8690
530.918630 0.7713 0.7680 0.8287 0.8390 0.8390
535.603205 0.8410 0.8420 0.8510 0.8550 0.8640
540.287781 0.8710 0.8740 0.8929 0.9099 0.9140
544.972356 0.9200 0.9320 0.9360 0.9450 0.9550
549.656931 0.9560 0.9600 0.9650 0.9690 0.9730
554.341507 0.9780 0.9790 0.9840 0.9850 0.9860
559.026082 0.9880 0.9890 0.9920 0.9940 0.9940
563.710657 0.9940 0.9940 0.9950 0.9970 0.9980
568.395233 1.0000 1.0000 1.0010 1.0010 1.0000
573.079808 1.0010 1.0010 1.0010 1.0010 1.0010
577.764383 1.0010 1.0010 1.0010 1.0010 1.0010
582.448959 1.0010 1.0010 1.0010 1.0010 1.0010
587.133534 1.0020 1.0020 1.0020 1.0020 1.0020
591.818109 1.0020 1.0020 1.0040 1.0040 1.0040
596.502685 1.0040 1.0040 1.0040 1.0040 1.0050
601.187260 1.0050 1.0050 1.0050 1.0050 1.0050
605.871835 1.0050 1.0050 1.0050 1.0040 1.0040
610.556411 1.0040 1.0040 1.0020 1.0020 1.0020
615.240986 1.0020 1.0010 1.0000 1.0000 0.9970
619.925561 0.9940 0.9940 1.0020 1.0040 1.0050
624.610137 1.0050 1.0070 1.0070 1.0070 1.0070
629.294712 1.0070 1.0070 1.0050 1.0040 1.0040
633.979287 1.0020 1.0010 1.0010 1.0010 1.0000
638.663863 0.9970 0.9940 0.9940 0.9890 0.9850
643.348438 0.9820 0.9810 0.9790 0.9780 0.9730
648.033013 0.9690 0.9680 0.9650 0.9650 0.9630
652.717589 0.9620 0.9620 0.9620 0.9620 0.9620
657.402164 0.9620 0.9620 0.9630 0.9630 0.9650
662.086739 0.9690 0.9750 0.9760 0.9780 0.9780
666.771315 0.9790 0.9790 0.9790 0.9790 0.9790
671.455890 0.9790 0.9790 0.9790 0.9790 0.9790
676.140465 0.9780 0.9780 0.9780 0.9760 0.9760
680.825041 0.9760 0.9750 0.9750 0.9750 0.9730
685.509616 0.9730 0.9730 0.9720 0.9720 0.9720
690.194191 0.9710 0.9710 0.9710 0.9710 0.9690
694.878767 0.9690 0.9690 0.9680 0.9680 0.9680
699.563342 0.9680 0.9660 0.9660 0.9660 0.9650
704.247917 0.9650 0.9650 0.9630 0.9630 0.9630
708.932493 0.9620 0.9620 0.9620 0.9600 0.9600
713.617068 0.9600 0.9590 0.9580 0.9560 0.9560
718.301643 0.9550 0.9530 0.9530 0.9550 0.9560
722.986219 0.9590 0.9590 0.9600 0.9600 0.9600
727.670794 0.9600 0.9600 0.9620 0.9620 0.9620
732.355369 0.9630 0.9630 0.9630 0.9630 0.9650
737.039945 0.9650 0.9650 0.9650 0.9650 0.9650
741.724520 0.9650 0.9650 0.9650 0.9660 0.9660
746.409095 0.9660 0.9660 0.9660 0.9660 0.9660
751.093671 0.9660 0.9660 0.9650 0.9650 0.9650
755.778246 0.9650 0.9660 0.9660 0.9680 0.9680
760.462821 0.9680 0.9680 0.9680 0.9680 0.9680
765.147397 0.9680 0.9680 0.9680 0.9660 0.9660
769.831972 0.9660 0.9660 0.9660 0.9660 0.9660
774.516547 0.9660 0.9660 0.9660 0.9660 0.9660
779.201123 0.9660 0.9650 0.9650 0.9660 0.9680
783.885698 0.9680 0.9680 0.9690 0.9690 0.9690
788.570273 0.9690 0.9690 0.9690 0.9690 0.9680
793.254849 0.9680 0.9680 0.9680 0.9680 0.9690
797.939424 0.9690 0.9690 0.9680 0.9690 0.9690
802.623999 0.9680 0.9660 0.9660 0.9660 0.9660
807.308575 0.9660 0.9660 0.9660 0.9660 0.9650
811.993150 0.9650 0.9630 0.9630 0.9620 0.9600
816.677725 0.9580 0.9560 0.9560 0.9530 0.9490
821.362301 0.9430 0.9390 0.9330 0.9290 0.9230
826.046876 0.9170 0.9100 0.8980 0.8850 0.8750
830.731451 0.8351 0.8091 0.7940 0.7840 0.7740
835.416027 0.7550 0.7380 0.6790 0.6560 0.6270
840.100602 0.5951 0.5651 0.5401 0.5241 0.5200
844.785177 0.5100 0.5080 0.5080 0.5100 0.5170
849.469753 0.5300 0.5649 0.5889 0.6089 0.6249
854.154328 0.6430 0.6600 0.7090 0.7869 0.7860
858.838903 0.6843 0.6820 0.5286 0.4882 0.4691
863.523479 0.4530 0.4520 0.4520 0.4530 0.4590
868.208054 0.4720 0.4850 0.4980 0.5328 0.5718
872.892629 0.5850 0.6180 0.6930 0.7569 0.7730
877.577205 0.8149 0.8379 0.8539 0.8908 0.9169
882.261780 0.9360 0.9470 0.9580 0.9650 0.9720
886.946355 0.9720 0.9750 0.9760 0.9780 0.9780
891.630931 0.9780 0.9780 0.9780 0.9780 0.9780
896.315506 0.9790 0.9790 0.9790 0.9790 0.9790
901.000081 0.9790 0.9790 0.9790 0.9790 0.9790
905.684657 0.9790 0.9790 0.9790 0.9790 0.9790
910.369232 0.9790 0.9790 0.9790 0.9790 0.9790
915.053807 0.9790 0.9790 0.9790 0.9790 0.9790
919.738383 0.9810 0.9810 0.9810 0.9810 0.9810
924.422958 0.9810 0.9810 0.9810 0.9810 0.9810
929.107533 0.9810 0.9840 0.9840 0.9840 0.9840
933.792109 0.9850 0.9850 0.9850 0.9850 0.9850
938.476684 0.9850 0.9850 0.9850 0.9850 0.9850
943.161259 0.9850 0.9850 0.9860 0.9860 0.9860
947.845835 0.9860 0.9860 0.9860 0.9860 0.9850
952.530410 0.9850 0.9850 0.9850 0.9850 0.9850
957.214986 0.9850 0.9850 0.9850 0.9850 0.9850
961.899561 0.9850 0.9850 0.9850 0.9850 0.9850
966.584136 0.9850 0.9850 0.9850 0.9850 0.9850
971.268712 0.9850 0.9850 0.9850 0.9850 0.9850
975.953287 0.9850 0.9850 0.9850 0.9850 0.9850
980.637862 0.9850 0.9840 0.9840 0.9840 0.9840
985.322438 0.9840 0.9840 0.9840 0.9840 0.9840
990.007013 0.9840 0.9840 0.9840 0.9840 0.9840
994.691588 0.9820 0.9820 0.9820 0.9820 0.9820
999.376164 0.9820 0.9820 0.9820 0.9820 0.9820
1004.060739 0.9820 0.9810 0.9810 0.9810 0.9810
1008.745314 0.9810 0.9810 0.9810 0.9790 0.9790
1013.429890 0.9780 0.9780 0.9760 0.9750 0.9750
1018.114465 0.9720 0.9690 0.9630 0.9580 0.9500
1022.799040 0.9430 0.9360 0.9290 0.9100 0.8930
1027.483616 0.8820 0.8690 0.8540 0.8361 0.8151
1032.168191 0.7970 0.7800 0.7580 0.7420 0.7260
1036.852766 0.7250 0.7250 0.7260 0.7340 0.7499
1041.537342 0.7731 0.8190 0.8290 0.8940 0.8900
1046.221917 0.8810 0.8690 0.8580 0.8221 0.8091
1050.906492 0.7960 0.7870 0.7800 0.7770 0.7740
1055.591068 0.7710 0.7700 0.7700 0.7710 0.7760
1060.275643 0.7770 0.7860 0.7890 0.8070 0.8220
1064.960218 0.8300 0.8450 0.8590 0.8680 0.8750
1069.644794 0.8940 0.9040 0.9130 0.9330 0.9390
1074.329369 0.9430 0.9470 0.9530 0.9580 0.9600
1079.013944 0.9650 0.9690 0.9720 0.9750 0.9780
1083.698520 0.9810 0.9810 0.9820 0.9820 0.9820
1088.383095 0.9840 0.9840 0.9840 0.9840 0.9820
1093.067670 0.9820 0.9820 0.9820 0.9820 0.9820
1097.752246 0.9820 0.9820 0.9820 0.9820 0.9820
1102.436821 0.9810 0.9810 0.9790 0.9790 0.9790
1107.121396 0.9790 0.9810 0.9810 0.9810 0.9810
1111.805972 0.9820 0.9840 0.9840 0.9840 0.9850
1116.490547 0.9850 0.9860 0.9860 0.9880 0.9880
1121.175122 0.9880 0.9890 0.9910 0.9910 0.9910
1125.859698 0.9920 0.9920 0.9920 0.9910 0.9910
1130.544273 0.9910 0.9910 0.9910 0.9910 0.9910
1135.228848 0.9910 0.9910 0.9910 0.9910 0.9890
1139.913424 0.9890 0.9890 0.9910 0.9910 0.9910
1144.597999 0.9910 0.9910 0.9920 0.9920 0.9920
1149.282574 0.9920 0.9920 0.9920 0.9920 0.9940
1153.967150 0.9940 0.9940 0.9940 0.9940 0.9920
1158.651725 0.9920 0.9920 0.9920 0.9940 0.9940
1163.336300 0.9920 0.9920 0.9920 0.9910 0.9910
1168.020876 0.9910 0.9910 0.9910 0.9910 0.9890
1172.705451 0.9880 0.9880 0.9850 0.9840 0.9820
1177.390026 0.9810 0.9790 0.9790 0.9810 0.9840
1182.074602 0.9860 0.9880 0.9880 0.9880 0.9880
1186.759177 0.9880 0.9880 0.9880 0.9880 0.9880
1191.443752 0.9860 0.9860 0.9860 0.9880 0.9880
1196.128328 0.9880 0.9890 0.9890 0.9890 0.9890
1200.812903 0.9890 0.9910 0.9890 0.9890 0.9890
1205.497478 0.9890 0.9890 0.9890 0.9890 0.9890
1210.182054 0.9880 0.9880 0.9890 0.9910 0.9910
1214.866629 0.9910 0.9910 0.9910 0.9910 0.9920
1219.551204 0.9920 0.9920 0.9920 0.9940 0.9950
1224.235780 0.9950 0.9950 0.9950 0.9950 0.9950
1228.920355 0.9970 0.9970 0.9970 0.9950 0.9940
1233.604930 0.9920 0.9910 0.9890 0.9880 0.9880
1238.289506 0.9860 0.9860 0.9850 0.9840 0.9820
1242.974081 0.9820 0.9810 0.9810 0.9810 0.9790
1247.658656 0.9790 0.9780 0.9780 0.9780 0.9780
1252.343232 0.9760 0.9760 0.9760 0.9760 0.9760
1257.027807 0.9750 0.9750 0.9750 0.9750 0.9750
1261.712382 0.9750 0.9750 0.9750 0.9750 0.9750
1266.396958 0.9750 0.9750 0.9750 0.9750 0.9750
1271.081533 0.9750 0.9750 0.9750 0.9750 0.9750
1275.766108 0.9750 0.9750 0.9730 0.9730 0.9730
1280.450684 0.9720 0.9720 0.9720 0.9720 0.9720
1285.135259 0.9720 0.9710 0.9710 0.9710 0.9710
1289.819834 0.9710 0.9710 0.9710 0.9680 0.9660
1294.504410 0.9660 0.9660 0.9660 0.9660 0.9660
1299.188985 0.9680 0.9680 0.9680 0.9660 0.9660
1303.873560 0.9660 0.9660 0.9650 0.9650 0.9650
1308.558136 0.9660 0.9660 0.9680 0.9680 0.9690
1313.242711 0.9690 0.9690 0.9680 0.9680 0.9660
1317.927286 0.9660 0.9660 0.9680 0.9680 0.9680
1322.611862 0.9680 0.9690 0.9710 0.9680 0.9660
1327.296437 0.9650 0.9650 0.9660 0.9660 0.9660
1331.981012 0.9680 0.9680 0.9680 0.9680 0.9660
1336.665588 0.9660 0.9650 0.9630 0.9620 0.9620
1341.350163 0.9630 0.9660 0.9680 0.9690 0.9710
1346.034738 0.9720 0.9720 0.9720 0.9730 0.9730
1350.719314 0.9750 0.9790 0.9810 0.9810 0.9810
1355.403889 0.9810 0.9820 0.9820 0.9840 0.9840
1360.088464 0.9840 0.9840 0.9820 0.9810 0.9790
1364.773040 0.9810 0.9790 0.9760 0.9750 0.9730
1369.457615 0.9730 0.9730 0.9720 0.9690 0.9680
1374.142190 0.9660 0.9660 0.9680 0.9680 0.9660
1378.826766 0.9660 0.9660 0.9660 0.9680 0.9680
1383.511341 0.9660 0.9660 0.9650 0.9630 0.9600
1388.195916 0.9620 0.9600 0.9600 0.9590 0.9590
1392.880492 0.9590 0.9590 0.9590 0.9590 0.9590
1397.565067 0.9590 0.9590 0.9590 0.9600 0.9600
1402.249642 0.9600 0.9600 0.9600 0.9600 0.9600
1406.934218 0.9600 0.9600 0.9600 0.9600 0.9590
1411.618793 0.9590 0.9600 0.9600 0.9600 0.9600
1416.303368 0.9600 0.9600 0.9600 0.9590 0.9590
1420.987944 0.9590 0.9600 0.9600 0.9600 0.9600
1425.672519 0.9600 0.9600 0.9600 0.9600 0.9600
1430.357094 0.9600 0.9600 0.9620 0.9600 0.9600
1435.041670 0.9600 0.9600 0.9600 0.9600 0.9600
1439.726245 0.9600 0.9600 0.9590 0.9590 0.9590
1444.410820 0.9590 0.9590 0.9590 0.9590 0.9590
1449.095396 0.9590 0.9590 0.9600 0.9590 0.9590
1453.779971 0.9580 0.9580 0.9560 0.9560 0.9560
1458.464546 0.9560 0.9580 0.9590 0.9580 0.9580
1463.149122 0.9560 0.9560 0.9560 0.9560 0.9580
1467.833697 0.9580 0.9580 0.9560 0.9550 0.9500
1472.518272 0.9450 0.9450 0.9490 0.9500 0.9530
1477.202848 0.9580 0.9580 0.9580 0.9590 0.9590
1481.887423 0.9590 0.9600 0.9600 0.9590 0.9590
1486.571998 0.9580 0.9530 0.9520 0.9500 0.9520
1491.256574 0.9590 0.9600 0.9600 0.9600 0.9590
1495.941149 0.9590 0.9590 0.9580 0.9580 0.9580
1500.625724 0.9580 0.9560 0.9550 0.9530 0.9490
1505.310300 0.9430 0.9400 0.9390 0.9370 0.9390
1509.994875 0.9400 0.9400 0.9360 0.9330 0.9290
1514.679450 0.9230 0.9170 0.9100 0.9070 0.9040
1519.364026 0.8930 0.8840 0.8800 0.8740 0.8720
1524.048601 0.8690 0.8690 0.8680 0.8680 0.8680
1528.733176 0.8690 0.8710 0.8740 0.8740 0.8750
1533.417752 0.8750 0.8770 0.8900 0.9000 0.8950
1538.102327 0.8800 0.8640 0.8390 0.8350 0.8350
1542.786902 0.8490 0.8550 0.8670 0.8780 0.8999
1547.471478 0.9011 0.9460 0.9470 0.9490 0.9520
1552.156053 0.9530 0.9560 0.9600 0.9630 0.9660
1556.840628 0.9680 0.9680 0.9660 0.9660 0.9650
1561.525204 0.9650 0.9630 0.9630 0.9620 0.9620
1566.209779 0.9620 0.9620 0.9620 0.9620 0.9620
1570.894354 0.9600 0.9600 0.9590 0.9590 0.9600
1575.578930 0.9600 0.9620 0.9630 0.9650 0.9660
1580.263505 0.9660 0.9660 0.9660 0.9650 0.9650
1584.948080 0.9650 0.9650 0.9650 0.9650 0.9650
1589.632656 0.9650 0.9650 0.9650 0.9650 0.9650
1594.317231 0.9650 0.9650 0.9650 0.9650 0.9650
1599.001806 0.9650 0.9650 0.9650 0.9630 0.9630
1603.686382 0.9630 0.9620 0.9620 0.9620 0.9620
1608.370957 0.9620 0.9620 0.9620 0.9620 0.9620
1613.055532 0.9600 0.9590 0.9590 0.9590 0.9590
1617.740108 0.9600 0.9600 0.9600 0.9600 0.9590
1622.424683 0.9590 0.9590 0.9590 0.9590 0.9600
1627.109258 0.9600 0.9600 0.9620 0.9620 0.9620
1631.793834 0.9590 0.9590 0.9590 0.9590 0.9590
1636.478409 0.9590 0.9600 0.9600 0.9600 0.9600
1641.162984 0.9620 0.9620 0.9580 0.9580 0.9580
1645.847560 0.9580 0.9580 0.9580 0.9580 0.9580
1650.532135 0.9580 0.9550 0.9550 0.9590 0.9590
1655.216710 0.9590 0.9590 0.9600 0.9590 0.9590
1659.901286 0.9590 0.9580 0.9580 0.9580 0.9560
1664.585861 0.9560 0.9560 0.9550 0.9530 0.9520
1669.270436 0.9500 0.9500 0.9500 0.9470 0.9470
1673.955012 0.9460 0.9460 0.9460 0.9450 0.9420
1678.639587 0.9390 0.9370 0.9370 0.9360 0.9240
1683.324162 0.9190 0.9190 0.9170 0.9170 0.9160
1688.008738 0.9100 0.9070 0.9060 0.9000 0.8980
1692.693313 0.8930 0.8820 0.8770 0.8740 0.8670
1697.377888 0.8590 0.8520 0.8460 0.8450 0.8460
1702.062464 0.8510 0.8520 0.8550 0.8580 0.8620
1706.747039 0.8680 0.8810 0.9130 0.9360 0.9370
1711.431614 0.9330 0.9170 0.9040 0.8910 0.8741
1716.116190 0.8560 0.8390 0.8360 0.8350 0.8360
1720.800765 0.8380 0.8390 0.8609 0.8690 0.8710
1725.485340 0.8850 0.9030 0.9060 0.9110 0.9330
1730.169916 0.9390 0.9450 0.9490 0.9530 0.9580
1734.854491 0.9580 0.9590 0.9590 0.9580 0.9580
1739.539066 0.9580 0.9580 0.9580 0.9590 0.9580
1744.223642 0.9580 0.9580 0.9580 0.9580 0.9560
1748.908217 0.9560 0.9560 0.9560 0.9560 0.9560
1753.592792 0.9560 0.9580 0.9580 0.9580 0.9580
1758.277368 0.9580 0.9580 0.9580 0.9590 0.9590
1762.961943 0.9580 0.9580 0.9560 0.9560 0.9550
1767.646518 0.9550 0.9530 0.9520 0.9530 0.9550
1772.331094 0.9560 0.9580 0.9580 0.9580 0.9590
1777.015669 0.9590 0.9590 0.9590 0.9590 0.9590
1781.700244 0.9590 0.9590 0.9590 0.9580 0.9580
1786.384820 0.9580 0.9580 0.9580 0.9580 0.9580
1791.069395 0.9580 0.9580 0.9580 0.9580 0.9580
1795.753970 0.9580 0.9580 0.9580 0.9580 0.9580
1800.438546 0.9580 0.9580 0.9580 0.9580 0.9580
1805.123121 0.9580 0.9580 0.9580 0.9580 0.9580
1809.807696 0.9580 0.9580 0.9580 0.9580 0.9580
1814.492272 0.9580 0.9580 0.9580 0.9580 0.9580
1819.176847 0.9580 0.9580 0.9580 0.9580 0.9580
1823.861422 0.9580 0.9580 0.9580 0.9580 0.9580
1828.545998 0.9580 0.9560 0.9560 0.9560 0.9560
1833.230573 0.9560 0.9560 0.9560 0.9560 0.9550
1837.915148 0.9550 0.9550 0.9550 0.9550 0.9550
1842.599724 0.9550 0.9520 0.9520 0.9530 0.9530
1847.284299 0.9530 0.9530 0.9520 0.9520 0.9520
1851.968874 0.9500 0.9500 0.9490 0.9490 0.9490
1856.653450 0.9470 0.9450 0.9420 0.9400 0.9390
1861.338025 0.9370 0.9330 0.9290 0.9240 0.9190
1866.022600 0.9160 0.9030 0.8980 0.8950 0.8880
1870.707176 0.8750 0.8640 0.8520 0.8410 0.8290
1875.391751 0.8220 0.8090 0.7900 0.7770 0.7640
1880.076326 0.7550 0.7520 0.7540 0.7550 0.7650
1884.760902 0.7740 0.7830 0.7930 0.8020 0.8479
1889.445477 0.8929 0.9169 0.9160 0.8981 0.8950
1894.130052 0.8680 0.8390 0.7800 0.7730 0.7610
1898.814628 0.7500 0.7390 0.7380 0.7390 0.7539
1903.499203 0.7670 0.7810 0.7940 0.8090 0.8220
1908.183778 0.8320 0.8490 0.8560 0.8769 0.8969
1912.868354 0.9160 0.9190 0.9210 0.9270 0.9360
1917.552929 0.9390 0.9450 0.9470 0.9490 0.9500
1922.237505 0.9530 0.9530 0.9550 0.9550 0.9550
1926.922080 0.9550 0.9560 0.9550 0.9550 0.9550
1931.606655 0.9550 0.9560 0.9560 0.9560 0.9580
1936.291231 0.9580 0.9580 0.9580 0.9560 0.9560
1940.975806 0.9560 0.9560 0.9560 0.9560 0.9560
1945.660381 0.9560 0.9560 0.9560 0.9560 0.9560
1950.344957 0.9560 0.9560 0.9550 0.9550 0.9550
1955.029532 0.9550 0.9550 0.9550 0.9530 0.9530
1959.714107 0.9530 0.9530 0.9530 0.9530 0.9520
1964.398683 0.9500 0.9500 0.9490 0.9460 0.9430
1969.083258 0.9420 0.9390 0.9370 0.9270 0.9200
1973.767833 0.9160 0.9100 0.9030 0.8970 0.8880
1978.452409 0.8810 0.8750 0.8650 0.8390 0.8130
1983.136984 0.7970 0.7770 0.7581 0.7381 0.7191
1987.821559 0.6930 0.6660 0.6530 0.6410 0.6300
1992.506135 0.6180 0.6050 0.5930 0.5820 0.5651
1997.190710 0.5620 0.5650 0.5720 0.5880 0.5930
2001.875285 0.5980 0.5995 0.6010 0.6050 0.6090
2006.559861 0.6149 0.6209 0.6230 0.6250 0.6466
2011.244436 0.6686 0.7062 0.7442 0.7450 0.7450
2015.929011 0.6545 0.5616 0.5129 0.4655 0.3909
2020.613587 0.3161 0.2791 0.2426 0.2317 0.2212
2025.298162 0.1770 0.1321 0.1227 0.1142 0.1053
2029.982737 0.0963 0.0781 0.0596 0.0416 0.0237
2034.667313 0.0158 0.0083 0.0065 0.0050 0.0045
2039.351888 0.0040 0.0040 0.0040 0.0040 0.0040
2044.036463 0.0040 0.0040 0.0040 0.0040 0.0045
2048.721039 0.0050 0.0050 0.0050 0.0050 0.0050
2053.405614 0.0050 0.0050 0.0045 0.0040 0.0040
2058.090189 0.0040 0.0040 0.0040 0.0040 0.0040
2062.774765 0.0040 0.0040 0.0045 0.0050 0.0050
2067.459340 0.0050 0.0050 0.0050 0.0050 0.0050
2072.143915 0.0045 0.0040 0.0040 0.0040 0.0040
2076.828491 0.0040 0.0040 0.0040 0.0040 0.0040
2081.513066 0.0040 0.0040 0.0040 0.0040 0.0040
2086.197641 0.0040 0.0040 0.0040 0.0045 0.0050
2090.882217 0.2506 0.5162 0.5747 0.6155 0.6560
2095.566792 0.6964 0.7065 0.7145 0.7164 0.7179
2100.251367 0.7185 0.7190 0.7190 0.7190 0.7190
2104.935943 0.7190 0.7199 0.7209 0.7333 0.7468
2109.620518 0.7608 0.7747 0.8118 0.8511 0.8531
2114.305093 0.8521 0.7907 0.7243 0.7172 0.7152
2118.989669 0.7168 0.7188 0.7208 0.7228 0.7280
2123.674244 0.7335 0.7417 0.7502 0.7564 0.7624
2128.358819 0.7675 0.7725 0.7866 0.8017 0.8190
2133.043395 0.8364 0.8575 0.8790 0.8864 0.8924
2137.727970 0.8953 0.8978 0.9020 0.9065 0.9173
2142.412545 0.9288 0.9354 0.9413 0.9438 0.9458
2147.097121 0.9464 0.9469 0.9483 0.9499 0.9523
2151.781696 0.9547 0.9554 0.9559 0.9560 0.9560
2156.466271 0.9569 0.9579 0.9580 0.9580 0.9584
2161.150847 0.9589 0.9590 0.9590 0.9586 0.9581
2165.835422 0.9580 0.9580 0.9580 0.9580 0.9580
2170.519997 0.9580 0.9580 0.9580 0.9580 0.9580
2175.204573 0.9580 0.9580 0.9580 0.9580 0.9580
2179.889148 0.9580 0.9580 0.9580 0.9580 0.9580
2184.573723 0.9580 0.9580 0.9580 0.9580 0.9580
2189.258299 0.9580 0.9580 0.9580 0.9580 0.9580
2193.942874 0.9584 0.9589 0.9590 0.9590 0.9590
2198.627449 0.9590 0.9594 0.9599 0.9609 0.9619
2203.312025 0.9620 0.9620 0.9620 0.9620 0.9620
2207.996600 0.9620 0.9620 0.9620 0.9624 0.9629
2212.681175 0.9630 0.9630 0.9617 0.9602 0.9600
2217.365751 0.9600 0.9600 0.9600 0.9600 0.9600
2222.050326 0.9600 0.9600 0.9600 0.9600 0.9609
2226.734901 0.9618 0.9624 0.9629 0.9626 0.9621
2231.419477 0.9620 0.9620 0.9620 0.9620 0.9620
2236.104052 0.9620 0.9620 0.9620 0.9620 0.9620
2240.788627 0.9620 0.9620 0.9620 0.9620 0.9612
2245.473203 0.9602 0.9600 0.9600 0.9600 0.9600
2250.157778 0.9600 0.9600 0.9600 0.9600 0.9600
2254.842353 0.9600 0.9600 0.9600 0.9596 0.9591
2259.526929 0.9590 0.9590 0.9590 0.9590 0.9590
2264.211504 0.9590 0.9590 0.9590 0.9590 0.9590
2268.896079 0.9590 0.9590 0.9590 0.9590 0.9590
2273.580655 0.9590 0.9590 0.9590 0.9586 0.9581
2278.265230 0.9580 0.9580 0.9572 0.9562 0.9560
2282.949805 0.9560 0.9548 0.9533 0.9526 0.9521
2287.634381 0.9508 0.9493 0.9482 0.9472 0.9462
2292.318956 0.9452 0.9438 0.9423 0.9400 0.9375
2297.003531 0.9350 0.9325 0.9308 0.9293 0.9270
2301.688107 0.9245 0.9160 0.9060 0.9012 0.8977
2306.372682 0.8954 0.8934 0.8883 0.8823 0.8755
2311.057257 0.8685 0.8487 0.8252 0.8169 0.8129
2315.741833 0.8097 0.8067 0.8013 0.7953 0.7861
2320.426408 0.7761 0.7646 0.7526 0.7418 0.7313
2325.110983 0.7216 0.7121 0.7030 0.6940 0.6908
2329.795559 0.6893 0.6867 0.6837 0.6819 0.6804
2334.480134 0.6800 0.6800 0.6758 0.6702 0.6671
2339.164709 0.6646 0.6617 0.6587 0.6572 0.6562
2343.849285 0.6560 0.6560 0.6564 0.6569 0.6691
2348.533860 0.6851 0.7011 0.7171 0.7458 0.7788
2353.218435 0.7870 0.7870 0.7267 0.6460 0.6148
