##TITLE=2-Methyl-1,3-dioxolane
##JCAMP-DX=4.24
##DATA TYPE=INFRARED SPECTRUM
##CLASS=COBLENTZ III
##ORIGIN=DOW CHEMICAL COMPANY
##OWNER=COBLENTZ SOC.
Collection (C) 2018 copyright by the U.S. Secretary of Commerce
on behalf of the United States of America. All rights reserved.
##DATE=1952/10/04
##CAS REGISTRY NO=497-26-7
##MOLFORM=C4 H8 O2
##SOURCE REFERENCE=COBLENTZ NO. 08570
##$NIST SOURCE=COBLENTZ
##$NIST IMAGE=cob8570
##SPECTROMETER/DATA SYSTEM=BAIRD (PRISM)
##INSTRUMENT PARAMETERS=NaCl PRISM
##STATE=SOLUTION (CCl4 FOR 2.0-7.5, CS2 FOR 7.5-16.0 MICRON) VS SOLVENT
##PATH LENGTH=0.012 CM, AND 0.012 CM
##SAMPLING PROCEDURE=TRANSMISSION
##RESOLUTION=2
##DATA PROCESSING=DIGITIZED BY COBLENTZ SOCIETY (BATCH I) FROM HARD COPY
##XUNITS=1/CM
##YUNITS=TRANSMITTANCE
##XLABEL=Wavenumbers (cm-1)
##YLABEL=% Transmission
##XFACTOR=1
##YFACTOR=1
##DELTAX=1
##FIRSTX=631
##LASTX=4000
##FIRSTY=0.9416
##MAXX=4000
##MINX=631
##MAXY=0.9828
##MINY=0.0145
##NPOINTS=3370
##XYDATA=(X++(Y..Y))
631.000000 0.9416 0.9418 0.9424 0.9432 0.9465
636.000000 0.9502 0.9537 0.9545 0.9545 0.9545
641.000000 0.9543 0.9542 0.9540 0.9538 0.9534
646.000000 0.9530 0.9516 0.9500 0.9440 0.9405
651.000000 0.9391 0.9387 0.9378 0.9367 0.9394
656.000000 0.9345 0.9342 0.9338 0.9335 0.9346
661.000000 0.9356 0.9363 0.9365 0.9366 0.9368
666.000000 0.9368 0.9368 0.9368 0.9368 0.9368
671.000000 0.9370 0.9371 0.9371 0.9371 0.9367
676.000000 0.9357 0.9345 0.9318 0.9291 0.9264
681.000000 0.9237 0.9208 0.9177 0.9145 0.9089
686.000000 0.9021 0.8936 0.8852 0.8723 0.8578
691.000000 0.8434 0.8294 0.8175 0.8132 0.8094
696.000000 0.8128 0.8174 0.8251 0.8386 0.8540
701.000000 0.8665 0.8765 0.8885 0.8998 0.9101
706.000000 0.9204 0.9278 0.9320 0.9346 0.9378
711.000000 0.9446 0.9483 0.9495 0.9495 0.9495
716.000000 0.9507 0.9528 0.9565 0.9601 0.9613
721.000000 0.9618 0.9621 0.9621 0.9623 0.9623
726.000000 0.9623 0.9623 0.9621 0.9621 0.9621
731.000000 0.9620 0.9616 0.9611 0.9606 0.9602
736.000000 0.9598 0.9594 0.9590 0.9587 0.9585
741.000000 0.9582 0.9578 0.9578 0.9578 0.9578
746.000000 0.9580 0.9581 0.9581 0.9578 0.9578
751.000000 0.9575 0.9574 0.9571 0.9570 0.9568
756.000000 0.9565 0.9562 0.9559 0.9555 0.9552
761.000000 0.9549 0.9545 0.9541 0.9531 0.9521
766.000000 0.9513 0.9503 0.9494 0.9484 0.9475
771.000000 0.9467 0.9458 0.9442 0.9424 0.9407
776.000000 0.9390 0.9375 0.9373 0.9370 0.9359
781.000000 0.9345 0.9331 0.9318 0.9307 0.9286
786.000000 0.9260 0.9223 0.9185 0.9152 0.9128
791.000000 0.9117 0.9110 0.9103 0.9093 0.9070
796.000000 0.9047 0.9017 0.8986 0.8956 0.8932
801.000000 0.8908 0.8884 0.8855 0.8823 0.8791
806.000000 0.8758 0.8725 0.8690 0.8656 0.8621
811.000000 0.8578 0.8533 0.8489 0.8439 0.8385
816.000000 0.8332 0.8268 0.8208 0.8151 0.8094
821.000000 0.8038 0.7975 0.7910 0.7837 0.7728
826.000000 0.7619 0.7506 0.7334 0.7115 0.6915
831.000000 0.6815 0.6657 0.6499 0.6331 0.6146
836.000000 0.5883 0.5606 0.5399 0.5246 0.5083
841.000000 0.4912 0.4709 0.4480 0.4247 0.4082
846.000000 0.3884 0.3630 0.3327 0.3011 0.2747
851.000000 0.2259 0.1929 0.1700 0.1460 0.1119
856.000000 0.0839 0.0614 0.0438 0.0314 0.0227
861.000000 0.0176 0.0163 0.0145 0.0205 0.0259
866.000000 0.0321 0.0399 0.0498 0.0648 0.0839
871.000000 0.1192 0.1499 0.1898 0.2303 0.2765
876.000000 0.3156 0.3487 0.3916 0.4240 0.4476
881.000000 0.4686 0.4898 0.5118 0.5319 0.5460
886.000000 0.5640 0.5895 0.6083 0.6194 0.6300
891.000000 0.6389 0.6478 0.6569 0.6660 0.6750
896.000000 0.6847 0.6946 0.7046 0.7119 0.7184
901.000000 0.7248 0.7305 0.7360 0.7414 0.7468
906.000000 0.7525 0.7574 0.7614 0.7651 0.7686
911.000000 0.7715 0.7749 0.7805 0.7886 0.7925
916.000000 0.7951 0.7974 0.7983 0.7991 0.7999
921.000000 0.8001 0.7993 0.7982 0.7968 0.7951
926.000000 0.7933 0.7908 0.7883 0.7849 0.7811
931.000000 0.7764 0.7698 0.7588 0.7453 0.7281
936.000000 0.7087 0.6808 0.6412 0.6115 0.5704
941.000000 0.4703 0.3758 0.3437 0.3403 0.3659
946.000000 0.4144 0.4628 0.5112 0.5594 0.6012
951.000000 0.6328 0.6572 0.6868 0.7125 0.7310
956.000000 0.7512 0.7690 0.7805 0.7901 0.7978
961.000000 0.8049 0.8095 0.8141 0.8182 0.8209
966.000000 0.8235 0.8251 0.8258 0.8258 0.8294
971.000000 0.8246 0.8238 0.8227 0.8213 0.8199
976.000000 0.8180 0.8151 0.8122 0.8095 0.8064
981.000000 0.8031 0.7998 0.7965 0.7928 0.7888
986.000000 0.7846 0.7806 0.7751 0.7695 0.7638
991.000000 0.7564 0.7486 0.7400 0.7306 0.7212
996.000000 0.7088 0.6949 0.6797 0.6637 0.6497
1001.000000 0.6364 0.6218 0.6054 0.5846 0.5608
1006.000000 0.5417 0.5108 0.4751 0.4396 0.4042
1011.000000 0.3688 0.3334 0.2983 0.2593 0.2243
1016.000000 0.1841 0.1476 0.1114 0.0870 0.0693
1021.000000 0.0562 0.0487 0.0421 0.0381 0.0371
1026.000000 0.0366 0.0367 0.0374 0.0389 0.0413
1031.000000 0.0446 0.0488 0.0545 0.0627 0.0748
1036.000000 0.0910 0.1094 0.1257 0.1430 0.1632
1041.000000 0.2023 0.2215 0.2389 0.2533 0.2680
1046.000000 0.2835 0.3013 0.3248 0.3487 0.3594
1051.000000 0.3659 0.3710 0.3734 0.3748 0.3749
1056.000000 0.3749 0.3753 0.3725 0.3704 0.3679
1061.000000 0.3641 0.3600 0.3540 0.3468 0.3364
1066.000000 0.3253 0.3133 0.2931 0.2710 0.2560
1071.000000 0.2411 0.2262 0.2113 0.1963 0.1815
1076.000000 0.1665 0.1415 0.1089 0.0891 0.0730
1081.000000 0.0587 0.0466 0.0423 0.0412 0.0412
1086.000000 0.0419 0.0365 0.0455 0.0481 0.0515
1091.000000 0.0560 0.0629 0.0697 0.0765 0.0833
1096.000000 0.0902 0.0958 0.1001 0.1026 0.1035
1101.000000 0.1052 0.1027 0.1010 0.0988 0.0961
1106.000000 0.0926 0.0883 0.0822 0.0754 0.0643
1111.000000 0.0525 0.0429 0.0354 0.0325 0.0312
1116.000000 0.0304 0.0308 0.0312 0.0316 0.0318
1121.000000 0.0329 0.0341 0.0354 0.0370 0.0385
1126.000000 0.0397 0.0405 0.0413 0.0417 0.0419
1131.000000 0.0419 0.0415 0.0404 0.0391 0.0377
1136.000000 0.0357 0.0336 0.0314 0.0291 0.0270
1141.000000 0.0256 0.0241 0.0231 0.0226 0.0222
1146.000000 0.0216 0.0212 0.0212 0.0211 0.0210
1151.000000 0.0214 0.0221 0.0233 0.0259 0.0293
1156.000000 0.0366 0.0471 0.0570 0.0669 0.0775
1161.000000 0.0924 0.1110 0.1316 0.1606 0.1860
1166.000000 0.2114 0.2368 0.2621 0.2868 0.3116
1171.000000 0.3232 0.3397 0.3595 0.3768 0.3918
1176.000000 0.4060 0.4220 0.4396 0.4722 0.5024
1181.000000 0.5229 0.5398 0.5545 0.5644 0.5736
1186.000000 0.5826 0.5912 0.5998 0.6084 0.6175
1191.000000 0.6269 0.6353 0.6401 0.6445 0.6482
1196.000000 0.6498 0.6515 0.6521 0.6521 0.6518
1201.000000 0.6524 0.6501 0.6488 0.6469 0.6443
1206.000000 0.6397 0.6327 0.6238 0.6162 0.6081
1211.000000 0.5982 0.5856 0.5688 0.5497 0.5336
1216.000000 0.5179 0.5027 0.4920 0.4907 0.4900
1221.000000 0.4910 0.4922 0.4956 0.5001 0.5056
1226.000000 0.5130 0.5212 0.5294 0.5376 0.5457
1231.000000 0.5539 0.5620 0.5701 0.5783 0.5862
1236.000000 0.5944 0.6026 0.6106 0.6171 0.6244
1241.000000 0.6351 0.6447 0.6541 0.6621 0.6701
1246.000000 0.6778 0.6855 0.6931 0.7006 0.7081
1251.000000 0.7144 0.7208 0.7274 0.7337 0.7389
1256.000000 0.7436 0.7481 0.7528 0.7569 0.7607
1261.000000 0.7644 0.7680 0.7715 0.7753 0.7788
1266.000000 0.7821 0.7856 0.7890 0.7924 0.7951
1271.000000 0.7978 0.8006 0.8033 0.8058 0.8086
1276.000000 0.8111 0.8139 0.8168 0.8197 0.8225
1281.000000 0.8255 0.8278 0.8301 0.8323 0.8345
1286.000000 0.8357 0.8365 0.8374 0.8381 0.8389
1291.000000 0.8395 0.8395 0.8395 0.8395 0.8395
1296.000000 0.8395 0.8394 0.8394 0.8394 0.8394
1301.000000 0.8389 0.8381 0.8373 0.8365 0.8357
1306.000000 0.8343 0.8328 0.8315 0.8302 0.8289
1311.000000 0.8278 0.8268 0.8268 0.8268 0.8281
1316.000000 0.8296 0.8311 0.8328 0.8346 0.8363
1321.000000 0.8381 0.8400 0.8418 0.8439 0.8459
1326.000000 0.8477 0.8492 0.8506 0.8521 0.8536
1331.000000 0.8545 0.8550 0.8551 0.8552 0.8531
1336.000000 0.8492 0.8433 0.8364 0.8318 0.8295
1341.000000 0.8278 0.8261 0.8236 0.8193 0.8114
1346.000000 0.8021 0.7928 0.7836 0.7740 0.7642
1351.000000 0.7528 0.7437 0.7362 0.7289 0.7094
1356.000000 0.6606 0.5936 0.5527 0.5120 0.4818
1361.000000 0.4759 0.4786 0.4888 0.5053 0.5218
1366.000000 0.5383 0.5547 0.5712 0.5876 0.6040
1371.000000 0.6204 0.6368 0.6531 0.6675 0.6742
1376.000000 0.6758 0.6765 0.6782 0.6761 0.6748
1381.000000 0.6730 0.6704 0.6675 0.6643 0.6599
1386.000000 0.6556 0.6514 0.6471 0.6411 0.6349
1391.000000 0.6256 0.6141 0.6033 0.5869 0.5520
1396.000000 0.4909 0.4354 0.4093 0.3968 0.3850
1401.000000 0.3712 0.3443 0.2818 0.2148 0.1525
1406.000000 0.1216 0.1017 0.0793 0.0672 0.0622
1411.000000 0.0605 0.0604 0.0604 0.0607 0.0614
1416.000000 0.0628 0.0695 0.0899 0.1179 0.1460
1421.000000 0.1740 0.2021 0.2301 0.2580 0.2859
1426.000000 0.3138 0.3416 0.3694 0.3972 0.4249
1431.000000 0.4502 0.4665 0.4893 0.5050 0.5217
1436.000000 0.5393 0.5536 0.5617 0.5681 0.5733
1441.000000 0.5778 0.5810 0.5825 0.5834 0.5833
1446.000000 0.5833 0.5823 0.5810 0.5775 0.5662
1451.000000 0.5503 0.5340 0.5177 0.5015 0.4853
1456.000000 0.4733 0.4734 0.4735 0.4727 0.4756
1461.000000 0.4786 0.4852 0.5057 0.5262 0.5466
1466.000000 0.5670 0.5875 0.6078 0.6282 0.6485
1471.000000 0.6688 0.6890 0.7093 0.7193 0.7182
1476.000000 0.7171 0.7130 0.7010 0.6868 0.6728
1481.000000 0.6588 0.6450 0.6342 0.6306 0.6289
1486.000000 0.6290 0.6290 0.6294 0.6305 0.6370
1491.000000 0.6475 0.6604 0.6733 0.6860 0.6989
1496.000000 0.7147 0.7358 0.7518 0.7641 0.7843
1501.000000 0.8071 0.8197 0.8291 0.8370 0.8437
1506.000000 0.8501 0.8559 0.8602 0.8645 0.8686
1511.000000 0.8725 0.8764 0.8798 0.8827 0.8854
1516.000000 0.8880 0.8907 0.8925 0.8941 0.8959
1521.000000 0.8975 0.8992 0.9009 0.9025 0.9041
1526.000000 0.9057 0.9073 0.9089 0.9105 0.9120
1531.000000 0.9136 0.9156 0.9183 0.9210 0.9237
1536.000000 0.9263 0.9289 0.9315 0.9341 0.9366
1541.000000 0.9390 0.9414 0.9438 0.9463 0.9488
1546.000000 0.9515 0.9542 0.9568 0.9596 0.9625
1551.000000 0.9671 0.9725 0.9775 0.9816 0.9828
1556.000000 0.9825 0.9823 0.9821 0.9816 0.9808
1561.000000 0.9795 0.9785 0.9763 0.9733 0.9691
1566.000000 0.9665 0.9659 0.9653 0.9647 0.9645
1571.000000 0.9644 0.9643 0.9642 0.9641 0.9640
1576.000000 0.9639 0.9638 0.9637 0.9636 0.9635
1581.000000 0.9634 0.9633 0.9633 0.9634 0.9634
1586.000000 0.9634 0.9635 0.9635 0.9635 0.9636
1591.000000 0.9636 0.9636 0.9635 0.9633 0.9627
1596.000000 0.9618 0.9608 0.9593 0.9575 0.9559
1601.000000 0.9541 0.9524 0.9507 0.9490 0.9473
1606.000000 0.9457 0.9440 0.9424 0.9407 0.9390
1611.000000 0.9373 0.9355 0.9337 0.9317 0.9298
1616.000000 0.9280 0.9261 0.9244 0.9225 0.9209
1621.000000 0.9194 0.9181 0.9168 0.9156 0.9145
1626.000000 0.9138 0.9131 0.9125 0.9121 0.9118
1631.000000 0.9115 0.9112 0.9109 0.9106 0.9105
1636.000000 0.9102 0.9099 0.9099 0.9099 0.9096
1641.000000 0.9092 0.9087 0.9078 0.9066 0.9053
1646.000000 0.9041 0.9030 0.9023 0.9017 0.9012
1651.000000 0.9012 0.9013 0.9013 0.9013 0.9014
1656.000000 0.9016 0.9018 0.9021 0.9024 0.9027
1661.000000 0.9035 0.9042 0.9049 0.9057 0.9059
1666.000000 0.9054 0.9049 0.9043 0.9038 0.9032
1671.000000 0.9025 0.9020 0.9014 0.9008 0.9001
1676.000000 0.8995 0.8989 0.8984 0.8978 0.8975
1681.000000 0.8971 0.8966 0.8962 0.8957 0.8953
1686.000000 0.8948 0.8942 0.8936 0.8930 0.8924
1691.000000 0.8917 0.8911 0.8905 0.8899 0.8895
1696.000000 0.8892 0.8888 0.8885 0.8881 0.8878
1701.000000 0.8874 0.8871 0.8870 0.8870 0.8870
1706.000000 0.8871 0.8871 0.8871 0.8871 0.8871
1711.000000 0.8871 0.8870 0.8868 0.8866 0.8864
1716.000000 0.8862 0.8856 0.8848 0.8841 0.8834
1721.000000 0.8827 0.8818 0.8810 0.8801 0.8792
1726.000000 0.8782 0.8773 0.8764 0.8755 0.8746
1731.000000 0.8737 0.8728 0.8715 0.8697 0.8678
1736.000000 0.8655 0.8612 0.8581 0.8558 0.8541
1741.000000 0.8535 0.8534 0.8534 0.8536 0.8538
1746.000000 0.8540 0.8542 0.8545 0.8548 0.8536
1751.000000 0.8558 0.8566 0.8578 0.8589 0.8604
1756.000000 0.8625 0.8653 0.8680 0.8706 0.8734
1761.000000 0.8765 0.8802 0.8838 0.8865 0.8888
1766.000000 0.8911 0.8932 0.8955 0.8987 0.9020
1771.000000 0.9044 0.9055 0.9064 0.9073 0.9078
1776.000000 0.9083 0.9084 0.9085 0.9086 0.9087
1781.000000 0.9088 0.9089 0.9090 0.9091 0.9092
1786.000000 0.9094 0.9096 0.9097 0.9099 0.9100
1791.000000 0.9102 0.9103 0.9105 0.9106 0.9108
1796.000000 0.9110 0.9111 0.9113 0.9114 0.9116
1801.000000 0.9117 0.9118 0.9120 0.9121 0.9123
1806.000000 0.9125 0.9125 0.9128 0.9131 0.9133
1811.000000 0.9135 0.9137 0.9139 0.9141 0.9143
1816.000000 0.9170 0.9148 0.9150 0.9152 0.9152
1821.000000 0.9151 0.9151 0.9151 0.9149 0.9146
1826.000000 0.9141 0.9137 0.9132 0.9128 0.9123
1831.000000 0.9118 0.9116 0.9112 0.9108 0.9104
1836.000000 0.9101 0.9097 0.9093 0.9090 0.9086
1841.000000 0.9082 0.9082 0.9081 0.9080 0.9080
1846.000000 0.9078 0.9078 0.9077 0.9077 0.9075
1851.000000 0.9075 0.9075 0.9075 0.9078 0.9078
1856.000000 0.9081 0.9083 0.9084 0.9086 0.9087
1861.000000 0.9089 0.9089 0.9089 0.9089 0.9087
1866.000000 0.9086 0.9086 0.9084 0.9082 0.9077
1871.000000 0.9070 0.9062 0.9055 0.9047 0.9039
1876.000000 0.9031 0.9023 0.9013 0.9002 0.8991
1881.000000 0.8980 0.8968 0.8960 0.8951 0.8946
1886.000000 0.8941 0.8935 0.8931 0.8925 0.8921
1891.000000 0.8917 0.8913 0.8908 0.8904 0.8897
1896.000000 0.8888 0.8875 0.8864 0.8853 0.8841
1901.000000 0.8825 0.8808 0.8790 0.8771 0.8750
1906.000000 0.8725 0.8697 0.8685 0.8678 0.8674
1911.000000 0.8674 0.8675 0.8675 0.8675 0.8678
1916.000000 0.8678 0.8683 0.8687 0.8691 0.8695
1921.000000 0.8700 0.8706 0.8712 0.8718 0.8725
1926.000000 0.8734 0.8743 0.8752 0.8760 0.8771
1931.000000 0.8784 0.8798 0.8810 0.8823 0.8836
1936.000000 0.8846 0.8855 0.8878 0.8867 0.8867
1941.000000 0.8867 0.8864 0.8861 0.8858 0.8854
1946.000000 0.8851 0.8848 0.8844 0.8841 0.8838
1951.000000 0.8834 0.8831 0.8828 0.8827 0.8825
1956.000000 0.8825 0.8825 0.8824 0.8824 0.8823
1961.000000 0.8823 0.8824 0.8827 0.8830 0.8833
1966.000000 0.8836 0.8839 0.8842 0.8844 0.8846
1971.000000 0.8847 0.8847 0.8847 0.8847 0.8846
1976.000000 0.8839 0.8833 0.8825 0.8818 0.8813
1981.000000 0.8806 0.8800 0.8794 0.8787 0.8780
1986.000000 0.8773 0.8766 0.8758 0.8749 0.8742
1991.000000 0.8734 0.8725 0.8721 0.8718 0.8717
1996.000000 0.8715 0.8713 0.8711 0.8710 0.8709
2001.000000 0.8707 0.8687 0.8703 0.8703 0.8704
2006.000000 0.8706 0.8708 0.8709 0.8711 0.8714
2011.000000 0.8718 0.8724 0.8732 0.8740 0.8750
2016.000000 0.8760 0.8778 0.8796 0.8813 0.8828
2021.000000 0.8841 0.8852 0.8861 0.8864 0.8867
2026.000000 0.8870 0.8871 0.8874 0.8874 0.8874
2031.000000 0.8874 0.8874 0.8874 0.8873 0.8870
2036.000000 0.8866 0.8863 0.8860 0.8856 0.8849
2041.000000 0.8841 0.8832 0.8823 0.8815 0.8807
2046.000000 0.8800 0.8793 0.8787 0.8782 0.8778
2051.000000 0.8773 0.8771 0.8771 0.8770 0.8768
2056.000000 0.8767 0.8766 0.8765 0.8765 0.8765
2061.000000 0.8765 0.8765 0.8765 0.8765 0.8767
2066.000000 0.8768 0.8770 0.8771 0.8774 0.8778
2071.000000 0.8782 0.8790 0.8799 0.8806 0.8814
2076.000000 0.8821 0.8827 0.8834 0.8841 0.8850
2081.000000 0.8858 0.8866 0.8874 0.8882 0.8891
2086.000000 0.8900 0.8908 0.8917 0.8925 0.8936
2091.000000 0.8945 0.8955 0.8961 0.8967 0.8973
2096.000000 0.8978 0.8982 0.8985 0.8987 0.8990
2101.000000 0.8993 0.8993 0.8992 0.8992 0.8991
2106.000000 0.8991 0.8990 0.8988 0.8987 0.8986
2111.000000 0.8983 0.8980 0.8978 0.8975 0.8973
2116.000000 0.8970 0.8968 0.8965 0.8963 0.8960
2121.000000 0.8958 0.8956 0.8953 0.8951 0.8948
2126.000000 0.8946 0.8944 0.8942 0.8940 0.8937
2131.000000 0.8935 0.8934 0.8933 0.8932 0.8931
2136.000000 0.8931 0.8930 0.8928 0.8928 0.8928
2141.000000 0.8927 0.8927 0.8925 0.8925 0.8925
2146.000000 0.8925 0.8925 0.8925 0.8925 0.8925
2151.000000 0.8925 0.8925 0.8925 0.8925 0.8925
2156.000000 0.8925 0.8925 0.8925 0.8925 0.8925
2161.000000 0.8925 0.8925 0.8925 0.8925 0.8925
2166.000000 0.8925 0.8925 0.8925 0.8925 0.8925
2171.000000 0.8925 0.8925 0.8925 0.8925 0.8925
2176.000000 0.8925 0.8925 0.8925 0.8925 0.8925
2181.000000 0.8925 0.8925 0.8925 0.8925 0.8925
2186.000000 0.8925 0.8925 0.8924 0.8924 0.8924
2191.000000 0.8924 0.8923 0.8923 0.8923 0.8923
2196.000000 0.8923 0.8921 0.8921 0.8921 0.8921
2201.000000 0.8921 0.8921 0.8921 0.8921 0.8920
2206.000000 0.8920 0.8920 0.8920 0.8920 0.8920
2211.000000 0.8920 0.8920 0.8920 0.8920 0.8918
2216.000000 0.8918 0.8918 0.8918 0.8918 0.8918
2221.000000 0.8918 0.8918 0.8918 0.8918 0.8918
2226.000000 0.8918 0.8918 0.8918 0.8918 0.8918
2231.000000 0.8918 0.8918 0.8918 0.8918 0.8918
2236.000000 0.8920 0.8921 0.8923 0.8925 0.8925
2241.000000 0.8928 0.8928 0.8931 0.8932 0.8934
2246.000000 0.8935 0.8937 0.8938 0.8940 0.8941
2251.000000 0.8943 0.8944 0.8946 0.8948 0.8951
2256.000000 0.8954 0.8957 0.8959 0.8962 0.8965
2261.000000 0.8968 0.8971 0.8974 0.8975 0.8978
2266.000000 0.8980 0.8982 0.8984 0.8985 0.8987
2271.000000 0.8989 0.8991 0.8993 0.8995 0.8997
2276.000000 0.8998 0.8999 0.8999 0.9000 0.9001
2281.000000 0.9001 0.9002 0.9002 0.9003 0.9004
2286.000000 0.9005 0.9005 0.9005 0.9004 0.9002
2291.000000 0.9000 0.8997 0.8995 0.8992 0.8990
2296.000000 0.8987 0.8984 0.8981 0.8978 0.8974
2301.000000 0.8971 0.8968 0.8964 0.8961 0.8958
2306.000000 0.8954 0.8951 0.8948 0.8945 0.8941
2311.000000 0.8939 0.8937 0.8935 0.8932 0.8930
2316.000000 0.8928 0.8925 0.8923 0.8921 0.8918
2321.000000 0.8916 0.8914 0.8912 0.8912 0.8912
2326.000000 0.8913 0.8913 0.8914 0.8915 0.8916
2331.000000 0.8916 0.8916 0.8917 0.8918 0.8918
2336.000000 0.8918 0.8920 0.8921 0.8923 0.8925
2341.000000 0.8927 0.8928 0.8931 0.8933 0.8935
2346.000000 0.8937 0.8939 0.8941 0.8942 0.8944
2351.000000 0.8946 0.8948 0.8950 0.8951 0.8954
2356.000000 0.8956 0.8958 0.8960 0.8962 0.8964
2361.000000 0.8966 0.8968 0.8971 0.8973 0.8975
2366.000000 0.8977 0.8980 0.8982 0.8983 0.8985
2371.000000 0.8987 0.8990 0.8992 0.8994 0.8996
2376.000000 0.8999 0.9001 0.9003 0.9005 0.9007
2381.000000 0.9009 0.9011 0.9013 0.9015 0.9017
2386.000000 0.9020 0.9021 0.9024 0.9025 0.9028
2391.000000 0.9031 0.9033 0.9035 0.9037 0.9039
2396.000000 0.9041 0.9044 0.9046 0.9048 0.9050
2401.000000 0.9052 0.9055 0.9057 0.9060 0.9062
2406.000000 0.9064 0.9067 0.9068 0.9071 0.9074
2411.000000 0.9075 0.9078 0.9081 0.9083 0.9084
2416.000000 0.9084 0.9084 0.9084 0.9084 0.9084
2421.000000 0.9083 0.9083 0.9082 0.9080 0.9078
2426.000000 0.9074 0.9070 0.9066 0.9062 0.9057
2431.000000 0.9051 0.9046 0.9040 0.9035 0.9031
2436.000000 0.9027 0.9024 0.9023 0.9023 0.9021
2441.000000 0.9021 0.9021 0.9021 0.9021 0.9021
2446.000000 0.9021 0.9023 0.9024 0.9025 0.9025
2451.000000 0.9025 0.9025 0.9027 0.9028 0.9028
2456.000000 0.9028 0.9028 0.9030 0.9031 0.9031
2461.000000 0.9032 0.9033 0.9033 0.9034 0.9035
2466.000000 0.9036 0.9037 0.9038 0.9038 0.9039
2471.000000 0.9040 0.9042 0.9043 0.9043 0.9044
2476.000000 0.9045 0.9046 0.9046 0.9046 0.9046
2481.000000 0.9045 0.9044 0.9043 0.9042 0.9042
2486.000000 0.9040 0.9039 0.9038 0.9037 0.9036
2491.000000 0.9034 0.9032 0.9030 0.9028 0.9025
2496.000000 0.9024 0.9021 0.9018 0.9015 0.9012
2501.000000 0.9006 0.9000 0.8995 0.8989 0.8983
2506.000000 0.8975 0.8970 0.8963 0.8956 0.8949
2511.000000 0.8941 0.8934 0.8925 0.8918 0.8912
2516.000000 0.8905 0.8898 0.8891 0.8884 0.8878
2521.000000 0.8871 0.8867 0.8862 0.8857 0.8853
2526.000000 0.8852 0.8852 0.8852 0.8852 0.8852
2531.000000 0.8852 0.8852 0.8853 0.8853 0.8853
2536.000000 0.8853 0.8853 0.8853 0.8853 0.8853
2541.000000 0.8854 0.8854 0.8854 0.8854 0.8854
2546.000000 0.8854 0.8854 0.8854 0.8854 0.8854
2551.000000 0.8854 0.8854 0.8854 0.8854 0.8854
2556.000000 0.8854 0.8853 0.8853 0.8853 0.8853
2561.000000 0.8853 0.8852 0.8852 0.8852 0.8851
2566.000000 0.8851 0.8850 0.8850 0.8850 0.8849
2571.000000 0.8849 0.8849 0.8848 0.8847 0.8846
2576.000000 0.8844 0.8843 0.8842 0.8841 0.8839
2581.000000 0.8838 0.8836 0.8835 0.8833 0.8832
2586.000000 0.8831 0.8830 0.8828 0.8827 0.8825
2591.000000 0.8824 0.8823 0.8821 0.8820 0.8818
2596.000000 0.8818 0.8817 0.8816 0.8815 0.8815
2601.000000 0.8815 0.8814 0.8813 0.8813 0.8811
2606.000000 0.8810 0.8806 0.8783 0.8759 0.8736
2611.000000 0.8714 0.8691 0.8668 0.8646 0.8623
2616.000000 0.8600 0.8578 0.8555 0.8532 0.8509
2621.000000 0.8486 0.8464 0.8441 0.8418 0.8396
2626.000000 0.8374 0.8351 0.8328 0.8305 0.8283
2631.000000 0.8260 0.8238 0.8216 0.8193 0.8171
2636.000000 0.8151 0.8132 0.8122 0.8115 0.8108
2641.000000 0.8108 0.8107 0.8106 0.8106 0.8106
2646.000000 0.8106 0.8107 0.8107 0.8108 0.8108
2651.000000 0.8108 0.8110 0.8111 0.8112 0.8112
2656.000000 0.8112 0.8114 0.8114 0.8115 0.8115
