##TITLE=EPIFLUOROHYDRIN
##JCAMP-DX=4.24
##DATA TYPE=INFRARED SPECTRUM
##CLASS=COBLENTZ
##ORIGIN=DOW CHEMICAL COMPANY
##OWNER=COBLENTZ SOC.
Collection (C) 2018 copyright by the U.S. Secretary of Commerce
on behalf of the United States of America. All rights reserved.
##DATE=1961/03/03
##NAMES=2-(fluoromethyl)oxirane
##CAS REGISTRY NO=503-09-3
##MOLFORM=C3 H5 F O
##SOURCE REFERENCE=COBLENTZ NO. 06628
##$NIST SOURCE=COBLENTZ
##$NIST IMAGE=cob6628
##SPECTROMETER/DATA SYSTEM=DOW KBr FOREPRISM-GRATING
##INSTRUMENT PARAMETERS=BLAZED AT 3.5, 12.0, 20.0 MICRON AND CHANGED AT 5.0, 7.5, 14.9 MICRON
##STATE=SOLUTION (10% CCl4 FOR 3800-1330, 10% CS2 FOR 1330-440 CM^-^1)
##PATH LENGTH=0.011 CM, 0.011 CM
$$SPECTRAL CONTAMINATION DUE TO CCl4 AROUND 1550, AND AN UNKNOWN (C=O) AROUND 1740 CM^-^1
##SAMPLING PROCEDURE=TRANSMISSION
##RESOLUTION=2
##DATA PROCESSING=DIGITIZED BY COBLENTZ SOCIETY (BATCH I) FROM HARD COPY
##XUNITS=1/CM
##YUNITS=TRANSMITTANCE
##XLABEL=Wavenumbers (cm-1)
##YLABEL=% Transmission
##XFACTOR=1
##YFACTOR=1
##DELTAX=1
##FIRSTX=442
##LASTX=3800
##FIRSTY=0.8132
##MAXX=3800
##MINX=442
##MAXY=1.0262
##MINY=0.0104
##NPOINTS=3359
##XYDATA=(X++(Y..Y))
442.000000 0.8132 0.8132 0.8132 0.8131 0.8130
447.000000 0.8131 0.8131 0.8132 0.8133 0.8134
452.000000 0.8135 0.8136 0.8136 0.8134 0.8132
457.000000 0.8131 0.8128 0.8128 0.8125 0.8118
462.000000 0.8111 0.8104 0.8096 0.8085 0.8061
467.000000 0.8038 0.8011 0.7982 0.7954 0.7925
472.000000 0.7889 0.7851 0.7815 0.7769 0.7706
477.000000 0.7643 0.7578 0.7362 0.7115 0.6867
482.000000 0.6618 0.6372 0.6124 0.5876 0.5628
487.000000 0.5380 0.5132 0.4662 0.4427 0.4394
492.000000 0.4395 0.4388 0.4406 0.4446 0.4539
497.000000 0.4697 0.5323 0.5686 0.6050 0.6412
502.000000 0.7290 0.7503 0.7635 0.7765 0.7856
507.000000 0.7945 0.8089 0.8433 0.8518 0.8604
512.000000 0.8690 0.8754 0.8817 0.8880 0.8933
517.000000 0.8978 0.9023 0.9068 0.9113 0.9156
522.000000 0.9193 0.9230 0.9266 0.9303 0.9337
527.000000 0.9357 0.9377 0.9397 0.9417 0.9436
532.000000 0.9456 0.9475 0.9496 0.9514 0.9530
537.000000 0.9547 0.9563 0.9578 0.9596 0.9612
542.000000 0.9624 0.9632 0.9640 0.9647 0.9655
547.000000 0.9663 0.9671 0.9678 0.9685 0.9686
552.000000 0.9687 0.9687 0.9688 0.9689 0.9690
557.000000 0.9690 0.9690 0.9687 0.9683 0.9680
562.000000 0.9675 0.9673 0.9668 0.9661 0.9653
567.000000 0.9645 0.9637 0.9628 0.9621 0.9613
572.000000 0.9605 0.9594 0.9583 0.9571 0.9560
577.000000 0.9549 0.9537 0.9525 0.9512 0.9497
582.000000 0.9482 0.9467 0.9452 0.9437 0.9421
587.000000 0.9397 0.9367 0.9338 0.9299 0.9257
592.000000 0.9214 0.9171 0.9118 0.9021 0.8920
597.000000 0.8813 0.8686 0.8438 0.7867 0.7456
602.000000 0.7237 0.7145 0.7118 0.7108 0.7158
607.000000 0.7258 0.7381 0.8556 0.8684 0.8787
612.000000 0.8910 0.9036 0.9128 0.9221 0.9315
617.000000 0.9408 0.9455 0.9498 0.9527 0.9546
622.000000 0.9546 0.9547 0.9542 0.9533 0.9521
627.000000 0.9506 0.9485 0.9464 0.9444 0.9424
632.000000 0.9404 0.9384 0.9364 0.9344 0.9324
637.000000 0.9304 0.9285 0.9265 0.9245 0.9224
642.000000 0.9202 0.9181 0.9159 0.9139 0.9121
647.000000 0.9104 0.9089 0.9075 0.9062 0.9048
652.000000 0.9030 0.9066 0.9141 0.9200 0.9258
657.000000 0.9314 0.9383 0.9451 0.9497 0.9543
662.000000 0.9584 0.9616 0.9648 0.9675 0.9697
667.000000 0.9718 0.9739 0.9751 0.9759 0.9768
672.000000 0.9775 0.9778 0.9782 0.9784 0.9785
677.000000 0.9785 0.9785 0.9782 0.9778 0.9774
682.000000 0.9770 0.9761 0.9752 0.9744 0.9731
687.000000 0.9718 0.9702 0.9685 0.9667 0.9655
692.000000 0.9650 0.9663 0.9654 0.9660 0.9675
697.000000 0.9691 0.9706 0.9718 0.9730 0.9741
702.000000 0.9746 0.9747 0.9747 0.9747 0.9746
707.000000 0.9742 0.9739 0.9727 0.9712 0.9694
712.000000 0.9671 0.9650 0.9625 0.9600 0.9574
717.000000 0.9549 0.9525 0.9485 0.9437 0.9355
722.000000 0.9177 0.9018 0.8889 0.8778 0.8616
727.000000 0.8598 0.8592 0.8586 0.8581 0.8578
732.000000 0.8578 0.8566 0.8513 0.8355 0.8121
737.000000 0.7983 0.7844 0.7706 0.7584 0.7462
742.000000 0.7348 0.7260 0.7180 0.7099 0.7061
747.000000 0.7037 0.7030 0.7034 0.7105 0.7200
752.000000 0.7264 0.7303 0.7303 0.7301 0.7294
757.000000 0.7265 0.7069 0.6636 0.6201 0.5766
762.000000 0.5331 0.4897 0.4462 0.4027 0.3592
767.000000 0.3272 0.3272 0.3282 0.4124 0.5054
772.000000 0.5984 0.6830 0.7048 0.7311 0.7878
777.000000 0.8071 0.8181 0.8251 0.8275 0.8298
782.000000 0.8271 0.8265 0.8239 0.8211 0.8171
787.000000 0.8114 0.8057 0.7975 0.7883 0.7792
792.000000 0.7701 0.7611 0.7511 0.7372 0.7236
797.000000 0.7098 0.6960 0.6778 0.6728 0.6715
802.000000 0.6706 0.6743 0.6832 0.7018 0.7204
807.000000 0.7390 0.7575 0.7761 0.7871 0.7928
812.000000 0.7965 0.7975 0.7975 0.7971 0.7972
817.000000 0.7949 0.7935 0.7910 0.7880 0.7850
822.000000 0.7774 0.7678 0.7565 0.7269 0.6975
827.000000 0.6808 0.6515 0.5851 0.5186 0.4522
832.000000 0.4236 0.3690 0.3144 0.2720 0.2625
837.000000 0.2620 0.2649 0.2709 0.2756 0.2788
842.000000 0.2792 0.2779 0.2746 0.2646 0.2397
847.000000 0.2127 0.1857 0.1587 0.1317 0.1121
852.000000 0.1049 0.1052 0.1034 0.1066 0.1126
857.000000 0.1190 0.1473 0.2220 0.2967 0.3712
862.000000 0.4649 0.4928 0.5462 0.5742 0.5967
867.000000 0.6162 0.6296 0.6430 0.6562 0.6696
872.000000 0.6828 0.6933 0.7030 0.7112 0.7153
877.000000 0.7193 0.7233 0.7248 0.7261 0.7269
882.000000 0.7267 0.7268 0.7268 0.7251 0.7238
887.000000 0.7218 0.7186 0.7154 0.7106 0.7040
892.000000 0.6921 0.6767 0.6578 0.6366 0.5923
897.000000 0.5605 0.5109 0.4592 0.4075 0.3558
902.000000 0.3041 0.2524 0.2007 0.1490 0.0974
907.000000 0.0543 0.0473 0.0455 0.0448 0.0484
912.000000 0.0492 0.1344 0.2292 0.3241 0.4029
917.000000 0.4088 0.4139 0.4184 0.4227 0.4284
922.000000 0.4359 0.4489 0.4718 0.5040 0.5275
927.000000 0.5595 0.6100 0.6967 0.7095 0.7141
932.000000 0.7151 0.7156 0.7156 0.7155 0.7148
937.000000 0.7136 0.7122 0.7091 0.7025 0.6908
942.000000 0.6804 0.6443 0.6032 0.5622 0.5210
947.000000 0.4801 0.4391 0.4164 0.4162 0.4162
952.000000 0.4709 0.5257 0.5727 0.5934 0.6144
957.000000 0.6319 0.6465 0.6584 0.6690 0.6783
962.000000 0.6871 0.6933 0.6975 0.6996 0.7014
967.000000 0.7010 0.6980 0.6945 0.6889 0.6828
972.000000 0.6785 0.6784 0.6783 0.6789 0.6797
977.000000 0.6817 0.6832 0.6843 0.6843 0.6821
982.000000 0.6821 0.6793 0.6755 0.6708 0.6656
987.000000 0.6578 0.6508 0.6433 0.6343 0.6234
992.000000 0.6098 0.5896 0.5438 0.5277 0.5120
997.000000 0.4939 0.4685 0.4362 0.4041 0.3718
1002.000000 0.3397 0.3157 0.2968 0.2145 0.1740
1007.000000 0.1503 0.1196 0.0968 0.0814 0.0551
1012.000000 0.0346 0.0233 0.0166 0.0141 0.0124
1017.000000 0.0111 0.0104 0.0104 0.0104 0.0112
1022.000000 0.0120 0.0133 0.0164 0.0199 0.0233
1027.000000 0.0274 0.0336 0.0408 0.0676 0.1056
1032.000000 0.1436 0.1816 0.2196 0.2576 0.2956
1037.000000 0.3336 0.3716 0.4097 0.4477 0.4610
1042.000000 0.4785 0.4874 0.4917 0.4937 0.4945
1047.000000 0.4946 0.4937 0.4930 0.4923 0.4920
1052.000000 0.4920 0.4923 0.4940 0.4973 0.5024
1057.000000 0.5078 0.5200 0.5927 0.6217 0.6312
1062.000000 0.6331 0.6328 0.6337 0.6310 0.6299
1067.000000 0.6288 0.6245 0.6189 0.6136 0.6052
1072.000000 0.5957 0.5849 0.5748 0.5652 0.5553
1077.000000 0.5351 0.5099 0.4808 0.4518 0.4227
1082.000000 0.3937 0.3714 0.3628 0.3566 0.3527
1087.000000 0.3493 0.3502 0.3744 0.4241 0.4739
1092.000000 0.5236 0.5734 0.6232 0.6414 0.6572
1097.000000 0.6754 0.6919 0.7022 0.7142 0.7278
1102.000000 0.7521 0.7672 0.7774 0.7844 0.7890
1107.000000 0.7974 0.8106 0.8332 0.8441 0.8478
1112.000000 0.8487 0.8493 0.8515 0.8489 0.8486
1117.000000 0.8478 0.8468 0.8454 0.8423 0.8360
1122.000000 0.8299 0.8239 0.8180 0.8114 0.8042
1127.000000 0.7950 0.7822 0.7647 0.7315 0.7249
1132.000000 0.7228 0.7236 0.7250 0.7364 0.7521
1137.000000 0.7676 0.7834 0.7991 0.8148 0.8275
1142.000000 0.8316 0.8357 0.8333 0.8331 0.8328
1147.000000 0.8321 0.8313 0.8295 0.8275 0.8239
1152.000000 0.8153 0.8051 0.7947 0.7844 0.7761
1157.000000 0.7680 0.7645 0.7631 0.7630 0.7593
1162.000000 0.7962 0.8135 0.8308 0.8480 0.8652
1167.000000 0.8824 0.8906 0.8925 0.8936 0.8938
1172.000000 0.8940 0.8942 0.8944 0.8946 0.8947
1177.000000 0.8947 0.8947 0.8948 0.8952 0.8966
1182.000000 0.9023 0.9075 0.9113 0.9150 0.9190
1187.000000 0.9231 0.9266 0.9298 0.9328 0.9351
1192.000000 0.9361 0.9363 0.9364 0.9363 0.9362
1197.000000 0.9358 0.9350 0.9342 0.9330 0.9315
1202.000000 0.9300 0.9277 0.9250 0.9220 0.9191
1207.000000 0.9148 0.9092 0.9032 0.8971 0.8913
1212.000000 0.8848 0.8781 0.8714 0.8645 0.8575
1217.000000 0.8505 0.8434 0.8351 0.8266 0.8149
1222.000000 0.8032 0.7914 0.7797 0.7678 0.7561
1227.000000 0.7435 0.7381 0.7365 0.7367 0.7394
1232.000000 0.7443 0.7488 0.7504 0.7504 0.7504
1237.000000 0.7495 0.7465 0.7418 0.7364 0.7224
1242.000000 0.7010 0.6796 0.6582 0.6369 0.6155
1247.000000 0.5941 0.5727 0.5442 0.5247 0.5191
1252.000000 0.5167 0.5158 0.5133 0.5168 0.5193
1257.000000 0.5224 0.5277 0.5437 0.5655 0.5872
1262.000000 0.6090 0.6269 0.6343 0.6418 0.6493
1267.000000 0.6601 0.6788 0.6971 0.7157 0.7434
1272.000000 0.7551 0.7603 0.7643 0.7698 0.7784
1277.000000 0.7926 0.8375 0.8545 0.8785 0.8998
1282.000000 0.9065 0.9110 0.9149 0.9184 0.9218
1287.000000 0.9252 0.9282 0.9313 0.9343 0.9363
1292.000000 0.9382 0.9402 0.9421 0.9434 0.9447
1297.000000 0.9460 0.9468 0.9474 0.9478 0.9484
1302.000000 0.9487 0.9475 0.9483 0.9481 0.9477
1307.000000 0.9471 0.9468 0.9464 0.9459 0.9452
1312.000000 0.9445 0.9438 0.9428 0.9418 0.9408
1317.000000 0.9398 0.9387 0.9375 0.9364 0.9351
1322.000000 0.9334 0.9318 0.9298 0.9277 0.9256
1327.000000 0.9236 0.9211 0.9184 0.9157 0.9121
1332.000000 0.9081 0.9040 0.8993 0.8930 0.8864
1337.000000 0.8792 0.8720 0.8524 0.8321 0.8168
1342.000000 0.7865 0.7321 0.7004 0.6686 0.6369
1347.000000 0.6334 0.6392 0.6674 0.6955 0.7237
1352.000000 0.7275 0.7255 0.7238 0.7211 0.7167
1357.000000 0.7118 0.7060 0.6986 0.6587 0.5923
1362.000000 0.5268 0.5285 0.5371 0.5933 0.6495
1367.000000 0.7058 0.7619 0.8199 0.8332 0.8457
1372.000000 0.8518 0.8555 0.8560 0.8563 0.8587
1377.000000 0.8555 0.8537 0.8518 0.8499 0.8480
1382.000000 0.8454 0.8428 0.8401 0.8374 0.8348
1387.000000 0.8321 0.8295 0.8275 0.8278 0.8293
1392.000000 0.8320 0.8346 0.8375 0.8396 0.8398
1397.000000 0.8387 0.8375 0.8363 0.8352 0.8328
1402.000000 0.8298 0.8248 0.8182 0.8068 0.7821
1407.000000 0.7791 0.7794 0.7812 0.7875 0.7931
1412.000000 0.7955 0.7954 0.7954 0.7944 0.7928
1417.000000 0.7911 0.7855 0.7733 0.7606 0.7491
1422.000000 0.7392 0.7297 0.7208 0.7119 0.7012
1427.000000 0.6895 0.6618 0.6281 0.5945 0.5608
1432.000000 0.5272 0.5253 0.5385 0.5783 0.6181
1437.000000 0.6578 0.6975 0.7374 0.7771 0.8008
1442.000000 0.8034 0.8026 0.8019 0.8003 0.7965
1447.000000 0.7830 0.7621 0.7411 0.7201 0.6993
1452.000000 0.6784 0.6575 0.6365 0.6156 0.6087
1457.000000 0.6073 0.6388 0.6632 0.6875 0.7118
1462.000000 0.7321 0.7528 0.7637 0.7715 0.7801
1467.000000 0.7828 0.7850 0.7850 0.7838 0.7819
1472.000000 0.7796 0.7772 0.7756 0.7751 0.7768
1477.000000 0.7781 0.7782 0.7707 0.7601 0.7497
1482.000000 0.7391 0.7286 0.7181 0.7075 0.7004
1487.000000 0.7008 0.6996 0.7380 0.7639 0.7898
1492.000000 0.8000 0.8015 0.8015 0.8025 0.7997
1497.000000 0.7971 0.7944 0.7917 0.7890 0.7864
1502.000000 0.7838 0.7811 0.7785 0.7756 0.7728
1507.000000 0.7699 0.7669 0.7641 0.7606 0.7571
1512.000000 0.7536 0.7501 0.7465 0.7431 0.7395
1517.000000 0.7358 0.7321 0.7285 0.7249 0.7207
1522.000000 0.7161 0.7117 0.7071 0.7018 0.6949
1527.000000 0.6878 0.6807 0.6712 0.6611 0.6510
1532.000000 0.6394 0.6269 0.6145 0.6020 0.5896
1537.000000 0.5770 0.5643 0.5516 0.5422 0.5335
1542.000000 0.5251 0.5190 0.5130 0.5094 0.5069
1547.000000 0.5060 0.5054 0.5047 0.5047 0.5047
1552.000000 0.5048 0.5050 0.5062 0.5075 0.5105
1557.000000 0.5175 0.5283 0.5351 0.5419 0.5487
1562.000000 0.5555 0.5623 0.5691 0.5759 0.5827
1567.000000 0.5895 0.5962 0.6031 0.6099 0.6167
1572.000000 0.6235 0.6303 0.6371 0.6439 0.6507
1577.000000 0.6562 0.6610 0.6661 0.6708 0.6741
1582.000000 0.6774 0.6796 0.6817 0.6838 0.6857
1587.000000 0.6876 0.6903 0.6934 0.6971 0.7014
1592.000000 0.7062 0.7118 0.7181 0.7244 0.7315
1597.000000 0.7390 0.7465 0.7540 0.7680 0.7815
1602.000000 0.7948 0.8053 0.8128 0.8202 0.8277
1607.000000 0.8354 0.8431 0.8509 0.8587 0.8666
1612.000000 0.8744 0.8809 0.8874 0.8938 0.8992
1617.000000 0.9046 0.9100 0.9130 0.9159 0.9184
1622.000000 0.9206 0.9220 0.9230 0.9240 0.9244
1627.000000 0.9245 0.9245 0.9243 0.9242 0.9242
1632.000000 0.9241 0.9262 0.9285 0.9303 0.9318
1637.000000 0.9333 0.9345 0.9351 0.9357 0.9363
1642.000000 0.9363 0.9363 0.9362 0.9360 0.9359
1647.000000 0.9362 0.9366 0.9385 0.9416 0.9448
1652.000000 0.9490 0.9532 0.9553 0.9556 0.9559
1657.000000 0.9562 0.9565 0.9557 0.9549 0.9541
1662.000000 0.9533 0.9521 0.9509 0.9498 0.9486
1667.000000 0.9474 0.9461 0.9448 0.9435 0.9421
1672.000000 0.9406 0.9389 0.9371 0.9356 0.9339
1677.000000 0.9316 0.9294 0.9271 0.9260 0.9250
1682.000000 0.9250 0.9264 0.9283 0.9304 0.9324
1687.000000 0.9345 0.9356 0.9362 0.9361 0.9360
1692.000000 0.9358 0.9357 0.9356 0.9343 0.9330
1697.000000 0.9311 0.9286 0.9259 0.9191 0.9134
1702.000000 0.9077 0.9024 0.8973 0.8923 0.8871
1707.000000 0.8821 0.8724 0.8611 0.8498 0.8383
1712.000000 0.8268 0.8155 0.8041 0.7926 0.7818
1717.000000 0.7712 0.7607 0.7500 0.7405 0.7325
1722.000000 0.7246 0.7165 0.7087 0.6997 0.6907
1727.000000 0.6801 0.6634 0.6465 0.6289 0.6150
1732.000000 0.6053 0.5979 0.5908 0.5899 0.5889
1737.000000 0.5889 0.5889 0.5892 0.5899 0.5927
1742.000000 0.6127 0.6223 0.6320 0.6418 0.6488
1747.000000 0.6542 0.6582 0.6621 0.6653 0.6683
1752.000000 0.6712 0.6756 0.6804 0.6876 0.7031
1757.000000 0.7919 0.8574 0.8915 0.9053 0.9128
1762.000000 0.9201 0.9247 0.9293 0.9339 0.9391
1767.000000 0.9455 0.9499 0.9540 0.9567 0.9591
1772.000000 0.9610 0.9618 0.9627 0.9635 0.9644
1777.000000 0.9657 0.9670 0.9683 0.9696 0.9708
1782.000000 0.9721 0.9734 0.9747 0.9757 0.9766
1787.000000 0.9775 0.9785 0.9794 0.9803 0.9813
1792.000000 0.9821 0.9832 0.9841 0.9843 0.9844
1797.000000 0.9845 0.9846 0.9847 0.9848 0.9848
1802.000000 0.9848 0.9847 0.9847 0.9846 0.9845
1807.000000 0.9844 0.9844 0.9842 0.9838 0.9835
1812.000000 0.9832 0.9828 0.9828 0.9828 0.9827
1817.000000 0.9827 0.9825 0.9825 0.9824 0.9823
1822.000000 0.9821 0.9821 0.9823 0.9828 0.9832
1827.000000 0.9837 0.9842 0.9847 0.9851 0.9856
1832.000000 0.9860 0.9858 0.9857 0.9855 0.9853
1837.000000 0.9849 0.9845 0.9841 0.9836 0.9832
1842.000000 0.9832 0.9832 0.9833 0.9834 0.9835
1847.000000 0.9835 0.9836 0.9837 0.9838 0.9839
1852.000000 0.9841 0.9844 0.9847 0.9849 0.9852
1857.000000 0.9854 0.9857 0.9860 0.9862 0.9865
1862.000000 0.9868 0.9871 0.9874 0.9878 0.9881
1867.000000 0.9884 0.9888 0.9891 0.9894 0.9898
1872.000000 0.9901 0.9904 0.9908 0.9909 0.9909
1877.000000 0.9909 0.9908 0.9908 0.9908 0.9908
1882.000000 0.9908 0.9908 0.9907 0.9907 0.9907
1887.000000 0.9907 0.9907 0.9907 0.9907 0.9907
1892.000000 0.9907 0.9908 0.9908 0.9908 0.9909
1897.000000 0.9909 0.9909 0.9910 0.9910 0.9910
1902.000000 0.9911 0.9915 0.9920 0.9925 0.9930
1907.000000 0.9935 0.9940 0.9945 0.9950 0.9951
1912.000000 0.9951 0.9947 0.9943 0.9939 0.9935
1917.000000 0.9928 0.9920 0.9911 0.9902 0.9894
1922.000000 0.9885 0.9877 0.9868 0.9861 0.9855
1927.000000 0.9851 0.9847 0.9843 0.9839 0.9839
1932.000000 0.9839 0.9842 0.9846 0.9850 0.9860
1937.000000 0.9870 0.9883 0.9896 0.9909 0.9923
1942.000000 0.9937 0.9951 0.9965 0.9971 0.9978
1947.000000 0.9984 0.9986 0.9986 0.9986 0.9987
1952.000000 0.9987 0.9987 0.9988 0.9988 0.9988
1957.000000 0.9989 1.0057 1.0217 1.0262 1.0137
1962.000000 0.9977 0.9968 0.9963 0.9957 0.9951
1967.000000 0.9946 0.9942 0.9934 0.9925 0.9915
1972.000000 0.9907 0.9899 0.9891 0.9883 0.9875
1977.000000 0.9868 0.9862 0.9855 0.9848 0.9841
1982.000000 0.9835 0.9828 0.9821 0.9815 0.9808
1987.000000 0.9801 0.9793 0.9785 0.9723 0.9675
1992.000000 0.9735 0.9784 0.9780 0.9775 0.9768
1997.000000 0.9762 0.9752 0.9741 0.9728 0.9716
2002.000000 0.9704 0.9696 0.9689 0.9681 0.9674
2007.000000 0.9667 0.9660 0.9656 0.9653 0.9649
2012.000000 0.9646 0.9643 0.9640 0.9639 0.9638
2017.000000 0.9638 0.9639 0.9640 0.9641 0.9643
2022.000000 0.9645 0.9648 0.9652 0.9655 0.9658
2027.000000 0.9661 0.9665 0.9668 0.9671 0.9675
2032.000000 0.9678 0.9684 0.9689 0.9693 0.9698
2037.000000 0.9703 0.9708 0.9713 0.9718 0.9723
2042.000000 0.9728 0.9732 0.9737 0.9742 0.9747
2047.000000 0.9753 0.9760 0.9767 0.9774 0.9780
2052.000000 0.9787 0.9794 0.9801 0.9808 0.9815
2057.000000 0.9823 0.9831 0.9839 0.9847 0.9855
2062.000000 0.9863 0.9871 0.9880 0.9888 0.9896
2067.000000 0.9902 0.9909 0.9914 0.9918 0.9924
2072.000000 0.9930 0.9935 0.9940 0.9939 0.9938
2077.000000 0.9936 0.9935 0.9932 0.9930 0.9928
2082.000000 0.9925 0.9924 0.9921 0.9918 0.9916
2087.000000 0.9912 0.9908 0.9904 0.9900 0.9896
2092.000000 0.9892 0.9888 0.9885 0.9881 0.9878
2097.000000 0.9874 0.9871 0.9867 0.9864 0.9860
2102.000000 0.9857 0.9854 0.9851 0.9852 0.9853
2107.000000 0.9853 0.9854 0.9855 0.9856 0.9857
2112.000000 0.9858 0.9859 0.9860 0.9862 0.9865
2117.000000 0.9868 0.9871 0.9875 0.9880 0.9885
2122.000000 0.9891 0.9894 0.9898 0.9899 0.9901
2127.000000 0.9902 0.9904 0.9904 0.9905 0.9905
2132.000000 0.9906 0.9906 0.9906 0.9906 0.9906
2137.000000 0.9906 0.9906 0.9906 0.9906 0.9904
2142.000000 0.9903 0.9902 0.9901 0.9899 0.9898
2147.000000 0.9896 0.9895 0.9893 0.9892 0.9891
2152.000000 0.9890 0.9890 0.9890 0.9890 0.9891
2157.000000 0.9891 0.9892 0.9892 0.9893 0.9894
2162.000000 0.9895 0.9899 0.9903 0.9907 0.9911
2167.000000 0.9915 0.9918 0.9923 0.9927 0.9930
2172.000000 0.9933 0.9935 0.9937 0.9937 0.9938
2177.000000 0.9944 0.9945 0.9945 0.9945 0.9943
2182.000000 0.9942 0.9940 0.9939 0.9938 0.9937
2187.000000 0.9933 0.9928 0.9925 0.9921 0.9918
2192.000000 0.9914 0.9910 0.9906 0.9902 0.9898
2197.000000 0.9894 0.9891 0.9888 0.9885 0.9882
2202.000000 0.9878 0.9875 0.9874 0.9871 0.9868
2207.000000 0.9865 0.9862 0.9859 0.9856 0.9853
2212.000000 0.9850 0.9847 0.9844 0.9841 0.9838
2217.000000 0.9834 0.9831 0.9827 0.9824 0.9820
2222.000000 0.9816 0.9812 0.9809 0.9805 0.9801
2227.000000 0.9797 0.9793 0.9789 0.9786 0.9782
2232.000000 0.9778 0.9774 0.9770 0.9766 0.9763
2237.000000 0.9757 0.9752 0.9747 0.9742 0.9737
2242.000000 0.9732 0.9727 0.9721 0.9717 0.9712
2247.000000 0.9707 0.9702 0.9697 0.9692 0.9685
2252.000000 0.9678 0.9671 0.9665 0.9658 0.9651
2257.000000 0.9644 0.9637 0.9628 0.9621 0.9615
2262.000000 0.9608 0.9601 0.9595 0.9589 0.9583
2267.000000 0.9577 0.9571 0.9564 0.9558 0.9552
2272.000000 0.9547 0.9545 0.9544 0.9542 0.9540
2277.000000 0.9538 0.9537 0.9535 0.9533 0.9532
2282.000000 0.9532 0.9531 0.9530 0.9528 0.9528
2287.000000 0.9527 0.9528 0.9528 0.9533 0.9536
2292.000000 0.9539 0.9542 0.9546 0.9549 0.9552
2297.000000 0.9556 0.9561 0.9567 0.9574 0.9580
2302.000000 0.9587 0.9594 0.9601 0.9608 0.9615
2307.000000 0.9625 0.9635 0.9644 0.9654 0.9664
2312.000000 0.9674 0.9684 0.9695 0.9705 0.9716
2317.000000 0.9727 0.9738 0.9748 0.9759 0.9770
2322.000000 0.9782 0.9793 0.9805 0.9816 0.9828
2327.000000 0.9839 0.9851 0.9860 0.9870 0.9880
2332.000000 0.9890 0.9896 0.9903 0.9907 0.9911
2337.000000 0.9915 0.9918 0.9923 0.9927 0.9930
2342.000000 0.9933 0.9934 0.9935 0.9936 0.9937
2347.000000 0.9938 0.9940 0.9941 0.9942 0.9942
2352.000000 0.9942 0.9942 0.9942 0.9942 0.9943
2357.000000 0.9943 0.9943 0.9943 0.9943 0.9943
2362.000000 0.9942 0.9941 0.9940 0.9939 0.9938
2367.000000 0.9937 0.9936 0.9935 0.9934 0.9932
2372.000000 0.9931 0.9930 0.9928 0.9928 0.9927
2377.000000 0.9925 0.9924 0.9923 0.9921 0.9921
2382.000000 0.9920 0.9918 0.9917 0.9916 0.9915
2387.000000 0.9913 0.9912 0.9911 0.9911 0.9910
2392.000000 0.9910 0.9909 0.9909 0.9908 0.9908
2397.000000 0.9907 0.9907 0.9906 0.9906 0.9906
2402.000000 0.9906 0.9906 0.9906 0.9906 0.9907
2407.000000 0.9907 0.9907 0.9908 0.9909 0.9911
2412.000000 0.9913 0.9915 0.9918 0.9920 0.9921
2417.000000 0.9924 0.9925 0.9928 0.9930 0.9932
2422.000000 0.9934 0.9936 0.9939 0.9941 0.9943
2427.000000 0.9945 0.9947 0.9949 0.9951 0.9954
2432.000000 0.9958 0.9961 0.9965 0.9968 0.9971
2437.000000 0.9974 0.9977 0.9978 0.9982 0.9982
2442.000000 0.9982 0.9981 0.9981 0.9980 0.9980
2447.000000 0.9978 0.9978 0.9977 0.9977 0.9975
2452.000000 0.9975 0.9975 0.9975 0.9974 0.9973
