##TITLE=Butylbromide, tert-
##JCAMP-DX=4.24
##DATA TYPE=INFRARED SPECTRUM
##CLASS=COBLENTZ III
##ORIGIN=SOUTHERN RESEARCH INSTITUTE
##OWNER=Copyright (C) 1987 by the Coblentz Society
Collection (C) 2018 copyright by the U.S. Secretary of Commerce
on behalf of the United States of America. All rights reserved.
##DATE=1957/11/29
##NAMES=2-bromo-2-methylpropane
2-BROMO-2-METHYLPROPANE
##CAS REGISTRY NO=507-19-7
##MOLFORM=C4 H9 Br
##SOURCE REFERENCE=COBLENTZ NO. 7874
##$NIST SOURCE=COBLENTZ
##$NIST IMAGE=cob7874
##SPECTROMETER/DATA SYSTEM=PERKIN-ELMER 21 (GRATING)
##INSTRUMENT PARAMETERS=FILTER CHANGE ABOUT 1085 CM^-^1
##STATE=GAS
##PATH LENGTH=10 CM CELL
##SAMPLING PROCEDURE=TRANSMISSION
##RESOLUTION=2
##DATA PROCESSING=DIGITIZED BY COBLENTZ SOCIETY (BATCH II) FROM HARD COPY (ADJUSTED \addcm-1\15-12-3\)
##XUNITS=1/CM
##YUNITS=TRANSMITTANCE
##XFACTOR=1.0
##YFACTOR=1
##DELTAX=1.006030
##FIRSTX=605.05
##LASTX=4020.52
##FIRSTY=0.5688
##MAXX=4020.52
##MINX=605.05
##MAXY=0.956463
##MINY=0.00331752
##NPOINTS=3396
##XYDATA=(X++(Y..Y))
605.050000 0.5688 0.5696 0.5704 0.5710 0.5714
610.080152 0.5718 0.5720 0.5721 0.5721 0.5721
615.110305 0.5720 0.5719 0.5715 0.5707 0.5699
620.140457 0.5691 0.5685 0.5678 0.5672 0.5663
625.170609 0.5652 0.5641 0.5630 0.5613 0.5596
630.200761 0.5578 0.5560 0.5538 0.5509 0.5479
635.230914 0.5420 0.5374 0.5339 0.5319 0.5302
640.261066 0.5303 0.5277 0.5276 0.5279 0.5283
645.291218 0.5291 0.5299 0.5307 0.5320 0.5333
650.321370 0.5347 0.5360 0.5374 0.5388 0.5401
655.351523 0.5413 0.5426 0.5438 0.5451 0.5464
660.381675 0.5478 0.5493 0.5508 0.5522 0.5537
665.411827 0.5551 0.5565 0.5580 0.5594 0.5608
670.441979 0.5622 0.5637 0.5651 0.5665 0.5680
675.472132 0.5694 0.5708 0.5722 0.5735 0.5749
680.502284 0.5763 0.5777 0.5791 0.5807 0.5823
685.532436 0.5839 0.5855 0.5871 0.5889 0.5910
690.562588 0.5934 0.5957 0.5980 0.6003 0.6025
695.592741 0.6047 0.6068 0.6089 0.6109 0.6126
700.622893 0.6142 0.6158 0.6173 0.6186 0.6198
705.653045 0.6209 0.6221 0.6233 0.6245 0.6255
710.683197 0.6265 0.6276 0.6288 0.6303 0.6320
715.713350 0.6336 0.6357 0.6382 0.6409 0.6437
720.743502 0.6463 0.6483 0.6498 0.6511 0.6524
725.773654 0.6534 0.6540 0.6545 0.6551 0.6556
730.803806 0.6560 0.6564 0.6568 0.6572 0.6576
735.833959 0.6580 0.6584 0.6587 0.6591 0.6594
740.864111 0.6597 0.6601 0.6605 0.6610 0.6616
745.894263 0.6623 0.6628 0.6631 0.6634 0.6636
750.924415 0.6639 0.6638 0.6635 0.6634 0.6631
755.954568 0.6627 0.6621 0.6613 0.6603 0.6592
760.984720 0.6574 0.6552 0.6528 0.6498 0.6460
766.014872 0.6408 0.6339 0.6270 0.6203 0.6152
771.045024 0.6133 0.6126 0.6132 0.6149 0.6169
776.075177 0.6193 0.6220 0.6242 0.6252 0.6256
781.105329 0.6257 0.6254 0.6249 0.6240 0.6225
786.135481 0.6197 0.6153 0.6081 0.5927 0.5645
791.165633 0.5421 0.5072 0.4773 0.4475 0.4176
796.195786 0.3877 0.3578 0.3214 0.2757 0.2621
801.225938 0.2479 0.2357 0.2325 0.2281 0.2171
806.256090 0.1949 0.1735 0.1590 0.1723 0.2346
811.286242 0.2684 0.2653 0.2581 0.2511 0.2466
816.316395 0.2476 0.2489 0.2584 0.3022 0.3504
821.346547 0.3985 0.4467 0.4948 0.5405 0.5685
826.376699 0.5803 0.5877 0.6012 0.6142 0.6268
831.406851 0.6389 0.6499 0.6566 0.6636 0.6723
836.437004 0.6810 0.6903 0.7000 0.7133 0.7295
841.467156 0.7442 0.7500 0.7551 0.7604 0.7666
846.497308 0.7725 0.7765 0.7799 0.7830 0.7857
851.527461 0.7883 0.7907 0.7931 0.7955 0.7977
856.557613 0.7999 0.8017 0.8034 0.8052 0.8071
861.587765 0.8090 0.8110 0.8129 0.8149 0.8168
866.617917 0.8187 0.8205 0.8221 0.8239 0.8257
871.648070 0.8275 0.8292 0.8310 0.8327 0.8343
876.678222 0.8348 0.8353 0.8357 0.8362 0.8359
881.708374 0.8353 0.8346 0.8333 0.8286 0.8167
886.738526 0.8070 0.8025 0.8000 0.7994 0.8055
891.768679 0.8124 0.8192 0.8261 0.8330 0.8403
896.798831 0.8431 0.8450 0.8460 0.8467 0.8471
901.828983 0.8472 0.8472 0.8472 0.8473 0.8474
906.859135 0.8476 0.8479 0.8491 0.8498 0.8503
911.889288 0.8497 0.8486 0.8474 0.8462 0.8448
916.919440 0.8432 0.8417 0.8398 0.8387 0.8383
921.949592 0.8392 0.8441 0.8487 0.8534 0.8589
926.979744 0.8624 0.8652 0.8665 0.8671 0.8677
932.009897 0.8688 0.8706 0.8738 0.8775 0.8811
937.040049 0.8848 0.8888 0.8924 0.8949 0.8963
942.070201 0.8970 0.8975 0.8978 0.8979 0.8981
947.100353 0.8983 0.8984 0.8985 0.8985 0.8985
952.130506 0.8985 0.8984 0.8983 0.8982 0.8980
957.160658 0.8979 0.8978 0.8975 0.8972 0.8968
962.190810 0.8963 0.8957 0.8951 0.8946 0.8942
967.220962 0.8941 0.8943 0.8948 0.8953 0.8957
972.251115 0.8962 0.8972 0.8984 0.8996 0.9009
977.281267 0.9023 0.9042 0.9062 0.9080 0.9097
982.311419 0.9112 0.9120 0.9121 0.9123 0.9123
987.341571 0.9122 0.9122 0.9121 0.9121 0.9122
992.371724 0.9121 0.9116 0.9115 0.9113 0.9112
997.401876 0.9109 0.9105 0.9101 0.9096 0.9091
1002.432028 0.9085 0.9080 0.9074 0.9066 0.9054
1007.462180 0.9042 0.9030 0.9018 0.9004 0.8986
1012.492333 0.8969 0.8952 0.8934 0.8917 0.8897
1017.522485 0.8870 0.8841 0.8813 0.8787 0.8762
1022.552637 0.8737 0.8712 0.8685 0.8650 0.8608
1027.582789 0.8573 0.8550 0.8532 0.8528 0.8529
1032.612942 0.8531 0.8538 0.8540 0.8540 0.8554
1037.643094 0.8549 0.8544 0.8538 0.8531 0.8524
1042.673246 0.8519 0.8516 0.8518 0.8526 0.8535
1047.703398 0.8552 0.8586 0.8648 0.8726 0.8768
1052.733551 0.8769 0.8770 0.8771 0.8767 0.8763
1057.763703 0.8759 0.8755 0.8750 0.8746 0.8742
1062.793855 0.8738 0.8735 0.8733 0.8732 0.8732
1067.824007 0.8732 0.8732 0.8734 0.8736 0.8739
1072.854160 0.8742 0.8745 0.8751 0.8757 0.8764
1077.884312 0.8770 0.8777 0.8783 0.8787 0.8766
1082.914464 0.8687 0.8609 0.8530 0.8452 0.8381
1087.944617 0.8416 0.8796 0.8897 0.8896 0.8891
1092.974769 0.8876 0.8849 0.8831 0.8802 0.8771
1098.004921 0.8736 0.8717 0.8698 0.8683 0.8671
1103.035073 0.8658 0.8646 0.8630 0.8613 0.8596
1108.065226 0.8555 0.8513 0.8471 0.8428 0.8386
1113.095378 0.8340 0.8294 0.8242 0.8193 0.8131
1118.125530 0.8041 0.7922 0.7806 0.7653 0.7490
1123.155682 0.7375 0.7260 0.7035 0.6796 0.6581
1128.185835 0.5668 0.5322 0.5063 0.3594 0.2957
1133.215987 0.2373 0.1790 0.1207 0.0623 0.0413
1138.246139 0.0282 0.0131 0.0078 0.0063 0.0052
1143.276291 0.0049 0.0048 0.0050 0.0051 0.0054
1148.306444 0.0058 0.0058 0.0055 0.0053 0.0033
1153.336596 0.0047 0.0049 0.0047 0.0046 0.0047
1158.366748 0.0048 0.0050 0.0052 0.0057 0.0070
1163.396900 0.0084 0.0142 0.0440 0.0912 0.1412
1168.427053 0.1912 0.2411 0.2911 0.3411 0.3911
1173.457205 0.4411 0.4911 0.5268 0.5482 0.5598
1178.487357 0.5692 0.5739 0.5744 0.5732 0.5684
1183.517509 0.5625 0.5566 0.5506 0.5447 0.5388
1188.547662 0.5334 0.5282 0.5229 0.5166 0.5096
1193.577814 0.5019 0.4942 0.4876 0.4830 0.4791
1198.607966 0.4748 0.4700 0.4668 0.4653 0.4646
1203.638118 0.4652 0.4650 0.4648 0.4653 0.4690
1208.668271 0.4742 0.4812 0.4917 0.5044 0.5149
1213.698423 0.5250 0.5368 0.5452 0.5482 0.5483
1218.728575 0.5439 0.5364 0.5294 0.5224 0.5154
1223.758727 0.5016 0.4708 0.4286 0.3866 0.3445
1228.788880 0.3024 0.2688 0.2562 0.2537 0.2534
1233.819032 0.2531 0.2510 0.2365 0.1986 0.1607
1238.849184 0.1288 0.1213 0.1622 0.3658 0.4396
1243.879336 0.4419 0.4436 0.4453 0.4471 0.4551
1248.909489 0.5301 0.6272 0.6640 0.7809 0.8019
1253.939641 0.8124 0.8228 0.8327 0.8415 0.8492
1258.969793 0.8566 0.8633 0.8700 0.8763 0.8810
1263.999945 0.8841 0.8870 0.8895 0.8911 0.8925
1269.030098 0.8940 0.8951 0.8958 0.8965 0.8971
1274.060250 0.8977 0.8983 0.8990 0.8995 0.8998
1279.090402 0.9002 0.9005 0.9008 0.9010 0.9010
1284.120554 0.9011 0.9011 0.9011 0.9011 0.9011
1289.150707 0.9029 0.9027 0.9007 0.9004 0.9002
1294.180859 0.8999 0.8996 0.8993 0.8988 0.8981
1299.211011 0.8975 0.8969 0.8960 0.8947 0.8933
1304.241163 0.8919 0.8905 0.8893 0.8886 0.8880
1309.271316 0.8875 0.8870 0.8870 0.8870 0.8870
1314.301468 0.8870 0.8871 0.8871 0.8871 0.8871
1319.331620 0.8872 0.8871 0.8858 0.8835 0.8806
1324.361773 0.8784 0.8765 0.8755 0.8750 0.8752
1329.391925 0.8754 0.8761 0.8772 0.8783 0.8795
1334.422077 0.8806 0.8817 0.8828 0.8839 0.8850
1339.452229 0.8859 0.8867 0.8874 0.8876 0.8870
1344.482382 0.8853 0.8832 0.8804 0.8774 0.8735
1349.512534 0.8686 0.8602 0.8404 0.8141 0.7919
1354.542686 0.7793 0.7704 0.7473 0.7021 0.6481
1359.572838 0.5940 0.5400 0.4860 0.4320 0.3779
1364.602991 0.3239 0.2698 0.1734 0.0808 0.0532
1369.633143 0.0381 0.0330 0.0299 0.0277 0.0261
1374.663295 0.0247 0.0235 0.0225 0.0219 0.0214
1379.693447 0.0214 0.0216 0.0209 0.0193 0.0233
1384.723600 0.0243 0.0252 0.0262 0.0294 0.0392
1389.753752 0.0565 0.0864 0.1005 0.1166 0.1430
1394.783904 0.1642 0.2042 0.2615 0.3188 0.3762
1399.814056 0.4335 0.4908 0.5481 0.5730 0.5868
1404.844209 0.5936 0.6002 0.6068 0.6134 0.6187
1409.874361 0.6170 0.6091 0.5987 0.5879 0.5773
1414.904513 0.5723 0.5703 0.5844 0.6134 0.6493
1419.934665 0.6595 0.6676 0.6785 0.6854 0.6918
1424.964818 0.7004 0.7098 0.7165 0.7205 0.7256
1429.994970 0.7412 0.7537 0.7599 0.7600 0.7599
1435.025122 0.7584 0.7591 0.7529 0.7436 0.7312
1440.055274 0.7144 0.7021 0.6898 0.6728 0.6397
1445.085427 0.6007 0.5614 0.5223 0.4831 0.4439
1450.115579 0.4048 0.3656 0.3263 0.2869 0.1710
1455.145731 0.1560 0.1443 0.1337 0.1159 0.1061
1460.175883 0.0993 0.0980 0.0974 0.0974 0.0974
1465.206036 0.0983 0.0989 0.0999 0.1040 0.1113
1470.236188 0.1187 0.1272 0.1293 0.1312 0.1337
1475.266340 0.1371 0.1437 0.1728 0.2043 0.2344
1480.296492 0.2464 0.2467 0.2468 0.2471 0.2478
1485.326645 0.2486 0.2529 0.2820 0.3163 0.3488
1490.356797 0.3645 0.3687 0.3721 0.3841 0.4211
1495.386949 0.4581 0.4951 0.5321 0.5691 0.6061
1500.417101 0.6431 0.6778 0.6990 0.7246 0.7874
1505.447254 0.8360 0.8429 0.8497 0.8555 0.8637
1510.477406 0.8835 0.9075 0.9140 0.9204 0.9266
1515.507558 0.9325 0.9369 0.9410 0.9439 0.9453
1520.537710 0.9467 0.9481 0.9495 0.9507 0.9509
1525.567863 0.9509 0.9513 0.9523 0.9503 0.9500
1530.598015 0.9497 0.9493 0.9490 0.9486 0.9479
1535.628167 0.9473 0.9468 0.9463 0.9459 0.9454
1540.658319 0.9449 0.9445 0.9441 0.9438 0.9435
1545.688472 0.9434 0.9435 0.9437 0.9444 0.9452
1550.718624 0.9460 0.9468 0.9476 0.9484 0.9490
1555.748776 0.9491 0.9489 0.9486 0.9481 0.9477
1560.778928 0.9472 0.9464 0.9458 0.9465 0.9474
1565.809081 0.9483 0.9492 0.9496 0.9500 0.9502
1570.839233 0.9500 0.9498 0.9495 0.9491 0.9486
1575.869385 0.9479 0.9471 0.9461 0.9449 0.9436
1580.899538 0.9423 0.9411 0.9400 0.9390 0.9383
1585.929690 0.9377 0.9372 0.9368 0.9367 0.9366
1590.959842 0.9365 0.9363 0.9362 0.9361 0.9361
1595.989994 0.9360 0.9359 0.9358 0.9358 0.9357
1601.020147 0.9356 0.9356 0.9357 0.9358 0.9359
1606.050299 0.9360 0.9361 0.9361 0.9362 0.9363
1611.080451 0.9364 0.9365 0.9365 0.9362 0.9360
1616.110603 0.9357 0.9354 0.9351 0.9347 0.9343
1621.140756 0.9340 0.9336 0.9333 0.9330 0.9327
1626.170908 0.9324 0.9321 0.9319 0.9319 0.9321
1631.201060 0.9330 0.9343 0.9353 0.9361 0.9363
1636.231212 0.9363 0.9363 0.9362 0.9361 0.9360
1641.261365 0.9358 0.9356 0.9354 0.9351 0.9347
1646.291517 0.9338 0.9315 0.9284 0.9252 0.9220
1651.321669 0.9196 0.9180 0.9168 0.9160 0.9154
1656.351821 0.9149 0.9145 0.9141 0.9137 0.9134
1661.381974 0.9132 0.9130 0.9129 0.9127 0.9125
1666.412126 0.9123 0.9119 0.9114 0.9111 0.9107
1671.442278 0.9104 0.9101 0.9097 0.9095 0.9093
1676.472430 0.9092 0.9090 0.9089 0.9088 0.9088
1681.502583 0.9090 0.9094 0.9097 0.9101 0.9105
1686.532735 0.9108 0.9112 0.9115 0.9120 0.9124
1691.562887 0.9129 0.9133 0.9135 0.9136 0.9137
1696.593039 0.9136 0.9132 0.9127 0.9121 0.9112
1701.623192 0.9099 0.9085 0.9069 0.9052 0.9033
1706.653344 0.9012 0.8991 0.8969 0.8946 0.8924
1711.683496 0.8901 0.8879 0.8857 0.8834 0.8816
1716.713648 0.8803 0.8792 0.8781 0.8769 0.8759
1721.743801 0.8751 0.8742 0.8733 0.8727 0.8724
1726.773953 0.8722 0.8720 0.8718 0.8717 0.8715
1731.804105 0.8713 0.8714 0.8715 0.8716 0.8718
1736.834257 0.8721 0.8712 0.8731 0.8743 0.8753
1741.864410 0.8764 0.8774 0.8783 0.8792 0.8801
1746.894562 0.8807 0.8813 0.8818 0.8822 0.8826
1751.924714 0.8829 0.8829 0.8829 0.8830 0.8830
1756.954866 0.8830 0.8830 0.8839 0.8901 0.8931
1761.985019 0.8948 0.8962 0.8975 0.8989 0.9007
1767.015171 0.9024 0.9049 0.9074 0.9100 0.9105
1772.045323 0.9108 0.9111 0.9114 0.9113 0.9113
1777.075475 0.9112 0.9112 0.9111 0.9109 0.9107
1782.105628 0.9106 0.9106 0.9111 0.9117 0.9122
1787.135780 0.9129 0.9135 0.9143 0.9151 0.9158
1792.165932 0.9166 0.9175 0.9183 0.9191 0.9198
1797.196084 0.9204 0.9209 0.9215 0.9220 0.9226
1802.226237 0.9231 0.9237 0.9242 0.9247 0.9251
1807.256389 0.9255 0.9259 0.9263 0.9267 0.9272
1812.286541 0.9276 0.9281 0.9288 0.9295 0.9302
1817.316694 0.9309 0.9316 0.9323 0.9328 0.9329
1822.346846 0.9329 0.9316 0.9312 0.9299 0.9285
1827.376998 0.9271 0.9258 0.9244 0.9229 0.9214
1832.407150 0.9199 0.9184 0.9169 0.9155 0.9142
1837.437303 0.9129 0.9116 0.9103 0.9090 0.9077
1842.467455 0.9065 0.9052 0.9040 0.9027 0.9015
1847.497607 0.9003 0.8994 0.8985 0.8979 0.8980
1852.527759 0.8987 0.8995 0.8998 0.8986 0.9039
1857.557912 0.9058 0.9074 0.9088 0.9103 0.9117
1862.588064 0.9129 0.9137 0.9138 0.9139 0.9140
1867.618216 0.9141 0.9148 0.9179 0.9212 0.9237
1872.648368 0.9256 0.9271 0.9282 0.9292 0.9303
1877.678521 0.9313 0.9321 0.9328 0.9336 0.9344
1882.708673 0.9350 0.9354 0.9358 0.9361 0.9364
1887.738825 0.9364 0.9364 0.9365 0.9365 0.9363
1892.768977 0.9360 0.9357 0.9355 0.9352 0.9349
1897.799130 0.9346 0.9342 0.9339 0.9335 0.9332
1902.829282 0.9328 0.9325 0.9321 0.9317 0.9313
1907.859434 0.9308 0.9304 0.9299 0.9295 0.9291
1912.889586 0.9287 0.9281 0.9275 0.9270 0.9264
1917.919739 0.9258 0.9252 0.9247 0.9244 0.9241
1922.949891 0.9239 0.9236 0.9235 0.9234 0.9236
1927.980043 0.9237 0.9239 0.9241 0.9244 0.9248
1933.010195 0.9254 0.9261 0.9267 0.9274 0.9280
1938.040348 0.9286 0.9289 0.9291 0.9294 0.9295
1943.070500 0.9295 0.9295 0.9295 0.9292 0.9288
1948.100652 0.9284 0.9281 0.9277 0.9274 0.9272
1953.130804 0.9270 0.9269 0.9268 0.9266 0.9265
1958.160957 0.9264 0.9262 0.9261 0.9261 0.9262
1963.191109 0.9264 0.9266 0.9268 0.9270 0.9272
1968.221261 0.9274 0.9275 0.9277 0.9279 0.9281
1973.251413 0.9283 0.9285 0.9286 0.9288 0.9289
1978.281566 0.9291 0.9293 0.9295 0.9300 0.9306
1983.311718 0.9312 0.9318 0.9324 0.9330 0.9335
1988.341870 0.9341 0.9346 0.9350 0.9354 0.9357
1993.372022 0.9361 0.9364 0.9366 0.9365 0.9364
1998.402175 0.9363 0.9361 0.9368 0.9363 0.9357
2003.432327 0.9354 0.9351 0.9347 0.9344 0.9344
2008.462479 0.9345 0.9346 0.9347 0.9348 0.9349
2013.492631 0.9351 0.9352 0.9353 0.9354 0.9356
2018.522784 0.9357 0.9358 0.9360 0.9361 0.9362
2023.552936 0.9363 0.9364 0.9365 0.9365 0.9366
2028.583088 0.9365 0.9364 0.9363 0.9362 0.9361
2033.613240 0.9360 0.9359 0.9358 0.9357 0.9356
2038.643393 0.9355 0.9354 0.9354 0.9352 0.9350
2043.673545 0.9349 0.9347 0.9346 0.9344 0.9342
2048.703697 0.9341 0.9339 0.9337 0.9336 0.9334
2053.733850 0.9332 0.9331 0.9329 0.9328 0.9326
2058.764002 0.9324 0.9323 0.9322 0.9321 0.9320
2063.794154 0.9320 0.9319 0.9318 0.9318 0.9317
2068.824306 0.9316 0.9315 0.9315 0.9314 0.9313
2073.854459 0.9312 0.9311 0.9310 0.9308 0.9307
2078.884611 0.9306 0.9305 0.9304 0.9302 0.9301
2083.914763 0.9300 0.9299 0.9298 0.9297 0.9295
2088.944915 0.9294 0.9300 0.9306 0.9313 0.9320
2093.975068 0.9327 0.9335 0.9344 0.9353 0.9361
2099.005220 0.9369 0.9377 0.9382 0.9385 0.9387
2104.035372 0.9389 0.9387 0.9385 0.9383 0.9381
2109.065524 0.9379 0.9376 0.9373 0.9371 0.9368
2114.095677 0.9368 0.9367 0.9367 0.9367 0.9366
2119.125829 0.9366 0.9366 0.9366 0.9366 0.9366
2124.155981 0.9366 0.9365 0.9364 0.9362 0.9360
2129.186133 0.9358 0.9357 0.9355 0.9353 0.9351
2134.216286 0.9349 0.9347 0.9344 0.9342 0.9335
2139.246438 0.9329 0.9323 0.9316 0.9307 0.9298
2144.276590 0.9288 0.9278 0.9267 0.9255 0.9243
2149.306742 0.9231 0.9219 0.9205 0.9190 0.9175
2154.336895 0.9160 0.9145 0.9131 0.9116 0.9100
2159.367047 0.9083 0.9065 0.9047 0.9030 0.9012
2164.397199 0.8994 0.8976 0.8954 0.8931 0.8907
2169.427351 0.8884 0.8861 0.8840 0.8820 0.8800
2174.457504 0.8780 0.8760 0.8739 0.8719 0.8708
2179.487656 0.8702 0.8685 0.8717 0.8727 0.8741
2184.517808 0.8759 0.8778 0.8802 0.8839 0.8884
2189.547960 0.8931 0.8974 0.9012 0.9044 0.9076
2194.578113 0.9103 0.9128 0.9154 0.9178 0.9202
2199.608265 0.9223 0.9237 0.9249 0.9255 0.9260
2204.638417 0.9265 0.9270 0.9274 0.9279 0.9283
2209.668569 0.9288 0.9292 0.9297 0.9301 0.9306
2214.698722 0.9311 0.9315 0.9320 0.9323 0.9326
2219.728874 0.9328 0.9331 0.9333 0.9336 0.9337
2224.759026 0.9337 0.9338 0.9339 0.9339 0.9340
2229.789178 0.9340 0.9341 0.9342 0.9342 0.9346
2234.819331 0.9350 0.9342 0.9341 0.9341 0.9340
2239.849483 0.9340 0.9341 0.9342 0.9343 0.9344
2244.879635 0.9347 0.9354 0.9360 0.9367 0.9373
2249.909787 0.9379 0.9385 0.9390 0.9394 0.9397
2254.939940 0.9400 0.9403 0.9405 0.9403 0.9402
2259.970092 0.9401 0.9400 0.9397 0.9391 0.9385
2265.000244 0.9378 0.9372 0.9366 0.9360 0.9351
2270.030396 0.9340 0.9329 0.9317 0.9302 0.9286
2275.060549 0.9270 0.9254 0.9238 0.9221 0.9203
2280.090701 0.9186 0.9168 0.9150 0.9132 0.9114
2285.120853 0.9096 0.9079 0.9063 0.9046 0.9030
2290.151006 0.9013 0.8997 0.8983 0.8969 0.8956
2295.181158 0.8943 0.8930 0.8921 0.8917 0.8912
2300.211310 0.8912 0.8901 0.8912 0.8946 0.8985
2305.241462 0.9041 0.9093 0.9135 0.9174 0.9217
2310.271615 0.9265 0.9306 0.9340 0.9373 0.9409
2315.301767 0.9446 0.9481 0.9502 0.9516 0.9531
2320.331919 0.9544 0.9551 0.9554 0.9557 0.9560
2325.362071 0.9563 0.9565 0.9553 0.9556 0.9561
2330.392224 0.9559 0.9554 0.9548 0.9543 0.9537
2335.422376 0.9529 0.9517 0.9505 0.9493 0.9480
2340.452528 0.9467 0.9450 0.9429 0.9408 0.9388
2345.482680 0.9368 0.9347 0.9325 0.9303 0.9281
2350.512833 0.9260 0.9237 0.9214 0.9192 0.9176
2355.542985 0.9161 0.9150 0.9144 0.9139 0.9134
2360.573137 0.9129 0.9123 0.9116 0.9109 0.9101
2365.603289 0.9094 0.9086 0.9077 0.9067 0.9056
2370.633442 0.9045 0.9034 0.9023 0.9012 0.9000
2375.663594 0.8987 0.8975 0.8962 0.8950 0.8937
2380.693746 0.8925 0.8912 0.8900 0.8886 0.8872
2385.723898 0.8858 0.8844 0.8830 0.8815 0.8801
2390.754051 0.8787 0.8772 0.8758 0.8744 0.8730
2395.784203 0.8715 0.8704 0.8696 0.8688 0.8688
2400.814355 0.8677 0.8680 0.8685 0.8694 0.8703
2405.844507 0.8713 0.8723 0.8732 0.8745 0.8761
2410.874660 0.8776 0.8791 0.8811 0.8833 0.8855
2415.904812 0.8878 0.8896 0.8915 0.8934 0.8941
2420.934964 0.8943 0.8943 0.8943 0.8943 0.8946
2425.965116 0.8947 0.8948 0.8974 0.9013 0.9061
2430.995269 0.9101 0.9124 0.9131 0.9137 0.9143
2436.025421 0.9147 0.9149 0.9151 0.9153 0.9155
2441.055573 0.9157 0.9159 0.9160 0.9162 0.9162
2446.085725 0.9162 0.9161 0.9161 0.9160 0.9160
2451.115878 0.9159 0.9159 0.9159 0.9158 0.9158
2456.146030 0.9158 0.9159 0.9159 0.9160 0.9161
2461.176182 0.9162 0.9166 0.9171 0.9175 0.9180
2466.206334 0.9188 0.9195 0.9203 0.9211 0.9218
2471.236487 0.9226 0.9235 0.9243 0.9252 0.9254
2476.266639 0.9255 0.9256 0.9257 0.9258 0.9252
2481.296791 0.9245 0.9237 0.9228 0.9214 0.9200
2486.326943 0.9186 0.9179 0.9173 0.9168 0.9168
2491.357096 0.9168 0.9169 0.9169 0.9171 0.9172
2496.387248 0.9175 0.9186 0.9196 0.9207 0.9214
2501.417400 0.9217 0.9236 0.9221 0.9220 0.9220
2506.447552 0.9219 0.9218 0.9218 0.9217 0.9216
2511.477705 0.9216 0.9215 0.9214 0.9214 0.9213
2516.507857 0.9213 0.9212 0.9211 0.9211 0.9210
2521.538009 0.9209 0.9209 0.9208 0.9207 0.9207
2526.568162 0.9206 0.9205 0.9205 0.9204 0.9204
2531.598314 0.9203 0.9202 0.9202 0.9201 0.9200
2536.628466 0.9200 0.9199 0.9198 0.9198 0.9197
2541.658618 0.9197 0.9196 0.9195 0.9195 0.9191
2546.688771 0.9187 0.9184 0.9180 0.9176 0.9173
2551.718923 0.9169 0.9166 0.9162 0.9158 0.9156
2556.749075 0.9153 0.9151 0.9148 0.9145 0.9143
2561.779227 0.9140 0.9136 0.9131 0.9127 0.9122
2566.809380 0.9118 0.9113 0.9108 0.9102 0.9095
2571.839532 0.9089 0.9082 0.9075 0.9069 0.9060
2576.869684 0.9050 0.9040 0.9030 0.9019 0.9009
2581.899836 0.8998 0.8983 0.8967 0.8951 0.8935
2586.929989 0.8919 0.8903 0.8884 0.8865 0.8846
2591.960141 0.8827 0.8808 0.8788 0.8768 0.8748
2596.990293 0.8728 0.8709 0.8696 0.8684 0.8674
2602.020445 0.8673 0.8676 0.8678 0.8680 0.8682
2607.050598 0.8686 0.8689 0.8692 0.8691 0.8686
2612.080750 0.8677 0.8661 0.8647 0.8635 0.8623
2617.110902 0.8614 0.8610 0.8607 0.8605 0.8602
2622.141054 0.8600 0.8598 0.8596 0.8597 0.8597
2627.171207 0.8601 0.8614 0.8630 0.8648 0.8672
2632.201359 0.8697 0.8719 0.8740 0.8761 0.8780
2637.231511 0.8799 0.8817 0.8836 0.8854 0.8862
