##TITLE=Carbamic acid, ethyl ester
##JCAMP-DX=4.24
##DATA TYPE=INFRARED SPECTRUM
##CLASS=COBLENTZ III
##ORIGIN=WYANDOTTE CHEMICALS CORP.
##OWNER=Copyright (C) 1987 by the Coblentz Society
Collection (C) 2018 copyright by the U.S. Secretary of Commerce
on behalf of the United States of America. All rights reserved.
##DATE=Not specified, most likely prior to 1970
##NAMES=ethyl carbamate
##CAS REGISTRY NO=51-79-6
##MOLFORM=C3 H7 N O2
##MP=50 C
##SOURCE REFERENCE=COBLENTZ NO. 5961
##$NIST SOURCE=COBLENTZ
##$NIST IMAGE=cob5961
##SPECTROMETER/DATA SYSTEM=BAIRD (GRATING)
##INSTRUMENT PARAMETERS=NaCl PRISM
##STATE=SOLUTION (CCl4 FOR 2-9.6, CS2 FOR 8.6-16 MICRON) VS SOLVENT
##PATH LENGTH=0.01 CM, AND 0.01 CM , REFERENCE CELLS : 0.05 CM
##RESOLUTION=2
##XUNITS=1/CM
##YUNITS=TRANSMITTANCE
##XFACTOR=1.0
##YFACTOR=1
##FIRSTX=626
##LASTX=4000
##FIRSTY=0.8149
##MAXX=4000
##MINX=626
##MAXY=0.9641
##MINY=0.0521
##NPOINTS=3375
##XYDATA=(X++(Y..Y))
626.000000 0.8149 0.8145 0.8144 0.8146 0.8147
631.000000 0.8149 0.8150 0.8146 0.8142 0.8139
636.000000 0.8135 0.8132 0.8133 0.8134 0.8134
641.000000 0.8135 0.8136 0.8136 0.8138 0.8142
646.000000 0.8146 0.8150 0.8153 0.8157 0.8161
651.000000 0.8165 0.8169 0.8173 0.8178 0.8184
656.000000 0.8190 0.8194 0.8200 0.8205 0.8211
661.000000 0.8221 0.8236 0.8251 0.8266 0.8280
666.000000 0.8291 0.8302 0.8302 0.8298 0.8295
671.000000 0.8291 0.8292 0.8299 0.8304 0.8311
676.000000 0.8316 0.8321 0.8326 0.8332 0.8336
681.000000 0.8329 0.8313 0.8296 0.8280 0.8264
686.000000 0.8261 0.8275 0.8290 0.8305 0.8319
691.000000 0.8329 0.8334 0.8338 0.8342 0.8347
696.000000 0.8350 0.8351 0.8353 0.8355 0.8357
701.000000 0.8358 0.8372 0.8389 0.8406 0.8422
706.000000 0.8439 0.8432 0.8422 0.8416 0.8411
711.000000 0.8406 0.8402 0.8405 0.8409 0.8413
716.000000 0.8415 0.8413 0.8406 0.8401 0.8394
721.000000 0.8382 0.8374 0.8371 0.8369 0.8367
726.000000 0.8368 0.8375 0.8381 0.8389 0.8399
731.000000 0.8409 0.8413 0.8415 0.8416 0.8446
736.000000 0.8392 0.8380 0.8369 0.8358 0.8349
741.000000 0.8351 0.8353 0.8353 0.8352 0.8352
746.000000 0.8342 0.8322 0.8303 0.8283 0.8248
751.000000 0.8215 0.8181 0.8153 0.8125 0.8103
756.000000 0.8099 0.8096 0.8090 0.8079 0.8067
761.000000 0.8029 0.7971 0.7890 0.7803 0.7715
766.000000 0.7620 0.7515 0.7410 0.7304 0.7197
771.000000 0.7092 0.6987 0.6897 0.6807 0.6718
776.000000 0.6630 0.6543 0.6456 0.6375 0.6379
781.000000 0.6324 0.6424 0.6480 0.6650 0.6924
786.000000 0.7020 0.7078 0.7104 0.7122 0.7138
791.000000 0.7152 0.7167 0.7197 0.7238 0.7313
796.000000 0.7394 0.7498 0.7606 0.7729 0.7852
801.000000 0.7946 0.8038 0.8130 0.8206 0.8277
806.000000 0.8337 0.8372 0.8399 0.8410 0.8416
811.000000 0.8419 0.8420 0.8430 0.8452 0.8486
816.000000 0.8517 0.8540 0.8553 0.8555 0.8554
821.000000 0.8554 0.8551 0.8546 0.8537 0.8529
826.000000 0.8513 0.8480 0.8447 0.8398 0.8332
831.000000 0.8267 0.8193 0.8091 0.7989 0.7887
836.000000 0.7758 0.7628 0.7497 0.7352 0.7205
841.000000 0.7060 0.6908 0.6756 0.6607 0.6474
846.000000 0.6342 0.6211 0.6114 0.6020 0.5941
851.000000 0.5908 0.5868 0.5922 0.5941 0.5963
856.000000 0.5993 0.6024 0.6061 0.6100 0.6142
861.000000 0.6187 0.6231 0.6278 0.6331 0.6385
866.000000 0.6438 0.6491 0.6545 0.6598 0.6651
871.000000 0.6708 0.6780 0.6851 0.6925 0.6999
876.000000 0.7074 0.7148 0.7222 0.7294 0.7367
881.000000 0.7426 0.7484 0.7541 0.7600 0.7668
886.000000 0.7740 0.7854 0.7976 0.8140 0.8229
891.000000 0.8312 0.8395 0.8475 0.8555 0.8634
896.000000 0.8695 0.8753 0.8812 0.8859 0.8899
901.000000 0.8939 0.8966 0.8985 0.9004 0.9022
906.000000 0.9038 0.9045 0.9054 0.9062 0.9070
911.000000 0.9074 0.9075 0.9076 0.9078 0.9079
916.000000 0.9080 0.9081 0.9083 0.9073 0.9083
921.000000 0.9082 0.9082 0.9081 0.9081 0.9080
926.000000 0.9079 0.9076 0.9072 0.9069 0.9064
931.000000 0.9060 0.9056 0.9052 0.9046 0.9034
936.000000 0.9022 0.9011 0.8999 0.8988 0.8976
941.000000 0.8959 0.8943 0.8926 0.8890 0.8836
946.000000 0.8783 0.8730 0.8677 0.8623 0.8572
951.000000 0.8532 0.8505 0.8503 0.8489 0.8498
956.000000 0.8497 0.8515 0.8536 0.8559 0.8583
961.000000 0.8606 0.8630 0.8652 0.8667 0.8681
966.000000 0.8695 0.8708 0.8715 0.8722 0.8736
971.000000 0.8730 0.8724 0.8717 0.8711 0.8696
976.000000 0.8675 0.8654 0.8633 0.8603 0.8568
981.000000 0.8533 0.8517 0.8508 0.8500 0.8498
986.000000 0.8491 0.8536 0.8567 0.8603 0.8639
991.000000 0.8676 0.8723 0.8773 0.8823 0.8871
996.000000 0.8911 0.8950 0.8989 0.9026 0.9042
1001.000000 0.9053 0.9052 0.9047 0.9043 0.9038
1006.000000 0.9034 0.9029 0.9025 0.9033 0.9016
1011.000000 0.9011 0.9006 0.9002 0.8991 0.8979
1016.000000 0.8966 0.8953 0.8940 0.8927 0.8915
1021.000000 0.8899 0.8875 0.8851 0.8827 0.8803
1026.000000 0.8779 0.8753 0.8725 0.8698 0.8671
1031.000000 0.8643 0.8616 0.8589 0.8560 0.8522
1036.000000 0.8484 0.8445 0.8396 0.8343 0.8290
1041.000000 0.8237 0.8184 0.8132 0.8061 0.7980
1046.000000 0.7898 0.7816 0.7735 0.7650 0.7549
1051.000000 0.7448 0.7348 0.7244 0.7027 0.6801
1056.000000 0.6573 0.6345 0.5879 0.5463 0.5048
1061.000000 0.4621 0.4194 0.3769 0.3344 0.2920
1066.000000 0.2497 0.2074 0.1660 0.1499 0.1386
1071.000000 0.1326 0.1276 0.1275 0.1284 0.1312
1076.000000 0.1360 0.1432 0.1546 0.1681 0.1887
1081.000000 0.2051 0.2174 0.2297 0.2666 0.2981
1086.000000 0.3195 0.3550 0.3851 0.4069 0.4310
1091.000000 0.4389 0.4402 0.4384 0.4350 0.4256
1096.000000 0.4145 0.4033 0.3925 0.3822 0.3721
1101.000000 0.3632 0.3602 0.3600 0.3606 0.3642
1106.000000 0.3787 0.3960 0.4132 0.4304 0.4476
1111.000000 0.4648 0.4819 0.4990 0.5161 0.5297
1116.000000 0.5381 0.5472 0.5582 0.5703 0.5736
1121.000000 0.5740 0.5742 0.5744 0.5744 0.5735
1126.000000 0.5735 0.5734 0.5738 0.5742 0.5748
1131.000000 0.5755 0.5768 0.5790 0.5815 0.5846
1136.000000 0.5901 0.5955 0.6009 0.6077 0.6144
1141.000000 0.6325 0.6482 0.6624 0.6762 0.6887
1146.000000 0.7010 0.7115 0.7178 0.7242 0.7304
1151.000000 0.7339 0.7366 0.7394 0.7416 0.7426
1156.000000 0.7435 0.7444 0.7423 0.7441 0.7439
1161.000000 0.7434 0.7425 0.7418 0.7410 0.7402
1166.000000 0.7394 0.7386 0.7379 0.7371 0.7364
1171.000000 0.7361 0.7359 0.7357 0.7356 0.7347
1176.000000 0.7382 0.7397 0.7434 0.7478 0.7543
1181.000000 0.7614 0.7673 0.7725 0.7777 0.7829
1186.000000 0.7864 0.7888 0.7904 0.7908 0.7906
1191.000000 0.7902 0.7914 0.7893 0.7886 0.7878
1196.000000 0.7870 0.7855 0.7839 0.7820 0.7799
1201.000000 0.7779 0.7758 0.7737 0.7716 0.7696
1206.000000 0.7674 0.7653 0.7632 0.7611 0.7595
1211.000000 0.7579 0.7565 0.7550 0.7541 0.7539
1216.000000 0.7536 0.7534 0.7533 0.7540 0.7545
1221.000000 0.7550 0.7554 0.7559 0.7566 0.7575
1226.000000 0.7584 0.7594 0.7603 0.7611 0.7615
1231.000000 0.7619 0.7623 0.7627 0.7632 0.7629
1236.000000 0.7619 0.7606 0.7600 0.7590 0.7577
1241.000000 0.7555 0.7533 0.7511 0.7487 0.7457
1246.000000 0.7427 0.7398 0.7368 0.7342 0.7317
1251.000000 0.7292 0.7269 0.7259 0.7256 0.7252
1256.000000 0.7248 0.7254 0.7263 0.7248 0.7282
1261.000000 0.7296 0.7319 0.7341 0.7363 0.7391
1266.000000 0.7422 0.7453 0.7478 0.7499 0.7515
1271.000000 0.7520 0.7521 0.7523 0.7524 0.7540
1276.000000 0.7519 0.7515 0.7510 0.7505 0.7496
1281.000000 0.7488 0.7479 0.7470 0.7455 0.7438
1286.000000 0.7422 0.7405 0.7383 0.7360 0.7337
1291.000000 0.7314 0.7280 0.7238 0.7196 0.7155
1296.000000 0.7108 0.7051 0.6995 0.6938 0.6877
1301.000000 0.6812 0.6747 0.6682 0.6617 0.6556
1306.000000 0.6495 0.6434 0.6373 0.6312 0.6237
1311.000000 0.6131 0.6021 0.5911 0.5798 0.5666
1316.000000 0.5527 0.5389 0.5215 0.4853 0.3970
1321.000000 0.3734 0.3498 0.3262 0.3027 0.2792
1326.000000 0.2557 0.2323 0.2089 0.1855 0.1622
1331.000000 0.1389 0.1157 0.0925 0.0693 0.0532
1336.000000 0.0524 0.0551 0.0570 0.0599 0.0749
1341.000000 0.1034 0.1319 0.1603 0.1886 0.2170
1346.000000 0.2453 0.2734 0.3017 0.3298 0.3579
1351.000000 0.3860 0.4140 0.4420 0.4699 0.4979
1356.000000 0.5257 0.5535 0.5813 0.6090 0.6367
1361.000000 0.6644 0.6920 0.7196 0.7461 0.7576
1366.000000 0.7585 0.7237 0.6898 0.6559 0.6219
1371.000000 0.5881 0.5543 0.5206 0.4869 0.4533
1376.000000 0.4197 0.3862 0.3526 0.3192 0.2858
1381.000000 0.2525 0.2197 0.2275 0.2560 0.2916
1386.000000 0.3270 0.3625 0.3979 0.4333 0.4685
1391.000000 0.5038 0.5390 0.5741 0.6092 0.6442
1396.000000 0.6773 0.6904 0.6794 0.6921 0.6399
1401.000000 0.6201 0.6003 0.5805 0.5608 0.5411
1406.000000 0.5214 0.5017 0.4821 0.4625 0.4429
1411.000000 0.4234 0.4039 0.3844 0.3749 0.3701
1416.000000 0.3757 0.3834 0.3998 0.4173 0.4348
1421.000000 0.4522 0.4696 0.4870 0.5044 0.5218
1426.000000 0.5392 0.5564 0.5737 0.5909 0.6082
1431.000000 0.6254 0.6426 0.6609 0.6797 0.6939
1436.000000 0.7076 0.7208 0.7303 0.7388 0.7439
1441.000000 0.7478 0.7512 0.7564 0.7546 0.7552
1446.000000 0.7549 0.7543 0.7530 0.7512 0.7486
1451.000000 0.7457 0.7421 0.7364 0.7276 0.7176
1456.000000 0.7151 0.7096 0.7167 0.7191 0.7233
1461.000000 0.7292 0.7358 0.7421 0.7443 0.7491
1466.000000 0.7433 0.7419 0.7384 0.7334 0.7277
1471.000000 0.7215 0.7154 0.7095 0.7035 0.6989
1476.000000 0.6904 0.6951 0.6952 0.6955 0.6960
1481.000000 0.6989 0.7050 0.7126 0.7219 0.7299
1486.000000 0.7367 0.7425 0.7474 0.7494 0.7493
1491.000000 0.7491 0.7488 0.7485 0.7497 0.7536
1496.000000 0.7588 0.7642 0.7744 0.7855 0.8003
1501.000000 0.8135 0.8219 0.8280 0.8312 0.8338
1506.000000 0.8321 0.8315 0.8308 0.8300 0.8288
1511.000000 0.8272 0.8247 0.8206 0.8125 0.8027
1516.000000 0.7927 0.7830 0.7734 0.7670 0.7610
1521.000000 0.7548 0.7486 0.7422 0.7355 0.7287
1526.000000 0.7222 0.7167 0.7114 0.7061 0.7009
1531.000000 0.6957 0.6906 0.6864 0.6827 0.6789
1536.000000 0.6752 0.6715 0.6677 0.6640 0.6607
1541.000000 0.6584 0.6564 0.6545 0.6526 0.6506
1546.000000 0.6487 0.6467 0.6448 0.6428 0.6410
1551.000000 0.6391 0.6380 0.6374 0.6368 0.6362
1556.000000 0.6357 0.6350 0.6344 0.6338 0.6332
1561.000000 0.6327 0.6324 0.6323 0.6321 0.6320
1566.000000 0.6319 0.6317 0.6316 0.6315 0.6314
1571.000000 0.6312 0.6311 0.6310 0.6309 0.6307
1576.000000 0.6306 0.6296 0.6280 0.6265 0.6250
1581.000000 0.6234 0.6206 0.6169 0.6125 0.6029
1586.000000 0.5913 0.5798 0.5683 0.5568 0.5453
1591.000000 0.5339 0.5224 0.5110 0.4996 0.4882
1596.000000 0.4768 0.4682 0.4636 0.4605 0.4573
1601.000000 0.4535 0.4485 0.4418 0.4346 0.4270
1606.000000 0.4180 0.4084 0.3994 0.3924 0.3885
1611.000000 0.3861 0.3856 0.3850 0.3855 0.3858
1616.000000 0.3874 0.4092 0.4319 0.4546 0.4773
1621.000000 0.4998 0.5224 0.5450 0.5675 0.5900
1626.000000 0.6125 0.6350 0.6565 0.6736 0.6846
1631.000000 0.6956 0.7054 0.7150 0.7248 0.7378
1636.000000 0.7507 0.7633 0.7755 0.7877 0.7965
1641.000000 0.8027 0.8082 0.8137 0.8191 0.8238
1646.000000 0.8261 0.8284 0.8307 0.8330 0.8353
1651.000000 0.8375 0.8385 0.8389 0.8395 0.8400
1656.000000 0.8401 0.8399 0.8397 0.8403 0.8392
1661.000000 0.8387 0.8382 0.8377 0.8372 0.8366
1666.000000 0.8358 0.8350 0.8341 0.8328 0.8311
1671.000000 0.8286 0.8257 0.8229 0.8201 0.8163
1676.000000 0.8117 0.8069 0.8019 0.7964 0.7910
1681.000000 0.7856 0.7797 0.7736 0.7675 0.7607
1686.000000 0.7524 0.7430 0.7342 0.7259 0.7176
1691.000000 0.7046 0.6874 0.6686 0.6498 0.6310
1696.000000 0.6122 0.5934 0.5746 0.5559 0.5372
1701.000000 0.5185 0.4998 0.4812 0.4626 0.4440
1706.000000 0.4254 0.4069 0.3883 0.3698 0.3513
1711.000000 0.3328 0.3144 0.2960 0.2776 0.2592
1716.000000 0.2409 0.2226 0.2042 0.1859 0.1676
1721.000000 0.1494 0.1311 0.1129 0.0948 0.0766
1726.000000 0.0606 0.0526 0.0521 0.0542 0.0523
1731.000000 0.0527 0.0540 0.0623 0.0782 0.0962
1736.000000 0.1142 0.1321 0.1501 0.1680 0.1859
1741.000000 0.2037 0.2215 0.2394 0.2571 0.2749
1746.000000 0.2927 0.3104 0.3282 0.3459 0.3635
1751.000000 0.3812 0.3988 0.4164 0.4340 0.4516
1756.000000 0.4691 0.4867 0.5042 0.5217 0.5392
1761.000000 0.5567 0.5741 0.5915 0.6089 0.6262
1766.000000 0.6565 0.6960 0.7143 0.7515 0.7669
1771.000000 0.7732 0.7796 0.7858 0.7917 0.7970
1776.000000 0.8018 0.8067 0.8115 0.8163 0.8211
1781.000000 0.8256 0.8295 0.8333 0.8370 0.8408
1786.000000 0.8445 0.8483 0.8524 0.8569 0.8616
1791.000000 0.8662 0.8709 0.8755 0.8793 0.8824
1796.000000 0.8850 0.8876 0.8903 0.8929 0.8955
1801.000000 0.8981 0.9008 0.9028 0.9044 0.9057
1806.000000 0.9070 0.9083 0.9096 0.9109 0.9122
1811.000000 0.9135 0.9148 0.9161 0.9174 0.9187
1816.000000 0.9199 0.9211 0.9222 0.9232 0.9241
1821.000000 0.9251 0.9260 0.9270 0.9280 0.9289
1826.000000 0.9299 0.9308 0.9318 0.9327 0.9337
1831.000000 0.9345 0.9352 0.9358 0.9364 0.9371
1836.000000 0.9378 0.9384 0.9390 0.9397 0.9403
1841.000000 0.9409 0.9416 0.9422 0.9428 0.9434
1846.000000 0.9440 0.9447 0.9453 0.9459 0.9465
1851.000000 0.9471 0.9475 0.9478 0.9480 0.9483
1856.000000 0.9486 0.9488 0.9491 0.9493 0.9496
1861.000000 0.9499 0.9502 0.9504 0.9507 0.9510
1866.000000 0.9512 0.9514 0.9517 0.9517 0.9516
1871.000000 0.9516 0.9515 0.9514 0.9514 0.9513
1876.000000 0.9513 0.9512 0.9511 0.9509 0.9507
1881.000000 0.9505 0.9503 0.9501 0.9498 0.9496
1886.000000 0.9493 0.9491 0.9489 0.9487 0.9487
1891.000000 0.9487 0.9486 0.9485 0.9485 0.9485
1896.000000 0.9484 0.9484 0.9484 0.9483 0.9483
1901.000000 0.9483 0.9482 0.9482 0.9482 0.9482
1906.000000 0.9482 0.9484 0.9484 0.9485 0.9487
1911.000000 0.9487 0.9488 0.9490 0.9491 0.9492
1916.000000 0.9493 0.9494 0.9496 0.9497 0.9500
1921.000000 0.9503 0.9507 0.9509 0.9513 0.9516
1926.000000 0.9519 0.9522 0.9525 0.9528 0.9532
1931.000000 0.9537 0.9541 0.9545 0.9550 0.9554
1936.000000 0.9558 0.9562 0.9567 0.9571 0.9575
1941.000000 0.9579 0.9583 0.9586 0.9589 0.9593
1946.000000 0.9596 0.9600 0.9604 0.9607 0.9610
1951.000000 0.9614 0.9618 0.9621 0.9624 0.9628
1956.000000 0.9632 0.9633 0.9634 0.9634 0.9635
1961.000000 0.9636 0.9636 0.9637 0.9638 0.9638
1966.000000 0.9639 0.9640 0.9640 0.9641 0.9641
1971.000000 0.9641 0.9640 0.9639 0.9638 0.9637
1976.000000 0.9637 0.9636 0.9635 0.9635 0.9634
1981.000000 0.9633 0.9633 0.9632 0.9632 0.9631
1986.000000 0.9630 0.9630 0.9629 0.9628 0.9628
1991.000000 0.9627 0.9627 0.9626 0.9625 0.9625
1996.000000 0.9624 0.9623 0.9622 0.9621 0.9621
2001.000000 0.9620 0.9619 0.9619 0.9618 0.9617
2006.000000 0.9617 0.9616 0.9616 0.9615 0.9614
2011.000000 0.9614 0.9613 0.9612 0.9612 0.9612
2016.000000 0.9612 0.9612 0.9612 0.9612 0.9612
2021.000000 0.9612 0.9611 0.9611 0.9611 0.9611
2026.000000 0.9611 0.9611 0.9611 0.9611 0.9610
2031.000000 0.9610 0.9610 0.9610 0.9610 0.9610
2036.000000 0.9610 0.9610 0.9609 0.9609 0.9609
2041.000000 0.9609 0.9609 0.9609 0.9609 0.9609
2046.000000 0.9608 0.9608 0.9608 0.9608 0.9608
2051.000000 0.9607 0.9607 0.9606 0.9606 0.9605
2056.000000 0.9603 0.9603 0.9602 0.9602 0.9601
2061.000000 0.9601 0.9600 0.9599 0.9599 0.9598
2066.000000 0.9597 0.9596 0.9595 0.9595 0.9594
2071.000000 0.9594 0.9593 0.9592 0.9591 0.9590
2076.000000 0.9590 0.9589 0.9589 0.9588 0.9587
2081.000000 0.9587 0.9586 0.9586 0.9585 0.9584
2086.000000 0.9583 0.9582 0.9582 0.9581 0.9581
2091.000000 0.9580 0.9580 0.9578 0.9577 0.9577
2096.000000 0.9576 0.9576 0.9575 0.9575 0.9574
2101.000000 0.9574 0.9574 0.9573 0.9573 0.9572
2106.000000 0.9572 0.9572 0.9571 0.9571 0.9571
2111.000000 0.9571 0.9570 0.9570 0.9569 0.9569
2116.000000 0.9569 0.9568 0.9568 0.9567 0.9567
2121.000000 0.9567 0.9567 0.9566 0.9566 0.9565
2126.000000 0.9565 0.9565 0.9564 0.9564 0.9564
2131.000000 0.9564 0.9563 0.9563 0.9562 0.9562
2136.000000 0.9562 0.9561 0.9561 0.9560 0.9560
2141.000000 0.9560 0.9560 0.9559 0.9559 0.9558
2146.000000 0.9558 0.9558 0.9557 0.9557 0.9557
2151.000000 0.9557 0.9556 0.9556 0.9539 0.9556
2156.000000 0.9556 0.9556 0.9555 0.9555 0.9555
2161.000000 0.9555 0.9555 0.9554 0.9554 0.9554
2166.000000 0.9554 0.9554 0.9554 0.9553 0.9553
2171.000000 0.9553 0.9553 0.9553 0.9552 0.9552
2176.000000 0.9552 0.9552 0.9552 0.9552 0.9551
2181.000000 0.9551 0.9551 0.9551 0.9551 0.9551
2186.000000 0.9550 0.9550 0.9550 0.9550 0.9550
2191.000000 0.9550 0.9549 0.9549 0.9549 0.9549
2196.000000 0.9549 0.9548 0.9548 0.9548 0.9548
2201.000000 0.9548 0.9548 0.9547 0.9547 0.9547
2206.000000 0.9547 0.9547 0.9547 0.9546 0.9546
2211.000000 0.9545 0.9545 0.9544 0.9544 0.9543
2216.000000 0.9543 0.9542 0.9542 0.9542 0.9542
2221.000000 0.9541 0.9541 0.9540 0.9540 0.9539
2226.000000 0.9539 0.9538 0.9538 0.9537 0.9537
2231.000000 0.9536 0.9536 0.9535 0.9535 0.9534
2236.000000 0.9534 0.9533 0.9533 0.9532 0.9532
2241.000000 0.9531 0.9531 0.9530 0.9530 0.9529
2246.000000 0.9529 0.9528 0.9528 0.9528 0.9528
2251.000000 0.9527 0.9527 0.9526 0.9526 0.9525
2256.000000 0.9525 0.9524 0.9524 0.9523 0.9523
2261.000000 0.9522 0.9522 0.9521 0.9521 0.9520
2266.000000 0.9520 0.9519 0.9519 0.9519 0.9519
2271.000000 0.9518 0.9518 0.9517 0.9517 0.9516
2276.000000 0.9516 0.9516 0.9516 0.9515 0.9515
2281.000000 0.9515 0.9514 0.9514 0.9514 0.9514
2286.000000 0.9513 0.9513 0.9512 0.9512 0.9511
2291.000000 0.9511 0.9511 0.9511 0.9510 0.9510
2296.000000 0.9509 0.9509 0.9508 0.9508 0.9508
2301.000000 0.9508 0.9508 0.9507 0.9507 0.9506
2306.000000 0.9506 0.9506 0.9506 0.9505 0.9505
2311.000000 0.9505 0.9505 0.9505 0.9505 0.9505
2316.000000 0.9505 0.9505 0.9505 0.9505 0.9505
2321.000000 0.9505 0.9505 0.9505 0.9505 0.9505
2326.000000 0.9505 0.9505 0.9505 0.9505 0.9505
2331.000000 0.9505 0.9505 0.9504 0.9504 0.9504
2336.000000 0.9504 0.9504 0.9504 0.9504 0.9504
2341.000000 0.9504 0.9504 0.9504 0.9504 0.9504
2346.000000 0.9504 0.9504 0.9504 0.9504 0.9504
2351.000000 0.9504 0.9504 0.9504 0.9504 0.9504
2356.000000 0.9504 0.9504 0.9504 0.9503 0.9503
2361.000000 0.9503 0.9503 0.9502 0.9502 0.9502
2366.000000 0.9501 0.9501 0.9500 0.9500 0.9499
2371.000000 0.9499 0.9499 0.9499 0.9499 0.9498
2376.000000 0.9498 0.9497 0.9497 0.9496 0.9496
2381.000000 0.9495 0.9495 0.9495 0.9494 0.9494
2386.000000 0.9494 0.9494 0.9493 0.9493 0.9493
2391.000000 0.9492 0.9492 0.9491 0.9491 0.9490
2396.000000 0.9490 0.9490 0.9490 0.9490 0.9489
2401.000000 0.9489 0.9488 0.9488 0.9487 0.9487
2406.000000 0.9487 0.9486 0.9486 0.9486 0.9486
2411.000000 0.9485 0.9485 0.9485 0.9484 0.9484
2416.000000 0.9483 0.9483 0.9482 0.9482 0.9482
2421.000000 0.9482 0.9482 0.9482 0.9482 0.9481
2426.000000 0.9481 0.9481 0.9481 0.9481 0.9481
2431.000000 0.9481 0.9481 0.9481 0.9481 0.9481
2436.000000 0.9481 0.9481 0.9481 0.9481 0.9480
2441.000000 0.9480 0.9480 0.9480 0.9480 0.9480
2446.000000 0.9480 0.9480 0.9480 0.9480 0.9480
2451.000000 0.9480 0.9480 0.9480 0.9479 0.9479
2456.000000 0.9479 0.9479 0.9479 0.9479 0.9479
2461.000000 0.9479 0.9479 0.9479 0.9479 0.9479
2466.000000 0.9478 0.9478 0.9478 0.9478 0.9478
2471.000000 0.9478 0.9478 0.9478 0.9478 0.9478
2476.000000 0.9478 0.9478 0.9477 0.9477 0.9477
2481.000000 0.9476 0.9476 0.9475 0.9475 0.9475
2486.000000 0.9474 0.9474 0.9473 0.9473 0.9473
2491.000000 0.9472 0.9472 0.9471 0.9471 0.9471
2496.000000 0.9470 0.9470 0.9469 0.9469 0.9469
2501.000000 0.9468 0.9468 0.9467 0.9467 0.9467
2506.000000 0.9466 0.9466 0.9465 0.9465 0.9465
2511.000000 0.9464 0.9464 0.9463 0.9463 0.9463
2516.000000 0.9462 0.9461 0.9460 0.9460 0.9460
2521.000000 0.9459 0.9459 0.9458 0.9458 0.9458
2526.000000 0.9457 0.9456 0.9455 0.9455 0.9454
2531.000000 0.9453 0.9452 0.9451 0.9451 0.9450
2536.000000 0.9449 0.9448 0.9447 0.9446 0.9445
2541.000000 0.9444 0.9443 0.9443 0.9442 0.9441
2546.000000 0.9440 0.9440 0.9439 0.9438 0.9437
2551.000000 0.9436 0.9435 0.9434 0.9433 0.9432
2556.000000 0.9432 0.9431 0.9430 0.9429 0.9429
2561.000000 0.9428 0.9427 0.9426 0.9425 0.9424
2566.000000 0.9423 0.9422 0.9422 0.9421 0.9420
2571.000000 0.9419 0.9418 0.9416 0.9415 0.9414
2576.000000 0.9412 0.9411 0.9410 0.9409 0.9407
2581.000000 0.9406 0.9405 0.9404 0.9402 0.9401
2586.000000 0.9400 0.9399 0.9397 0.9396 0.9395
2591.000000 0.9394 0.9393 0.9392 0.9391 0.9389
2596.000000 0.9388 0.9386 0.9385 0.9384 0.9383
2601.000000 0.9382 0.9381 0.9380 0.9379 0.9377
2606.000000 0.9376 0.9374 0.9373 0.9372 0.9371
2611.000000 0.9370 0.9369 0.9368 0.9366 0.9365
2616.000000 0.9363 0.9362 0.9361 0.9360 0.9358
2621.000000 0.9357 0.9355 0.9354 0.9352 0.9351
2626.000000 0.9350 0.9348 0.9347 0.9345 0.9344
2631.000000 0.9342 0.9341 0.9339 0.9338 0.9337
2636.000000 0.9335 0.9334 0.9332 0.9331 0.9329
2641.000000 0.9328 0.9327 0.9325 0.9324 0.9322
2646.000000 0.9321 0.9319 0.9318 0.9317 0.9315
2651.000000 0.9314 0.9312 0.9311 0.9309 0.9308
2656.000000 0.9307 0.9305 0.9304 0.9302 0.9301
