##TITLE=ETHANOL, 2-METHYLTHIO
##JCAMP-DX=4.24
##DATA TYPE=INFRARED SPECTRUM
##CLASS=COBLENTZ
##ORIGIN=TENNESSEE EASTMAN COMPANY, RESEARCH LABORATORIES
##OWNER=COBLENTZ SOCIETY
Collection (C) 2018 copyright by the U.S. Secretary of Commerce
on behalf of the United States of America. All rights reserved.
##DATE=1960
##NAMES=2-(methylsulfanyl)ethanol
##CAS REGISTRY NO=5271-38-5
##MOLFORM=C3 H8 O S
##SOURCE REFERENCE=COBLENTZ NO. 936
##$NIST SOURCE=COBLENTZ
##$NIST IMAGE=cob936
##SPECTROMETER/DATA SYSTEM=Not specified, most likely a prism, grating, or hybrid spectrometer.
##PATH LENGTH=SMEAR
##SAMPLING PROCEDURE=TRANSMISSION
##RESOLUTION=4
##DATA PROCESSING=DIGITIZED BY NIST FROM HARD COPY
##XUNITS=MICROMETERS
##YUNITS=TRANSMITTANCE
##XFACTOR=1.000000
##YFACTOR=1
##DELTAX=000.006645
##FIRSTX=2.017
##LASTX=15.9766
##FIRSTY=0.944
##MAXX=15.9766
##MINX=2.017
##MAXY=0.944
##MINY=0.28
##NPOINTS=2102
##XYDATA=(X++(Y..Y))
2.017000 0.9440 0.9440 0.9440 0.9440 0.9430
2.050238 0.9440 0.9430 0.9410 0.9410 0.9390
2.083000 0.9390 0.9390 0.9390 0.9390 0.9390
2.116238 0.9410 0.9410 0.9410 0.9390 0.9380
2.150000 0.9380 0.9360 0.9340 0.9340 0.9340
2.183238 0.9340 0.9360 0.9360 0.9360 0.9360
2.216000 0.9340 0.9340 0.9340 0.9330 0.9330
2.249238 0.9310 0.9310 0.9310 0.9290 0.9290
2.282000 0.9280 0.9240 0.9230 0.9180 0.9130
2.315238 0.9130 0.9130 0.9130 0.9130 0.9130
2.349000 0.9130 0.9140 0.9140 0.9130 0.9130
2.382238 0.9140 0.9140 0.9160 0.9140 0.9160
2.415000 0.9160 0.9160 0.9160 0.9160 0.9160
2.448238 0.9160 0.9160 0.9160 0.9160 0.9180
2.482000 0.9180 0.9160 0.9140 0.9140 0.9160
2.515238 0.9160 0.9160 0.9160 0.9140 0.9140
2.548000 0.9140 0.9160 0.9140 0.9140 0.9140
2.581238 0.9140 0.9160 0.9180 0.9160 0.9160
2.615000 0.9160 0.9160 0.9160 0.9180 0.9180
2.648238 0.9180 0.9180 0.9160 0.9130 0.9140
2.681000 0.9160 0.9190 0.9230 0.9240 0.9260
2.714238 0.9260 0.9180 0.9160 0.9140 0.9130
2.748000 0.9090 0.9030 0.8960 0.8860 0.8780
2.781238 0.8690 0.8590 0.8480 0.8360 0.8240
2.814000 0.8090 0.7940 0.7770 0.7540 0.7290
2.847238 0.7110 0.6870 0.6620 0.6370 0.6120
2.880000 0.5850 0.5570 0.5290 0.4990 0.4650
2.913238 0.4450 0.4270 0.4100 0.3930 0.3780
2.947000 0.3650 0.3530 0.3430 0.3330 0.3280
2.980238 0.3270 0.3230 0.3120 0.3100 0.3080
3.013000 0.3070 0.3050 0.3050 0.3050 0.3070
3.046238 0.3070 0.3080 0.3100 0.3150 0.3220
3.080000 0.3300 0.3380 0.3450 0.3550 0.3680
3.113238 0.3800 0.3900 0.4020 0.4140 0.4290
3.146000 0.4450 0.4640 0.4790 0.4870 0.5000
3.179238 0.5070 0.5270 0.5550 0.5790 0.5970
3.213000 0.6120 0.6260 0.6370 0.6470 0.6560
3.246238 0.6660 0.6760 0.6860 0.6970 0.7110
3.279000 0.7290 0.7370 0.7460 0.7520 0.7610
3.312238 0.7640 0.7660 0.7660 0.7670 0.7690
3.346000 0.7710 0.7690 0.7660 0.7540 0.7240
3.379238 0.6960 0.6670 0.6360 0.5450 0.5100
3.412000 0.5090 0.5070 0.5040 0.5020 0.4990
3.445238 0.4590 0.4100 0.4100 0.4200 0.4850
3.478000 0.5340 0.5520 0.5540 0.5490 0.5350
3.511238 0.5300 0.5350 0.5540 0.5770 0.6010
3.545000 0.6190 0.6340 0.6490 0.6620 0.6770
3.578238 0.6920 0.7110 0.7310 0.7460 0.7560
3.611000 0.7690 0.7740 0.7790 0.7810 0.7840
3.644238 0.7960 0.8010 0.8030 0.8040 0.8090
3.678000 0.8130 0.8140 0.8180 0.8180 0.8190
3.711238 0.8180 0.8190 0.8190 0.8190 0.8210
3.744000 0.8230 0.8240 0.8260 0.8290 0.8360
3.777238 0.8390 0.8390 0.8410 0.8440 0.8480
3.811000 0.8490 0.8490 0.8490 0.8490 0.8490
3.844238 0.8510 0.8490 0.8510 0.8510 0.8530
3.877000 0.8530 0.8510 0.8530 0.8530 0.8540
3.910238 0.8530 0.8560 0.8580 0.8580 0.8590
3.944000 0.8610 0.8610 0.8610 0.8610 0.8630
3.977238 0.8630 0.8640 0.8660 0.8660 0.8680
4.010000 0.8690 0.8710 0.8710 0.8730 0.8730
4.043238 0.8730 0.8740 0.8740 0.8760 0.8760
4.076000 0.8760 0.8760 0.8780 0.8790 0.8780
4.109238 0.8790 0.8790 0.8810 0.8810 0.8810
4.143000 0.8810 0.8810 0.8810 0.8810 0.8810
4.176238 0.8810 0.8810 0.8810 0.8810 0.8810
4.209000 0.8830 0.8830 0.8830 0.8810 0.8830
4.242238 0.8840 0.8910 0.8980 0.9110 0.9260
4.276000 0.9330 0.9380 0.9410 0.9410 0.9410
4.309238 0.9410 0.9410 0.9410 0.9410 0.9410
4.342000 0.9390 0.9390 0.9360 0.9330 0.9260
4.375238 0.9160 0.9080 0.9030 0.8990 0.8940
4.409000 0.8930 0.8930 0.8930 0.8930 0.8930
4.442238 0.8930 0.8930 0.8930 0.8930 0.8940
4.475000 0.8940 0.8940 0.8940 0.8940 0.8940
4.508238 0.8940 0.8940 0.8930 0.8930 0.8930
4.542000 0.8930 0.8930 0.8930 0.8930 0.8940
4.575238 0.8940 0.8940 0.8930 0.8930 0.8930
4.608000 0.8940 0.8940 0.8940 0.8940 0.8940
4.641238 0.8940 0.8930 0.8930 0.8930 0.8930
4.674000 0.8930 0.8930 0.8930 0.8940 0.8940
4.707238 0.8940 0.8930 0.8910 0.8910 0.8930
4.741000 0.8930 0.8930 0.8910 0.8910 0.8930
4.774238 0.8930 0.8930 0.8930 0.8930 0.8910
4.807000 0.8910 0.8910 0.8910 0.8910 0.8910
4.840238 0.8930 0.8930 0.8930 0.8930 0.8910
4.874000 0.8910 0.8910 0.8890 0.8890 0.8880
4.907238 0.8880 0.8840 0.8790 0.8780 0.8780
4.940000 0.8790 0.8790 0.8790 0.8810 0.8810
4.973238 0.8810 0.8810 0.8810 0.8830 0.8830
5.007000 0.8840 0.8840 0.8860 0.8880 0.8910
5.040238 0.8940 0.8940 0.8940 0.8940 0.8930
5.073000 0.8930 0.8940 0.8940 0.8940 0.8940
5.106238 0.8930 0.8930 0.8930 0.8930 0.8930
5.140000 0.8940 0.8960 0.8940 0.8940 0.8940
5.173238 0.8960 0.8960 0.8960 0.8960 0.8960
5.206000 0.8960 0.8960 0.8960 0.8960 0.8960
5.239238 0.8940 0.8940 0.8940 0.8940 0.8930
5.272000 0.8930 0.8930 0.8930 0.8940 0.8960
5.305238 0.8940 0.8940 0.8940 0.8930 0.8930
5.339000 0.8930 0.8930 0.8930 0.9010 0.9010
5.372238 0.8990 0.8980 0.8940 0.8940 0.8940
5.405000 0.8940 0.8940 0.8940 0.8980 0.8980
5.438238 0.9010 0.9010 0.9010 0.9010 0.9010
5.472000 0.9010 0.9010 0.9010 0.9010 0.9010
5.505238 0.9010 0.9010 0.8960 0.8940 0.8940
5.538000 0.8960 0.8960 0.8960 0.8960 0.8960
5.571238 0.8940 0.8940 0.8940 0.8960 0.8980
5.605000 0.8960 0.8940 0.8940 0.8930 0.8930
5.638238 0.8940 0.8960 0.9010 0.9010 0.8980
5.671000 0.8940 0.8930 0.8930 0.8930 0.8930
5.704238 0.8940 0.8940 0.8940 0.8940 0.8940
5.738000 0.8930 0.8910 0.8880 0.8840 0.8840
5.771238 0.8840 0.8830 0.8810 0.8760 0.8680
5.804000 0.8610 0.8610 0.8630 0.8630 0.8660
5.837238 0.8710 0.8710 0.8710 0.8690 0.8680
5.870000 0.8660 0.8640 0.8640 0.8680 0.8710
5.903238 0.8730 0.8730 0.8710 0.8680 0.8590
5.937000 0.8530 0.8530 0.8530 0.8530 0.8630
5.970238 0.8630 0.8630 0.8610 0.8510 0.8480
6.003000 0.8430 0.8440 0.8430 0.8390 0.8340
6.036238 0.8330 0.8290 0.8240 0.8240 0.8260
6.070000 0.8280 0.8260 0.8240 0.8210 0.8160
6.103238 0.8080 0.7990 0.7970 0.7990 0.8010
6.136000 0.8010 0.8030 0.8040 0.8040 0.8030
6.169238 0.8040 0.8060 0.8130 0.8140 0.8210
6.203000 0.8210 0.8190 0.8190 0.8190 0.8210
6.236238 0.8240 0.8310 0.8360 0.8380 0.8390
6.269000 0.8390 0.8410 0.8410 0.8430 0.8430
6.302238 0.8440 0.8460 0.8480 0.8490 0.8490
6.336000 0.8510 0.8510 0.8510 0.8510 0.8510
6.369238 0.8490 0.8490 0.8510 0.8510 0.8530
6.402000 0.8540 0.8530 0.8530 0.8530 0.8510
6.435238 0.8440 0.8430 0.8440 0.8460 0.8510
6.468000 0.8530 0.8530 0.8540 0.8540 0.8510
6.501238 0.8440 0.8440 0.8440 0.8440 0.8440
6.535000 0.8440 0.8460 0.8480 0.8480 0.8460
6.568238 0.8440 0.8440 0.8430 0.8360 0.8330
6.601000 0.8330 0.8380 0.8380 0.8380 0.8360
6.634238 0.8330 0.8260 0.8140 0.8130 0.8130
6.668000 0.8140 0.8140 0.8130 0.8110 0.8110
6.701238 0.8080 0.8010 0.7940 0.7840 0.7740
6.734000 0.7620 0.7590 0.7590 0.7560 0.7520
6.767238 0.7410 0.7360 0.7210 0.7020 0.6890
6.801000 0.6710 0.6660 0.6620 0.6620 0.6640
6.834238 0.6690 0.6690 0.6690 0.6710 0.6710
6.867000 0.6710 0.6660 0.6590 0.6470 0.6420
6.900238 0.6310 0.6170 0.6020 0.5870 0.5700
6.934000 0.5540 0.5390 0.5250 0.5170 0.5070
6.967238 0.5050 0.5040 0.5000 0.4970 0.4900
7.000000 0.4850 0.4790 0.4740 0.4740 0.4800
7.033238 0.4950 0.5050 0.5170 0.5200 0.5270
7.066000 0.5400 0.5470 0.5490 0.5500 0.5520
7.099238 0.5520 0.5520 0.5520 0.5540 0.5600
7.133000 0.5670 0.5800 0.5890 0.5940 0.5970
7.166238 0.6010 0.6010 0.6020 0.6020 0.6040
7.199000 0.6060 0.6090 0.6110 0.6120 0.6140
7.232238 0.6140 0.6160 0.6160 0.6210 0.6240
7.266000 0.6340 0.6360 0.6370 0.6370 0.6410
7.299238 0.6420 0.6460 0.6490 0.6520 0.6570
7.332000 0.6620 0.6760 0.6770 0.6810 0.6820
7.365238 0.6840 0.6860 0.6870 0.6910 0.6940
7.399000 0.6990 0.7040 0.7060 0.7090 0.7110
7.432238 0.7090 0.7070 0.7060 0.7060 0.7060
7.465000 0.7060 0.7060 0.7060 0.7060 0.7060
7.498238 0.7060 0.7040 0.7020 0.6990 0.6940
7.532000 0.6910 0.6860 0.6840 0.6810 0.6790
7.565238 0.6760 0.6760 0.6740 0.6720 0.6710
7.598000 0.6720 0.6740 0.6760 0.6820 0.6870
7.631238 0.6940 0.6990 0.7040 0.7060 0.7070
7.664000 0.7070 0.7070 0.7070 0.7070 0.7070
7.697238 0.7070 0.7070 0.7010 0.6860 0.6710
7.731000 0.6620 0.6540 0.6470 0.6390 0.6320
7.764238 0.6260 0.6220 0.6170 0.6140 0.6120
7.797000 0.6140 0.6170 0.6240 0.6320 0.6410
7.830238 0.6510 0.6620 0.6740 0.6870 0.6940
7.864000 0.6990 0.7070 0.7160 0.7240 0.7320
7.897238 0.7410 0.7490 0.7540 0.7590 0.7610
7.930000 0.7640 0.7690 0.7720 0.7760 0.7820
7.963238 0.7840 0.7860 0.7860 0.7860 0.7870
7.997000 0.7870 0.7870 0.7890 0.7890 0.7890
8.030238 0.7910 0.7910 0.7890 0.7890 0.7870
8.063000 0.7860 0.7810 0.7760 0.7710 0.7670
8.096238 0.7620 0.7570 0.7510 0.7440 0.7340
8.130000 0.7290 0.7260 0.7240 0.7220 0.7220
8.163238 0.7220 0.7260 0.7270 0.7310 0.7340
8.196000 0.7370 0.7410 0.7460 0.7510 0.7560
8.229238 0.7570 0.7590 0.7590 0.7610 0.7620
8.262000 0.7620 0.7620 0.7620 0.7620 0.7640
8.295238 0.7640 0.7640 0.7640 0.7640 0.7640
8.329000 0.7620 0.7620 0.7620 0.7620 0.7620
8.362238 0.7620 0.7610 0.7610 0.7570 0.7570
8.395000 0.7540 0.7540 0.7540 0.7520 0.7490
8.428238 0.7440 0.7370 0.7320 0.7270 0.7240
8.462000 0.7220 0.7170 0.7090 0.7010 0.6790
8.495238 0.6770 0.6770 0.6770 0.6790 0.6790
8.528000 0.6770 0.6770 0.6760 0.6740 0.6740
8.561238 0.6740 0.6740 0.6740 0.6740 0.6740
8.595000 0.6740 0.6740 0.6770 0.6810 0.6820
8.628238 0.6820 0.6840 0.6870 0.6910 0.6920
8.661000 0.6940 0.6970 0.7010 0.7070 0.7120
8.694238 0.7190 0.7220 0.7260 0.7290 0.7310
8.728000 0.7340 0.7370 0.7390 0.7410 0.7440
8.761238 0.7470 0.7510 0.7540 0.7560 0.7560
8.794000 0.7570 0.7590 0.7610 0.7640 0.7660
8.827238 0.7710 0.7720 0.7720 0.7720 0.7740
8.860000 0.7740 0.7740 0.7740 0.7740 0.7760
8.893238 0.7760 0.7760 0.7760 0.7760 0.7760
8.927000 0.7760 0.7760 0.7760 0.7760 0.7760
8.960238 0.7760 0.7760 0.7760 0.7760 0.7760
8.993000 0.7740 0.7740 0.7740 0.7740 0.7720
9.026238 0.7720 0.7720 0.7720 0.7720 0.7720
9.060000 0.7710 0.7710 0.7690 0.7690 0.7620
9.093238 0.7590 0.7540 0.7520 0.7510 0.7510
9.126000 0.7490 0.7440 0.7360 0.7290 0.7220
9.159238 0.7120 0.7040 0.6940 0.6820 0.6710
9.193000 0.6590 0.6470 0.6340 0.6190 0.6040
9.226238 0.5890 0.5740 0.5570 0.5390 0.5220
9.259000 0.5040 0.4840 0.4650 0.4440 0.4320
9.292238 0.4220 0.4090 0.3970 0.3880 0.3780
9.326000 0.3700 0.3570 0.3480 0.3420 0.3370
9.359238 0.3330 0.3300 0.3270 0.3230 0.3200
9.392000 0.3180 0.3180 0.3180 0.3180 0.3180
9.425238 0.3180 0.3180 0.3180 0.3180 0.3180
9.458000 0.3200 0.3200 0.3180 0.3180 0.3180
9.491238 0.3170 0.3150 0.3130 0.3080 0.3030
9.525000 0.3000 0.2980 0.2950 0.2900 0.2880
9.558238 0.2850 0.2830 0.2820 0.2800 0.2800
9.591000 0.2800 0.2820 0.2820 0.2850 0.2880
9.624238 0.2920 0.2970 0.3020 0.3080 0.3130
9.658000 0.3200 0.3270 0.3330 0.3400 0.3470
9.691238 0.3530 0.3580 0.3620 0.3680 0.3780
9.724000 0.3820 0.3870 0.3900 0.3970 0.4000
9.757238 0.4040 0.4050 0.4070 0.4100 0.4120
9.791000 0.4150 0.4170 0.4170 0.4170 0.4170
9.824238 0.4170 0.4100 0.4070 0.4070 0.4040
9.857000 0.4020 0.4020 0.4020 0.4020 0.4040
9.890238 0.4040 0.4040 0.4050 0.4090 0.4120
9.924000 0.4250 0.4340 0.4420 0.4540 0.4620
9.957238 0.4700 0.4750 0.4820 0.5020 0.5120
9.990000 0.5220 0.5320 0.5450 0.5570 0.5700
10.023238 0.5820 0.5950 0.6090 0.6190 0.6270
10.056000 0.6340 0.6420 0.6470 0.6540 0.6570
10.089238 0.6670 0.6770 0.6840 0.6870 0.6910
10.123000 0.6960 0.7010 0.7090 0.7160 0.7190
10.156238 0.7210 0.7240 0.7260 0.7260 0.7260
10.189000 0.7260 0.7270 0.7270 0.7270 0.7270
10.222238 0.7290 0.7290 0.7290 0.7290 0.7310
10.256000 0.7310 0.7310 0.7310 0.7310 0.7310
10.289238 0.7310 0.7310 0.7310 0.7310 0.7310
10.322000 0.7260 0.7240 0.7190 0.7140 0.7110
10.355238 0.7090 0.7070 0.7040 0.7020 0.6960
10.389000 0.6860 0.6770 0.6740 0.6710 0.6710
10.422238 0.6690 0.6670 0.6670 0.6670 0.6660
10.455000 0.6660 0.6660 0.6670 0.6670 0.6710
10.488238 0.6760 0.6810 0.6810 0.6810 0.6810
10.522000 0.6820 0.6820 0.6820 0.6820 0.6810
10.555238 0.6810 0.6810 0.6810 0.6790 0.6770
10.588000 0.6760 0.6740 0.6710 0.6690 0.6660
10.621238 0.6620 0.6610 0.6540 0.6520 0.6490
10.654000 0.6440 0.6440 0.6440 0.6440 0.6440
10.687238 0.6440 0.6440 0.6440 0.6470 0.6510
10.721000 0.6560 0.6610 0.6660 0.6710 0.6760
10.754238 0.6810 0.6860 0.6910 0.6960 0.7010
10.787000 0.7060 0.7120 0.7190 0.7260 0.7290
10.820238 0.7320 0.7390 0.7460 0.7520 0.7590
10.854000 0.7640 0.7670 0.7710 0.7740 0.7770
10.887238 0.7790 0.7820 0.7840 0.7860 0.7910
10.920000 0.7910 0.7940 0.7990 0.7990 0.8010
10.953238 0.8010 0.8030 0.8030 0.8040 0.8040
10.987000 0.8060 0.8080 0.8080 0.8080 0.8080
11.020238 0.8090 0.8090 0.8090 0.8090 0.8110
11.053000 0.8110 0.8110 0.8130 0.8130 0.8130
11.086238 0.8140 0.8140 0.8140 0.8140 0.8160
11.120000 0.8160 0.8160 0.8180 0.8180 0.8180
11.153238 0.8180 0.8180 0.8180 0.8180 0.8180
11.186000 0.8180 0.8190 0.8190 0.8190 0.8190
11.219238 0.8190 0.8190 0.8190 0.8190 0.8190
11.252000 0.8190 0.8190 0.8190 0.8190 0.8190
11.285238 0.8190 0.8190 0.8190 0.8190 0.8190
11.319000 0.8190 0.8190 0.8190 0.8190 0.8190
11.352238 0.8190 0.8190 0.8190 0.8190 0.8190
11.385000 0.8190 0.8190 0.8190 0.8190 0.8210
11.418238 0.8190 0.8190 0.8190 0.8190 0.8190
11.452000 0.8190 0.8190 0.8190 0.8190 0.8190
11.485238 0.8190 0.8190 0.8190 0.8190 0.8190
11.518000 0.8190 0.8190 0.8190 0.8190 0.8190
11.551238 0.8190 0.8190 0.8190 0.8190 0.8190
11.585000 0.8190 0.8190 0.8190 0.8190 0.8190
11.618238 0.8180 0.8180 0.8180 0.8180 0.8180
11.651000 0.8180 0.8180 0.8180 0.8180 0.8180
11.684238 0.8180 0.8180 0.8180 0.8180 0.8180
11.718000 0.8160 0.8160 0.8160 0.8160 0.8160
11.751238 0.8160 0.8160 0.8160 0.8140 0.8140
11.784000 0.8130 0.8130 0.8110 0.8090 0.8090
11.817238 0.8080 0.8060 0.8060 0.8040 0.8030
11.850000 0.8030 0.8010 0.8010 0.7990 0.7990
11.883238 0.7970 0.7970 0.7960 0.7960 0.7960
11.917000 0.7940 0.7940 0.7940 0.7940 0.7920
11.950238 0.7920 0.7920 0.7910 0.7910 0.7910
11.983000 0.7910 0.7910 0.7910 0.7910 0.7910
12.016238 0.7910 0.7910 0.7910 0.7910 0.7910
12.050000 0.7890 0.7890 0.7890 0.7870 0.7870
12.083238 0.7870 0.7820 0.7820 0.7820 0.7810
12.116000 0.7810 0.7790 0.7770 0.7740 0.7740
12.149238 0.7710 0.7690 0.7670 0.7660 0.7640
12.183000 0.7620 0.7590 0.7570 0.7540 0.7540
12.216238 0.7520 0.7520 0.7510 0.7490 0.7470
12.249000 0.7470 0.7470 0.7470 0.7470 0.7470
12.282238 0.7470 0.7490 0.7490 0.7490 0.7510
12.316000 0.7520 0.7520 0.7540 0.7540 0.7560
12.349238 0.7560 0.7590 0.7590 0.7610 0.7620
12.382000 0.7620 0.7640 0.7660 0.7660 0.7670
12.415238 0.7670 0.7670 0.7670 0.7670 0.7670
12.449000 0.7670 0.7670 0.7670 0.7670 0.7670
12.482238 0.7670 0.7670 0.7670 0.7670 0.7670
12.515000 0.7670 0.7670 0.7670 0.7660 0.7660
12.548238 0.7640 0.7640 0.7620 0.7620 0.7620
12.581000 0.7610 0.7620 0.7620 0.7620 0.7620
12.614238 0.7610 0.7610 0.7570 0.7560 0.7560
12.648000 0.7540 0.7520 0.7510 0.7490 0.7460
12.681238 0.7460 0.7440 0.7440 0.7420 0.7410
12.714000 0.7390 0.7390 0.7360 0.7340 0.7340
12.747238 0.7310 0.7270 0.7260 0.7240 0.7220
12.781000 0.7210 0.7190 0.7170 0.7160 0.7160
12.814238 0.7140 0.7090 0.7070 0.7040 0.7020
12.847000 0.6990 0.6970 0.6960 0.6940 0.6910
12.880238 0.6890 0.6870 0.6860 0.6860 0.6860
12.914000 0.6840 0.6840 0.6820 0.6820 0.6820
12.947238 0.6820 0.6820 0.6820 0.6820 0.6820
12.980000 0.6820 0.6820 0.6820 0.6820 0.6820
13.013238 0.6820 0.6820 0.6820 0.6820 0.6840
13.047000 0.6840 0.6840 0.6860 0.6860 0.6870
13.080238 0.6890 0.6910 0.6910 0.6910 0.6910
13.113000 0.6910 0.6910 0.6910 0.6910 0.6910
13.146238 0.6910 0.6910 0.6910 0.6910 0.6910
13.179000 0.6910 0.6910 0.6910 0.6910 0.6910
13.212238 0.6910 0.6910 0.6910 0.6910 0.6910
13.246000 0.6910 0.6910 0.6910 0.6910 0.6910
13.279238 0.6910 0.6910 0.6910 0.6910 0.6910
13.312000 0.6910 0.6910 0.6910 0.6910 0.6910
13.345238 0.6910 0.6910 0.6910 0.6910 0.6910
13.379000 0.6910 0.6910 0.6910 0.6910 0.6910
13.412238 0.6910 0.6910 0.6910 0.6910 0.6910
13.445000 0.6910 0.6910 0.6910 0.6910 0.6890
13.478238 0.6890 0.6890 0.6890 0.6870 0.6870
13.512000 0.6870 0.6870 0.6870 0.6860 0.6860
13.545238 0.6860 0.6860 0.6840 0.6840 0.6840
13.578000 0.6840 0.6840 0.6820 0.6820 0.6810
13.611238 0.6810 0.6810 0.6790 0.6790 0.6790
13.645000 0.6770 0.6770 0.6760 0.6740 0.6720
13.678238 0.6710 0.6710 0.6690 0.6690 0.6690
13.711000 0.6670 0.6670 0.6660 0.6640 0.6620
13.744238 0.6610 0.6570 0.6560 0.6540 0.6520
13.777000 0.6520 0.6520 0.6520 0.6520 0.6520
13.810238 0.6520 0.6510 0.6510 0.6510 0.6510
13.844000 0.6490 0.6490 0.6490 0.6470 0.6460
13.877238 0.6460 0.6460 0.6460 0.6460 0.6440
13.910000 0.6440 0.6440 0.6440 0.6440 0.6440
13.943238 0.6440 0.6440 0.6440 0.6420 0.6420
13.977000 0.6420 0.6420 0.6420 0.6420 0.6420
14.010238 0.6420 0.6420 0.6410 0.6410 0.6410
14.043000 0.6390 0.6360 0.6340 0.6320 0.6310
14.076238 0.6310 0.6290 0.6290 0.6270 0.6270
14.110000 0.6260 0.6240 0.6240 0.6220 0.6210
14.143238 0.6170 0.6170 0.6160 0.6140 0.6120
14.176000 0.6110 0.6090 0.6070 0.6060 0.6040
14.209238 0.6010 0.6010 0.5990 0.5970 0.5950
14.243000 0.5940 0.5920 0.5900 0.5890 0.5870
14.276238 0.5850 0.5840 0.5840 0.5820 0.5820
14.309000 0.5800 0.5800 0.5790 0.5790 0.5790
14.342238 0.5790 0.5790 0.5790 0.5790 0.5790
14.375000 0.5790 0.5800 0.5800 0.5800 0.5800
14.408238 0.5800 0.5800 0.5800 0.5800 0.5800
14.442000 0.5800 0.5800 0.5800 0.5800 0.5800
14.475238 0.5800 0.5800 0.5800 0.5800 0.5800
14.508000 0.5800 0.5800 0.5800 0.5800 0.5820
14.541238 0.5820 0.5820 0.5820 0.5820 0.5820
14.575000 0.5820 0.5820 0.5820 0.5820 0.5820
14.608238 0.5820 0.5820 0.5820 0.5820 0.5820
14.641000 0.5820 0.5820 0.5820 0.5800 0.5800
14.674238 0.5800 0.5790 0.5790 0.5790 0.5790
14.708000 0.5790 0.5770 0.5770 0.5770 0.5770
14.741238 0.5770 0.5770 0.5770 0.5750 0.5750
14.774000 0.5750 0.5740 0.5740 0.5720 0.5700
14.807238 0.5700 0.5700 0.5700 0.5700 0.5700
14.841000 0.5690 0.5670 0.5670 0.5650 0.5640
14.874238 0.5640 0.5620 0.5620 0.5600 0.5600
14.907000 0.5600 0.5600 0.5590 0.5590 0.5590
14.940238 0.5590 0.5590 0.5590 0.5590 0.5590
14.973000 0.5590 0.5590 0.5590 0.5570 0.5570
15.006238 0.5570 0.5570 0.5570 0.5570 0.5570
15.040000 0.5570 0.5570 0.5570 0.5550 0.5540
15.073238 0.5540 0.5540 0.5500 0.5490 0.5450
15.106000 0.5440 0.5390 0.5350 0.5340 0.5300
15.139238 0.5290 0.5250 0.5200 0.5190 0.5170
15.173000 0.5170 0.5170 0.5170 0.5150 0.5150
15.206238 0.5150 0.5150 0.5150 0.5150 0.5150
15.239000 0.5150 0.5150 0.5150 0.5150 0.5150
15.272238 0.5150 0.5150 0.5150 0.5150 0.5150
15.306000 0.5150 0.5150 0.5150 0.5150 0.5150
15.339238 0.5150 0.5150 0.5150 0.5150 0.5150
15.372000 0.5150 0.5150 0.5150 0.5150 0.5170
15.405238 0.5170 0.5170 0.5170 0.5170 0.5170
15.439000 0.5170 0.5170 0.5170 0.5170 0.5170
15.472238 0.5170 0.5170 0.5170 0.5170 0.5170
15.505000 0.5170 0.5170 0.5170 0.5170 0.5170
15.538238 0.5170 0.5170 0.5170 0.5170 0.5170
15.571000 0.5190 0.5190 0.5190 0.5190 0.5190
15.604238 0.5190 0.5190 0.5200 0.5190 0.5190
15.638000 0.5200 0.5200 0.5200 0.5200 0.5200
15.671238 0.5200 0.5200 0.5200 0.5200 0.5200
15.704000 0.5200 0.5200 0.5200 0.5200 0.5220
15.737238 0.5220 0.5220 0.5220 0.5220 0.5220
15.771000 0.5220 0.5220 0.5220 0.5220 0.5220
15.804238 0.5220 0.5220 0.5220 0.5220 0.5220
15.837000 0.5220 0.5220 0.5240 0.5240 0.5240
15.870238 0.5250 0.5250 0.5250 0.5250 0.5270
15.904000 0.5270 0.5290 0.5300 0.5300 0.5300
15.937238 0.5300 0.5300 0.5320 0.5320 0.5320
15.970000 0.5340 0.5320
##END=
