##TITLE=1,3-Dichloroacetone
##JCAMP-DX=4.24
##DATA TYPE=INFRARED SPECTRUM
##ORIGIN=EPA-IR VAPOR PHASE LIBRARY
##OWNER=SRD/NIST
Collection (C) 2018 copyright by the U.S. Secretary of Commerce
on behalf of the United States of America. All rights reserved.
##CAS REGISTRY NO=534-07-6
##MOLFORM=C 3 H 4 Cl 2 O
##$NIST SOURCE=MSDC-IR
##STATE=gas
##XUNITS=1/CM
##YUNITS=ABSORBANCE
##XFACTOR=1.
##YFACTOR=0.001
##DELTAX=3.85796
##FIRSTX=501.5
##LASTX=4000.7
##FIRSTY=2.947
##MAXX=4000.7
##MINX=501.534
##MAXY=0.040567
##MINY=0
##NPOINTS=908
##XYDATA=(X++(Y..Y))
501.534 2.947 2.627 2.587 2.747 2.707 2.807 2.967 3.147 3.347 3.687
540.114 4.107 4.377 4.467 4.497 4.447 4.257 3.977 3.817 3.717 3.447
578.693 3.257 3.187 3.137 3.087 2.907 2.797 2.847 2.927 2.957 2.977
617.273 2.987 2.957 2.897 2.707 2.457 2.287 2.027 1.827 1.737 1.607
655.852 1.587 1.577 1.647 1.837 1.897 2.077 2.447 2.857 3.217 3.317
694.432 3.497 3.877 3.977 3.977 4.157 4.387 4.737 5.257 5.717 6.017
733.011 6.257 6.367 6.297 6.167 6.017 5.927 5.957 6.097 6.597 7.477
771.591 8.537 9.447 9.897 9.887 9.587 9.167 8.467 7.707 7.177 6.837
810.170 6.567 6.397 6.267 6.047 5.737 5.347 4.967 4.427 3.727 3.107
848.750 2.637 2.237 1.907 1.657 1.467 1.275 1.1247 1.0162 0.9124 0.8109
887.330 0.6823 0.6423 0.6682 0.6014 0.5266 0.5481 0.5179 0.4871 0.5388 0.5785
925.909 0.5311 0.5253 0.5843 0.6294 0.6983 0.7462 0.7606 0.787 0.7729 0.6876
964.489 0.6354 0.662 0.6847 0.6924 0.6634 0.6452 0.684 0.6818 0.6769 0.6515
1003.068 0.6495 0.6482 0.6674 0.7172 0.7829 0.8246 0.8986 1.0789 1.2973 1.547
1041.648 1.707 1.897 2.207 2.427 2.637 2.987 3.577 4.157 4.797 5.527
1080.227 6.117 6.607 7.087 7.467 7.517 7.427 7.327 7.137 6.757 6.457
1118.807 6.067 5.627 5.387 5.107 4.877 4.737 4.587 4.557 4.537 4.617
1157.387 4.717 4.657 4.737 4.787 4.657 4.577 4.557 4.537 4.647 4.787
1195.966 5.007 5.417 5.977 6.687 7.617 8.967 10.337 11.217 11.687 11.797
1234.546 11.347 10.507 9.467 8.667 8.387 8.307 8.387 8.537 8.507 8.257
1273.125 7.967 7.697 7.417 7.157 6.817 6.397 5.957 5.447 4.867 4.307
1311.705 3.737 3.137 2.597 2.167 1.857 1.607 1.407 1.2773 1.1648 1.0666
1350.284 1.0156 1.0041 0.9932 0.9993 1.0591 1.1386 1.2701 1.477 1.707 2.067
1388.864 2.557 3.167 3.947 4.887 5.977 7.287 8.877 10.357 11.307 11.667
1427.443 11.247 9.997 8.387 6.597 4.927 3.677 2.817 2.247 1.867 1.607
1466.023 1.437 1.2617 1.1488 1.0527 0.9455 0.8706 0.7917 0.7527 0.708 0.639
1504.603 0.5986 0.5808 0.5976 0.5973 0.5821 0.5718 0.5801 0.5804 0.5878 0.5897
1543.182 0.5723 0.5635 0.5437 0.5178 0.5054 0.5318 0.5295 0.5234 0.5363 0.5226
1581.762 0.4961 0.4721 0.4835 0.4974 0.5035 0.5032 0.4845 0.5129 0.532 0.507
1620.341 0.5327 0.5729 0.5986 0.6353 0.6762 0.7018 0.7265 0.7876 0.863 0.9325
1658.921 1.0194 1.1062 1.2013 1.3496 1.517 1.717 2.007 2.317 2.697 3.207
1697.500 3.847 4.707 5.907 7.537 9.707 12.707 16.657 21.487 26.877 31.837
1736.080 35.477 38.177 40.487 40.567 37.417 32.447 27.387 23.287 19.407 15.227
1774.659 11.567 8.817 6.817 5.357 4.287 3.517 2.937 2.457 2.087 1.807
1813.239 1.577 1.397 1.2183 1.0722 0.9671 0.8783 0.8404 0.8111 0.7731 0.7195
1851.819 0.6618 0.6375 0.6122 0.5726 0.5536 0.5322 0.5003 0.4845 0.4949 0.4925
1890.398 0.4724 0.45333 0.44362 0.4807 0.4867 0.45382 0.43367 0.41717 0.43222 0.43467
1928.978 0.42907 0.42705 0.38942 0.3531 0.3429 0.3395 0.35 0.3396 0.3055 0.3156
1967.557 0.3113 0.313 0.3438 0.3353 0.319 0.2876 0.2818 0.2845 0.253 0.243
2006.137 0.256 0.263 0.231 0.225 0.259 0.2691 0.26 0.262 0.2801 0.2735
2044.716 0.2713 0.2811 0.2811 0.307 0.3157 0.2953 0.292 0.2845 0.2877 0.3062
2083.296 0.2993 0.2903 0.3084 0.3173 0.3051 0.2726 0.2677 0.2927 0.2981 0.3145
2121.875 0.3139 0.311 0.2922 0.288 0.3132 0.3053 0.2966 0.2973 0.318 0.3191
2160.455 0.2997 0.2794 0.2926 0.3132 0.3046 0.2903 0.31 0.3257 0.2915 0.2727
2199.035 0.294 0.3228 0.3027 0.3057 0.3248 0.326 0.3263 0.3271 0.3422 0.3289
2237.614 0.3064 0.3179 0.3214 0.305 0.3007 0.3033 0.2799 0.2697 0.2834 0.2762
2276.194 0.2844 0.2956 0.3002 0.2863 0.275 0.2969 0.2894 0.2684 0.2699 0.3048
2314.773 0.3266 0.3356 0.36087 0.35953 0.3569 0.373699 0.36068 0.36026 0.3558 0.3317
2353.353 0.3351 0.3301 0.3432 0.367654 0.3371 0.2991 0.3023 0.293 0.2837 0.259
2391.932 0.248 0.235 0.182 0.195 0.218 0.217 0.223 0.202 0.198 0.219
2430.512 0.198 0.189 0.191 0.201 0.207 0.208 0.212 0.229 0.236 0.22
2469.092 0.242 0.255 0.265 0.258 0.2699 0.2953 0.2916 0.281 0.2946 0.266
2507.671 0.251 0.2707 0.261 0.2881 0.2992 0.2885 0.254 0.243 0.244 0.217
2546.251 0.225 0.258 0.248 0.195 0.193 0.193 0.196 0.194 0.199 0.223
2584.830 0.216 0.19 0.175 0.19 0.204 0.19 0.184 0.173 0.165 0.178
2623.410 0.173 0.189 0.231 0.266 0.244 0.235 0.253 0.265 0.2781 0.2788
2661.989 0.3011 0.3205 0.3264 0.37372 0.371906 0.3475 0.36222 0.321 0.263 0.255
2700.569 0.294 0.2931 0.244 0.23 0.231 0.197 0.204 0.219 0.191 0.194
2739.148 0.185 0.2 0.213 0.199 0.203 0.221 0.238 0.22 0.231 0.262
2777.728 0.241 0.23 0.2731 0.3074 0.3525 0.39091 0.375009 0.376362 0.41733 0.44389
2816.308 0.45687 0.5214 0.5298 0.51 0.5692 0.5657 0.5208 0.5254 0.4892 0.46512
2854.887 0.4788 0.46013 0.4861 0.4805 0.44746 0.4656 0.496 0.5274 0.57 0.6319
2893.467 0.6368 0.6179 0.7025 0.8321 0.9409 1.0803 1.2641 1.467 1.747 2.037
2932.046 2.417 2.917 3.477 3.967 4.237 4.517 4.657 4.637 4.567 4.357
2970.626 4.067 3.757 3.367 2.827 2.267 1.837 1.507 1.2864 1.1291 1.0256
3009.205 0.9846 0.9834 0.9229 0.8417 0.8333 0.8254 0.7987 0.7392 0.6891 0.6284
3047.785 0.5196 0.40838 0.36154 0.41094 0.3387 0.247 0.2867 0.3117 0.2926 0.262
3086.364 0.3062 0.3335 0.253 0.23 0.234 0.187 0.184 0.23 0.264 0.194
3124.944 0.133 0.144 0.142 0.179 0.212 0.171 0.147 0.188 0.17 0.171
3163.524 0.155 0.206 0.2839 0.224 0.156 0.151 0.193 0.212 0.18 0.13
3202.103 0.113 0.129 0.164 0.176 0.179 0.173 0.164 0.156 0.08 0.081
3240.683 0.163 0.183 0.139 0.138 0.158 0.122 0.156 0.156 0.145 0.143
3279.262 0.137 0.155 0.179 0.2 0.15 0.102 0.09 0.102 0.167 0.191
3317.842 0.115 0.055 0.099 0.201 0.222 0.172 0.17 0.149 0.141 0.173
3356.421 0.151 0.158 0.17 0.126 0.169 0.243 0.267 0.275 0.233 0.246
3395.001 0.3299 0.3482 0.2737 0.2788 0.333 0.3017 0.216 0.2676 0.39314 0.45813
3433.580 0.5838 0.6908 0.7301 0.8192 0.9517 0.9793 1.0202 1.1047 1.0649 0.9911
3472.160 1.0093 0.9818 0.8622 0.7696 0.7658 0.8159 0.8435 0.8001 0.7156 0.6894
3510.740 0.6592 0.511 0.38845 0.35718 0.3425 0.3569 0.3446 0.3344 0.3447 0.3379
3549.319 0.2933 0.2881 0.3183 0.3086 0.2961 0.3015 0.2938 0.262 0.184 0.165
3587.899 0.213 0.166 0.09 0.103 0.15 0.156 0.18 0.188 0.146 0.164
3626.478 0.188 0.209 0.133 0.083 0.208 0.229 0.049 0 0.121 0.165
3665.058 0.25 0.248 0.203 0.245 0.224 0.179 0.189 0.257 0.2854 0.2717
3703.637 0.209 0.217 0.2859 0.254 0.264 0.231 0.239 0.261 0.234 0.2927
3742.217 0.2998 0.265 0.283 0.3455 0.3508 0.234 0.223 0.2936 0.3166 0.3401
3780.797 0.3294 0.2962 0.3287 0.31 0.259 0.2937 0.275 0.21 0.224 0.233
3819.376 0.149 0.155 0.226 0.263 0.242 0.176 0.184 0.194 0.139 0.13
3857.956 0.095 0.081 0.141 0.21 0.2682 0.24 0.198 0.189 0.216 0.203
3896.535 0.219 0.207 0.197 0.237 0.204 0.226 0.259 0.257 0.266 0.216
3935.115 0.14 0.135 0.207 0.262 0.24 0.213 0.163 0.147 0.208 0.229
3973.694 0.176 0.166 0.135 0.177 0.2734 0.293 0.2734 0.244
##END=
