##TITLE=1-Iodo-3-methylbutane
##JCAMP-DX=4.24
$$ By DXEDIT 1.05 (RS McDonald)
##DATA TYPE=INFRARED SPECTRUM
##CLASS=COBLENTZ III
##ORIGIN=DOW CHEMICAL COMPANY
##OWNER=COPYRIGHT (C) 1988 by COBLENTZ SOCIETY INC.
Collection (C) 2018 copyright by the U.S. Secretary of Commerce
on behalf of the United States of America. All rights reserved.
##DATE=1962/03/08
##CAS REGISTRY NO=541-28-6
##MOLFORM=C5 H11 I
##SOURCE REFERENCE=COBLENTZ NO. 5720
##$NIST SOURCE=COBLENTZ
##$NIST IMAGE=cob5720
##SPECTROMETER/DATA SYSTEM=DOW KBr FOREPRISM-GRATING
##INSTRUMENT PARAMETERS=BLAZED AT 3.5, 12.0, 20.0 MICRON AND CHANGED AT 5.0, 7.5, 14.9 MICRON
##STATE=SOLUTION (10% CCl4 FOR 3800-1300, 10% CS2 FOR 1300-400 CM^-^1)
##PATH LENGTH=0.0107 CM, 0.0103 CM
$$SPECTRAL CONTAMINATION DUE TO CS2 AROUND 850 AND CCl4 AROUND 1550 CM^-^1 HAVE BEEN SUBTRACTED
##SAMPLING PROCEDURE=TRANSMISSION
##RESOLUTION=2
##DATA PROCESSING=DIGITIZED BY COBLENTZ SOCIETY (BATCH I) FROM HARD COPY
##XUNITS=1/CM
##YUNITS=TRANSMITTANCE
##XFACTOR=1
##YFACTOR=1
##DELTAX=1
##FIRSTX=3800
##LASTX=381
##FIRSTY=0.9093
##MAXX=3800
##MINX=381
##MAXY=0.9191
##MINY=0.0613
##NPOINTS=3420
##XYDATA=(X++(Y..Y))
3800.000000 0.9093 0.9092 0.9092 0.9092 0.9100
3795.000000 0.9092 0.9101 0.9100 0.9099 0.9097
3790.000000 0.9097 0.9097 0.9096 0.9094 0.9094
3785.000000 0.9094 0.9086 0.9081 0.9080 0.9086
3780.000000 0.9089 0.9080 0.9087 0.9086 0.9086
3775.000000 0.9075 0.9086 0.9085 0.9084 0.9083
3770.000000 0.9083 0.9082 0.9082 0.9081 0.9080
3765.000000 0.9079 0.9079 0.9078 0.9078 0.9077
3760.000000 0.9082 0.9081 0.9075 0.9074 0.9074
3755.000000 0.9072 0.9072 0.9071 0.9071 0.9070
3750.000000 0.9069 0.9069 0.9070 0.9070 0.9070
3745.000000 0.9070 0.9070 0.9070 0.9070 0.9070
3740.000000 0.9070 0.9073 0.9081 0.9081 0.9081
3735.000000 0.9081 0.9076 0.9070 0.9077 0.9082
3730.000000 0.9082 0.9082 0.9082 0.9082 0.9082
3725.000000 0.9082 0.9082 0.9082 0.9083 0.9083
3720.000000 0.9083 0.9072 0.9074 0.9084 0.9084
3715.000000 0.9084 0.9085 0.9085 0.9090 0.9094
3710.000000 0.9090 0.9098 0.9099 0.9099 0.9100
3705.000000 0.9100 0.9100 0.9100 0.9101 0.9101
3700.000000 0.9101 0.9101 0.9102 0.9102 0.9093
3695.000000 0.9091 0.9091 0.9091 0.9092 0.9092
3690.000000 0.9092 0.9092 0.9093 0.9091 0.9083
3685.000000 0.9083 0.9083 0.9083 0.9083 0.9083
3680.000000 0.9083 0.9083 0.9084 0.9084 0.9084
3675.000000 0.9084 0.9084 0.9084 0.9084 0.9084
3670.000000 0.9093 0.9086 0.9084 0.9084 0.9084
3665.000000 0.9084 0.9085 0.9085 0.9085 0.9085
3660.000000 0.9085 0.9085 0.9085 0.9085 0.9085
3655.000000 0.9085 0.9085 0.9085 0.9085 0.9085
3650.000000 0.9085 0.9085 0.9085 0.9085 0.9085
3645.000000 0.9085 0.9085 0.9085 0.9085 0.9085
3640.000000 0.9087 0.9087 0.9087 0.9085 0.9085
3635.000000 0.9085 0.9085 0.9086 0.9095 0.9094
3630.000000 0.9090 0.9082 0.9086 0.9092 0.9092
3625.000000 0.9091 0.9091 0.9090 0.9090 0.9089
3620.000000 0.9089 0.9089 0.9088 0.9087 0.9087
3615.000000 0.9086 0.9086 0.9085 0.9085 0.9084
3610.000000 0.9084 0.9082 0.9073 0.9082 0.9082
3605.000000 0.9081 0.9081 0.9077 0.9073 0.9079
3600.000000 0.9073 0.9066 0.9070 0.9074 0.9073
3595.000000 0.9072 0.9071 0.9070 0.9069 0.9067
3590.000000 0.9066 0.9065 0.9064 0.9063 0.9062
3585.000000 0.9061 0.9060 0.9059 0.9058 0.9056
3580.000000 0.9054 0.9054 0.9053 0.9051 0.9047
3575.000000 0.9042 0.9049 0.9047 0.9042 0.9034
3570.000000 0.9032 0.9032 0.9031 0.9030 0.9029
3565.000000 0.9027 0.9026 0.9025 0.9024 0.9023
3560.000000 0.9022 0.9021 0.9021 0.9021 0.9021
3555.000000 0.9031 0.9021 0.9022 0.9032 0.9032
3550.000000 0.9029 0.9024 0.9033 0.9033 0.9033
3545.000000 0.9028 0.9027 0.9033 0.9033 0.9033
3540.000000 0.9026 0.9029 0.9026 0.9031 0.9034
3535.000000 0.9034 0.9034 0.9034 0.9034 0.9034
3530.000000 0.9035 0.9023 0.9023 0.9023 0.9023
3525.000000 0.9023 0.9023 0.9023 0.9023 0.9023
3520.000000 0.9024 0.9024 0.9024 0.9024 0.9024
3515.000000 0.9024 0.9024 0.9024 0.9025 0.9025
3510.000000 0.9025 0.9025 0.9025 0.9025 0.9026
3505.000000 0.9026 0.9026 0.9026 0.9026 0.9026
3500.000000 0.9026 0.9026 0.9027 0.9027 0.9027
3495.000000 0.9027 0.9027 0.9027 0.9028 0.9028
3490.000000 0.9028 0.9028 0.9028 0.9028 0.9029
3485.000000 0.9029 0.9029 0.9030 0.9031 0.9031
3480.000000 0.9033 0.9034 0.9034 0.9034 0.9036
3475.000000 0.9037 0.9038 0.9038 0.9040 0.9042
3470.000000 0.9042 0.9044 0.9045 0.9046 0.9047
3465.000000 0.9048 0.9049 0.9050 0.9051 0.9052
3460.000000 0.9053 0.9054 0.9055 0.9055 0.9056
3455.000000 0.9057 0.9058 0.9059 0.9060 0.9062
3450.000000 0.9065 0.9067 0.9070 0.9072 0.9075
3445.000000 0.9078 0.9080 0.9082 0.9085 0.9086
3440.000000 0.9090 0.9092 0.9095 0.9097 0.9099
3435.000000 0.9101 0.9104 0.9106 0.9109 0.9112
3430.000000 0.9115 0.9117 0.9119 0.9121 0.9124
3425.000000 0.9116 0.9128 0.9132 0.9134 0.9137
3420.000000 0.9140 0.9141 0.9145 0.9148 0.9151
3415.000000 0.9153 0.9156 0.9158 0.9161 0.9163
3410.000000 0.9166 0.9168 0.9171 0.9179 0.9181
3405.000000 0.9177 0.9178 0.9179 0.9181 0.9182
3400.000000 0.9184 0.9185 0.9186 0.9188 0.9189
3395.000000 0.9191 0.9191 0.9191 0.9191 0.9186
3390.000000 0.9184 0.9179 0.9176 0.9173 0.9170
3385.000000 0.9166 0.9162 0.9158 0.9155 0.9150
3380.000000 0.9146 0.9141 0.9137 0.9134 0.9131
3375.000000 0.9126 0.9122 0.9118 0.9114 0.9110
3370.000000 0.9117 0.9104 0.9098 0.9094 0.9089
3365.000000 0.9085 0.9082 0.9079 0.9076 0.9072
3360.000000 0.9069 0.9065 0.9062 0.9058 0.9055
3355.000000 0.9051 0.9048 0.9043 0.9040 0.9036
3350.000000 0.9033 0.9029 0.9026 0.9022 0.9018
3345.000000 0.9026 0.9029 0.9018 0.9026 0.9016
3340.000000 0.9015 0.9014 0.9025 0.9025 0.9024
3335.000000 0.9014 0.9014 0.9016 0.9019 0.9021
3330.000000 0.9024 0.9027 0.9029 0.9030 0.9033
3325.000000 0.9036 0.9039 0.9040 0.9043 0.9044
3320.000000 0.9046 0.9047 0.9049 0.9050 0.9052
3315.000000 0.9053 0.9055 0.9056 0.9070 0.9071
3310.000000 0.9073 0.9073 0.9071 0.9064 0.9072
3305.000000 0.9071 0.9066 0.9057 0.9056 0.9055
3300.000000 0.9054 0.9053 0.9052 0.9050 0.9048
3295.000000 0.9045 0.9043 0.9040 0.9037 0.9034
3290.000000 0.9032 0.9029 0.9028 0.9028 0.9028
3285.000000 0.9028 0.9029 0.9038 0.9037 0.9027
3280.000000 0.9029 0.9038 0.9035 0.9027 0.9031
3275.000000 0.9038 0.9038 0.9038 0.9038 0.9038
3270.000000 0.9038 0.9037 0.9037 0.9037 0.9037
3265.000000 0.9036 0.9035 0.9034 0.9033 0.9031
3260.000000 0.9030 0.9029 0.9028 0.9025 0.9014
3255.000000 0.9023 0.9022 0.9020 0.9019 0.9017
3250.000000 0.9016 0.9015 0.9014 0.9012 0.9011
3245.000000 0.9004 0.9003 0.9007 0.9006 0.9003
3240.000000 0.9000 0.8997 0.8994 0.8991 0.8988
3235.000000 0.8986 0.8983 0.8980 0.8977 0.8973
3230.000000 0.8971 0.8968 0.8965 0.8960 0.8948
3225.000000 0.8947 0.8954 0.8951 0.8946 0.8943
3220.000000 0.8941 0.8938 0.8935 0.8932 0.8930
3215.000000 0.8927 0.8923 0.8920 0.8917 0.8914
3210.000000 0.8912 0.8910 0.8900 0.8896 0.8894
3205.000000 0.8892 0.8891 0.8889 0.8886 0.8883
3200.000000 0.8885 0.8889 0.8882 0.8884 0.8879
3195.000000 0.8884 0.8883 0.8881 0.8880 0.8878
3190.000000 0.8870 0.8868 0.8872 0.8870 0.8861
3185.000000 0.8855 0.8854 0.8853 0.8853 0.8852
3180.000000 0.8851 0.8850 0.8849 0.8848 0.8847
3175.000000 0.8846 0.8846 0.8845 0.8844 0.8843
3170.000000 0.8842 0.8841 0.8841 0.8839 0.8838
3165.000000 0.8837 0.8841 0.8846 0.8840 0.8841
3160.000000 0.8844 0.8842 0.8835 0.8838 0.8833
3155.000000 0.8830 0.8840 0.8842 0.8842 0.8842
3150.000000 0.8842 0.8842 0.8831 0.8831 0.8831
3145.000000 0.8831 0.8833 0.8833 0.8833 0.8836
3140.000000 0.8844 0.8844 0.8845 0.8845 0.8845
3135.000000 0.8845 0.8845 0.8845 0.8846 0.8846
3130.000000 0.8846 0.8846 0.8846 0.8846 0.8846
3125.000000 0.8846 0.8846 0.8846 0.8846 0.8846
3120.000000 0.8846 0.8846 0.8846 0.8845 0.8845
3115.000000 0.8845 0.8845 0.8844 0.8844 0.8842
3110.000000 0.8842 0.8842 0.8840 0.8845 0.8849
3105.000000 0.8849 0.8849 0.8848 0.8847 0.8845
3100.000000 0.8854 0.8856 0.8855 0.8863 0.8874
3095.000000 0.8886 0.8886 0.8885 0.8882 0.8872
3090.000000 0.8869 0.8857 0.8848 0.8850 0.8854
3085.000000 0.8841 0.8835 0.8834 0.8833 0.8832
3080.000000 0.8832 0.8831 0.8838 0.8849 0.8852
3075.000000 0.8851 0.8860 0.8862 0.8853 0.8850
3070.000000 0.8850 0.8838 0.8849 0.8837 0.8837
3065.000000 0.8835 0.8831 0.8819 0.8817 0.8814
3060.000000 0.8815 0.8819 0.8817 0.8811 0.8802
3055.000000 0.8804 0.8802 0.8793 0.8792 0.8795
3050.000000 0.8797 0.8795 0.8793 0.8792 0.8800
3045.000000 0.8801 0.8809 0.8820 0.8831 0.8841
3040.000000 0.8851 0.8850 0.8849 0.8847 0.8834
3035.000000 0.8818 0.8809 0.8790 0.8776 0.8769
3030.000000 0.8758 0.8745 0.8738 0.8725 0.8714
3025.000000 0.8706 0.8698 0.8680 0.8662 0.8643
3020.000000 0.8626 0.8615 0.8600 0.8575 0.8540
3015.000000 0.8496 0.8454 0.8405 0.8357 0.8312
3010.000000 0.8267 0.8232 0.8194 0.8159 0.8137
3005.000000 0.8099 0.8053 0.7968 0.7881 0.7878
3000.000000 0.7883 0.7883 0.7883 0.7885 0.7888
2995.000000 0.7889 0.7893 0.7903 0.7906 0.7898
2990.000000 0.7888 0.7863 0.7840 0.7706 0.7574
2985.000000 0.7527 0.7481 0.7435 0.7390 0.7285
2980.000000 0.7183 0.7049 0.6907 0.6766 0.6633
2975.000000 0.6009 0.5384 0.5102 0.4820 0.4536
2970.000000 0.4255 0.3976 0.3696 0.3414 0.3131
2965.000000 0.2848 0.2567 0.2285 0.2002 0.1720
2960.000000 0.1438 0.1156 0.0873 0.0750 0.0625
2955.000000 0.0624 0.0620 0.0616 0.0613 0.0732
2950.000000 0.0852 0.1110 0.1368 0.1625 0.1881
2945.000000 0.2139 0.2399 0.2656 0.2915 0.3171
2940.000000 0.3430 0.3689 0.3947 0.3949 0.3950
2935.000000 0.3948 0.3951 0.3921 0.3892 0.3658
2930.000000 0.3427 0.3194 0.2961 0.2901 0.2843
2925.000000 0.2839 0.2829 0.2829 0.2828 0.2891
2920.000000 0.2958 0.3131 0.3303 0.3476 0.3649
2915.000000 0.3821 0.3994 0.4108 0.4223 0.4290
2910.000000 0.4358 0.4425 0.4497 0.4565 0.4627
2905.000000 0.4674 0.4753 0.4726 0.4731 0.4734
2900.000000 0.4738 0.4729 0.4721 0.4640 0.4453
2895.000000 0.4502 0.4443 0.4441 0.4439 0.4481
2890.000000 0.4522 0.4737 0.4952 0.5167 0.5383
2885.000000 0.5546 0.5710 0.5709 0.5715 0.5706
2880.000000 0.5705 0.5703 0.5702 0.5530 0.5372
2875.000000 0.5181 0.4990 0.4798 0.4609 0.4417
2870.000000 0.4226 0.4035 0.3844 0.3652 0.3462
2865.000000 0.3321 0.3179 0.3179 0.3179 0.3179
2860.000000 0.3179 0.3180 0.3181 0.3367 0.3554
2855.000000 0.3856 0.4156 0.4457 0.4761 0.5063
2850.000000 0.5367 0.5669 0.5972 0.6276 0.6586
2845.000000 0.6888 0.7188 0.7327 0.7474 0.7519
2840.000000 0.7563 0.7580 0.7604 0.7614 0.7621
2835.000000 0.7622 0.7628 0.7630 0.7619 0.7633
2830.000000 0.7636 0.7645 0.7642 0.7582 0.7517
2825.000000 0.7383 0.7092 0.7179 0.7084 0.7093
2820.000000 0.7093 0.7090 0.7081 0.7295 0.7507
2815.000000 0.7674 0.7840 0.7883 0.7925 0.7954
2810.000000 0.7983 0.8008 0.8039 0.8068 0.8093
2805.000000 0.8118 0.8143 0.8160 0.8177 0.8192
2800.000000 0.8206 0.8221 0.8236 0.8250 0.8265
2795.000000 0.8278 0.8293 0.8305 0.8316 0.8321
2790.000000 0.8338 0.8343 0.8355 0.8367 0.8379
2785.000000 0.8394 0.8412 0.8418 0.8426 0.8443
2780.000000 0.8460 0.8471 0.8484 0.8492 0.8501
2775.000000 0.8505 0.8511 0.8515 0.8520 0.8525
2770.000000 0.8531 0.8535 0.8540 0.8544 0.8548
2765.000000 0.8554 0.8559 0.8563 0.8568 0.8572
2760.000000 0.8577 0.8582 0.8587 0.8591 0.8596
2755.000000 0.8600 0.8605 0.8607 0.8611 0.8613
2750.000000 0.8614 0.8615 0.8616 0.8617 0.8617
2745.000000 0.8617 0.8617 0.8616 0.8615 0.8614
2740.000000 0.8614 0.8613 0.8610 0.8607 0.8603
2735.000000 0.8594 0.8583 0.8573 0.8564 0.8553
2730.000000 0.8544 0.8532 0.8521 0.8509 0.8497
2725.000000 0.8486 0.8474 0.8473 0.8472 0.8476
2720.000000 0.8481 0.8485 0.8490 0.8495 0.8499
2715.000000 0.8503 0.8509 0.8513 0.8519 0.8524
2710.000000 0.8529 0.8533 0.8538 0.8545 0.8551
2705.000000 0.8558 0.8565 0.8572 0.8579 0.8586
2700.000000 0.8593 0.8600 0.8607 0.8614 0.8621
2695.000000 0.8629 0.8636 0.8639 0.8639 0.8640
2690.000000 0.8639 0.8637 0.8635 0.8633 0.8632
2685.000000 0.8630 0.8628 0.8625 0.8624 0.8622
2680.000000 0.8620 0.8618 0.8617 0.8617 0.8617
2675.000000 0.8617 0.8617 0.8617 0.8617 0.8617
2670.000000 0.8618 0.8618 0.8618 0.8618 0.8618
2665.000000 0.8618 0.8619 0.8619 0.8619 0.8619
2660.000000 0.8619 0.8619 0.8621 0.8631 0.8631
2655.000000 0.8631 0.8631 0.8631 0.8632 0.8628
2650.000000 0.8621 0.8621 0.8626 0.8632 0.8632
2645.000000 0.8624 0.8619 0.8617 0.8623 0.8617
2640.000000 0.8613 0.8609 0.8609 0.8606 0.8606
2635.000000 0.8604 0.8613 0.8612 0.8609 0.8598
2630.000000 0.8598 0.8605 0.8603 0.8600 0.8597
2625.000000 0.8594 0.8591 0.8587 0.8583 0.8580
2620.000000 0.8577 0.8574 0.8571 0.8568 0.8565
2615.000000 0.8560 0.8557 0.8554 0.8551 0.8548
2610.000000 0.8545 0.8541 0.8538 0.8533 0.8530
2605.000000 0.8526 0.8522 0.8516 0.8512 0.8508
2600.000000 0.8504 0.8505 0.8505 0.8511 0.8516
2595.000000 0.8522 0.8527 0.8532 0.8537 0.8542
2590.000000 0.8547 0.8552 0.8557 0.8560 0.8566
2585.000000 0.8564 0.8562 0.8559 0.8557 0.8555
2580.000000 0.8553 0.8550 0.8548 0.8544 0.8542
2575.000000 0.8540 0.8539 0.8539 0.8539 0.8539
2570.000000 0.8539 0.8539 0.8539 0.8539 0.8539
2565.000000 0.8539 0.8539 0.8539 0.8539 0.8538
2560.000000 0.8538 0.8538 0.8538 0.8538 0.8538
2555.000000 0.8538 0.8538 0.8537 0.8536 0.8535
2550.000000 0.8535 0.8534 0.8534 0.8533 0.8532
2545.000000 0.8531 0.8531 0.8530 0.8529 0.8527
2540.000000 0.8527 0.8526 0.8526 0.8525 0.8524
2535.000000 0.8523 0.8523 0.8522 0.8521 0.8521
2530.000000 0.8521 0.8521 0.8522 0.8522 0.8522
2525.000000 0.8522 0.8522 0.8522 0.8523 0.8523
2520.000000 0.8523 0.8523 0.8523 0.8523 0.8522
2515.000000 0.8520 0.8519 0.8517 0.8515 0.8515
2510.000000 0.8513 0.8512 0.8512 0.8513 0.8515
2505.000000 0.8517 0.8518 0.8519 0.8521 0.8522
2500.000000 0.8523 0.8524 0.8526 0.8526 0.8526
2495.000000 0.8526 0.8526 0.8525 0.8525 0.8525
2490.000000 0.8525 0.8525 0.8525 0.8525 0.8525
2485.000000 0.8525 0.8525 0.8524 0.8523 0.8526
2480.000000 0.8528 0.8525 0.8522 0.8521 0.8518
2475.000000 0.8514 0.8513 0.8510 0.8507 0.8506
2470.000000 0.8504 0.8501 0.8499 0.8496 0.8493
2465.000000 0.8491 0.8489 0.8486 0.8484 0.8481
2460.000000 0.8479 0.8477 0.8470 0.8465 0.8464
2455.000000 0.8455 0.8453 0.8458 0.8459 0.8456
2450.000000 0.8447 0.8450 0.8451 0.8447 0.8444
2445.000000 0.8444 0.8444 0.8443 0.8443 0.8443
2440.000000 0.8443 0.8442 0.8442 0.8441 0.8441
2435.000000 0.8443 0.8444 0.8447 0.8449 0.8451
2430.000000 0.8454 0.8455 0.8459 0.8461 0.8462
2425.000000 0.8463 0.8465 0.8465 0.8465 0.8465
2420.000000 0.8465 0.8463 0.8463 0.8462 0.8462
2415.000000 0.8462 0.8462 0.8459 0.8459 0.8453
2410.000000 0.8448 0.8446 0.8445 0.8436 0.8439
2405.000000 0.8433 0.8427 0.8423 0.8419 0.8413
2400.000000 0.8408 0.8402 0.8399 0.8393 0.8386
2395.000000 0.8378 0.8371 0.8364 0.8357 0.8350
2390.000000 0.8343 0.8350 0.8348 0.8347 0.8347
2385.000000 0.8347 0.8355 0.8354 0.8356 0.8363
2380.000000 0.8363 0.8366 0.8372 0.8377 0.8383
2375.000000 0.8387 0.8397 0.8405 0.8444 0.8412
2370.000000 0.8417 0.8411 0.8413 0.8418 0.8422
2365.000000 0.8423 0.8427 0.8428 0.8430 0.8433
2360.000000 0.8445 0.8447 0.8456 0.8458 0.8468
2355.000000 0.8475 0.8474 0.8472 0.8472 0.8465
2350.000000 0.8458 0.8458 0.8463 0.8473 0.8478
2345.000000 0.8476 0.8469 0.8464 0.8461 0.8458
2340.000000 0.8453 0.8440 0.8444 0.8441 0.8426
2335.000000 0.8422 0.8428 0.8424 0.8419 0.8417
2330.000000 0.8422 0.8412 0.8406 0.8400 0.8399
2325.000000 0.8395 0.8394 0.8385 0.8376 0.8368
2320.000000 0.8361 0.8352 0.8344 0.8333 0.8325
2315.000000 0.8315 0.8306 0.8296 0.8287 0.8277
2310.000000 0.8268 0.8258 0.8249 0.8238 0.8228
2305.000000 0.8223 0.8217 0.8212 0.8208 0.8203
2300.000000 0.8199 0.8198 0.8200 0.8197 0.8193
2295.000000 0.8192 0.8192 0.8191 0.8191 0.8189
2290.000000 0.8189 0.8188 0.8180 0.8177 0.8177
2285.000000 0.8175 0.8175 0.8165 0.8164 0.8164
2280.000000 0.8165 0.8166 0.8160 0.8161 0.8163
2275.000000 0.8156 0.8158 0.8161 0.8159 0.8155
2270.000000 0.8157 0.8154 0.8151 0.8153 0.8155
2265.000000 0.8152 0.8153 0.8158 0.8165 0.8162
2260.000000 0.8164 0.8170 0.8167 0.8171 0.8177
2255.000000 0.8182 0.8178 0.8182 0.8188 0.8190
2250.000000 0.8185 0.8190 0.8195 0.8200 0.8204
2245.000000 0.8205 0.8202 0.8206 0.8209 0.8213
2240.000000 0.8219 0.8220 0.8220 0.8220 0.8221
2235.000000 0.8214 0.8213 0.8213 0.8213 0.8213
2230.000000 0.8214 0.8214 0.8216 0.8216 0.8217
2225.000000 0.8217 0.8217 0.8217 0.8216 0.8208
2220.000000 0.8210 0.8210 0.8210 0.8210 0.8220
2215.000000 0.8214 0.8216 0.8217 0.8219 0.8220
2210.000000 0.8222 0.8224 0.8226 0.8227 0.8229
2205.000000 0.8231 0.8233 0.8233 0.8237 0.8238
2200.000000 0.8240 0.8241 0.8244 0.8244 0.8246
2195.000000 0.8239 0.8251 0.8249 0.8244 0.8244
2190.000000 0.8247 0.8248 0.8251 0.8251 0.8254
2185.000000 0.8255 0.8262 0.8262 0.8258 0.8258
2180.000000 0.8259 0.8261 0.8270 0.8272 0.8273
2175.000000 0.8274 0.8275 0.8275 0.8276 0.8277
2170.000000 0.8278 0.8277 0.8269 0.8269 0.8270
2165.000000 0.8271 0.8272 0.8272 0.8273 0.8274
2160.000000 0.8275 0.8275 0.8275 0.8275 0.8277
2155.000000 0.8277 0.8278 0.8278 0.8279 0.8280
2150.000000 0.8281 0.8281 0.8282 0.8282 0.8282
2145.000000 0.8282 0.8284 0.8284 0.8285 0.8285
2140.000000 0.8285 0.8285 0.8286 0.8286 0.8288
2135.000000 0.8288 0.8289 0.8289 0.8289 0.8289
2130.000000 0.8291 0.8292 0.8292 0.8292 0.8293
2125.000000 0.8293 0.8295 0.8295 0.8287 0.8294
2120.000000 0.8296 0.8296 0.8298 0.8299 0.8299
2115.000000 0.8299 0.8300 0.8300 0.8303 0.8303
2110.000000 0.8303 0.8303 0.8305 0.8306 0.8307
2105.000000 0.8307 0.8308 0.8308 0.8309 0.8309
2100.000000 0.8310 0.8311 0.8304 0.8302 0.8311
2095.000000 0.8313 0.8305 0.8313 0.8315 0.8316
2090.000000 0.8317 0.8317 0.8318 0.8318 0.8319
2085.000000 0.8319 0.8320 0.8321 0.8322 0.8322
2080.000000 0.8323 0.8323 0.8324 0.8324 0.8325
2075.000000 0.8325 0.8325 0.8324 0.8323 0.8322
2070.000000 0.8321 0.8320 0.8320 0.8319 0.8318
2065.000000 0.8317 0.8316 0.8315 0.8314 0.8312
2060.000000 0.8312 0.8311 0.8310 0.8312 0.8319
2055.000000 0.8317 0.8316 0.8315 0.8311 0.8309
2050.000000 0.8312 0.8307 0.8300 0.8299 0.8299
2045.000000 0.8298 0.8298 0.8296 0.8295 0.8295
2040.000000 0.8292 0.8291 0.8291 0.8290 0.8290
2035.000000 0.8288 0.8288 0.8287 0.8285 0.8284
2030.000000 0.8284 0.8285 0.8291 0.8295 0.8291
2025.000000 0.8296 0.8305 0.8305 0.8308 0.8309
2020.000000 0.8310 0.8312 0.8314 0.8315 0.8317
2015.000000 0.8318 0.8320 0.8321 0.8323 0.8324
2010.000000 0.8326 0.8328 0.8332 0.8335 0.8339
2005.000000 0.8342 0.8345 0.8347 0.8350 0.8357
2000.000000 0.8364 0.8371 0.8371 0.8366 0.8366
1995.000000 0.8337 0.8363 0.8353 0.8343 0.8336
1990.000000 0.8314 0.8270 0.8226 0.8180 0.8075
1985.000000 0.7981 0.7819 0.7642 0.7495 0.7450
1980.000000 0.7406 0.7361 0.7308 0.7266 0.7218
1975.000000 0.7159 0.7068 0.7066 0.7066 0.7066
1970.000000 0.7139 0.7225 0.7324 0.7398 0.7463
1965.000000 0.7506 0.7545 0.7595 0.7644 0.7688
1960.000000 0.7701 0.7712 0.7713 0.7709 0.7702
1955.000000 0.7683 0.7654 0.7655 0.7655 0.7656
1950.000000 0.7674 0.7691 0.7718 0.7743 0.7773
1945.000000 0.7801 0.7831 0.7860 0.7890 0.7923
1940.000000 0.7953 0.7974 0.7989 0.8002 0.8002
1935.000000 0.8004 0.8002 0.8001 0.7998 0.8008
1930.000000 0.8023 0.8040 0.8071 0.8103 0.8134
1925.000000 0.8153 0.8171 0.8177 0.8201 0.8181
1920.000000 0.8166 0.8152 0.8101 0.8042 0.8007
1915.000000 0.7971 0.7934 0.7905 0.7915 0.7914
1910.000000 0.7917 0.7965 0.8068 0.8223 0.8248
1905.000000 0.8270 0.8297 0.8322 0.8334 0.8345
1900.000000 0.8356 0.8367 0.8380 0.8389 0.8395
1895.000000 0.8402 0.8408 0.8415 0.8421 0.8422
1890.000000 0.8416 0.8416 0.8415 0.8414 0.8414
1885.000000 0.8414 0.8422 0.8431 0.8433 0.8443
1880.000000 0.8451 0.8449 0.8470 0.8477 0.8487
1875.000000 0.8506 0.8514 0.8524 0.8532 0.8539
1870.000000 0.8549 0.8553 0.8557 0.8561 0.8565
1865.000000 0.8569 0.8574 0.8578 0.8582 0.8586
1860.000000 0.8590 0.8593 0.8594 0.8601 0.8600
1855.000000 0.8598 0.8598 0.8600 0.8601 0.8601
1850.000000 0.8601 0.8601 0.8601 0.8601 0.8601
1845.000000 0.8601 0.8601 0.8601 0.8601 0.8601
1840.000000 0.8601 0.8601 0.8601 0.8601 0.8597
1835.000000 0.8591 0.8591 0.8591 0.8591 0.8591
1830.000000 0.8590 0.8588 0.8588 0.8587 0.8585
1825.000000 0.8583 0.8582 0.8580 0.8580 0.8579
1820.000000 0.8577 0.8587 0.8586 0.8585 0.8582
1815.000000 0.8581 0.8581 0.8581 0.8581 0.8581
1810.000000 0.8581 0.8577 0.8572 0.8572 0.8572
1805.000000 0.8572 0.8566 0.8561 0.8561 0.8561
