##TITLE=n-Butyramide
##JCAMP-DX=4.24
$$ By DXEDIT 1.05 (RS McDonald)
##DATA TYPE=INFRARED SPECTRUM
##CLASS=COBLENTZ III
##ORIGIN=DOW CHEMICAL COMPANY
##OWNER=COPYRIGHT (C) 1988 by COBLENTZ SOCIETY INC.
Collection (C) 2018 copyright by the U.S. Secretary of Commerce
on behalf of the United States of America. All rights reserved.
##DATE=1964/04/03
##NAMES=butyramide
##CAS REGISTRY NO=541-35-5
##MOLFORM=C4 H9 N O
##MP=114 C
##SOURCE REFERENCE=COBLENTZ NO. 06324
##$NIST SOURCE=COBLENTZ
##$NIST IMAGE=cob6324
##SPECTROMETER/DATA SYSTEM=DOW KBr FOREPRISM-GRATING
##INSTRUMENT PARAMETERS=BLAZED AT 3.5, 12.0, 20.0 MICRON AND CHANGED AT 5.0, 7.5, 14.9 MICRON
##STATE=SOLID (SPLIT MULL)
$$ SPECTRAL FEATURE AT 1992 CM^-^1 IS AN ARTIFACT CAUSED BY GRATING CHANGE
##SAMPLING PROCEDURE=TRANSMISSION
##RESOLUTION=2
##DATA PROCESSING=DIGITIZED BY COBLENTZ SOCIETY (BATCH I) FROM HARD COPY
##XUNITS=1/CM
##YUNITS=TRANSMITTANCE
##XFACTOR=1
##YFACTOR=1
##DELTAX=1
##FIRSTX=3814
##LASTX=448
##FIRSTY=0.8841
##MAXX=3814
##MINX=448
##MAXY=0.8883
##MINY=0.0731
##NPOINTS=3367
##XYDATA=(X++(Y..Y))
3814.000000 0.8841 0.8840 0.8840 0.8839 0.8838
3809.000000 0.8837 0.8836 0.8835 0.8834 0.8833
3804.000000 0.8832 0.8831 0.8830 0.8828 0.8828
3799.000000 0.8827 0.8825 0.8825 0.8824 0.8824
3794.000000 0.8825 0.8827 0.8830 0.8832 0.8834
3789.000000 0.8836 0.8838 0.8840 0.8843 0.8845
3784.000000 0.8847 0.8849 0.8852 0.8854 0.8856
3779.000000 0.8858 0.8860 0.8862 0.8865 0.8866
3774.000000 0.8867 0.8868 0.8868 0.8870 0.8871
3769.000000 0.8871 0.8873 0.8873 0.8874 0.8875
3764.000000 0.8875 0.8877 0.8878 0.8878 0.8880
3759.000000 0.8880 0.8880 0.8880 0.8881 0.8881
3754.000000 0.8881 0.8881 0.8881 0.8881 0.8882
3749.000000 0.8882 0.8882 0.8882 0.8883 0.8883
3744.000000 0.8883 0.8883 0.8883 0.8883 0.8883
3739.000000 0.8882 0.8882 0.8882 0.8882 0.8882
3734.000000 0.8882 0.8881 0.8881 0.8881 0.8881
3729.000000 0.8880 0.8880 0.8878 0.8878 0.8878
3724.000000 0.8878 0.8877 0.8875 0.8875 0.8875
3719.000000 0.8873 0.8871 0.8871 0.8870 0.8868
3714.000000 0.8868 0.8865 0.8863 0.8855 0.8848
3709.000000 0.8840 0.8833 0.8825 0.8818 0.8811
3704.000000 0.8804 0.8798 0.8792 0.8788 0.8785
3699.000000 0.8781 0.8777 0.8775 0.8775 0.8778
3694.000000 0.8783 0.8786 0.8790 0.8794 0.8798
3689.000000 0.8800 0.8803 0.8804 0.8806 0.8808
3684.000000 0.8810 0.8812 0.8814 0.8816 0.8818
3679.000000 0.8818 0.8820 0.8820 0.8820 0.8820
3674.000000 0.8820 0.8820 0.8820 0.8820 0.8820
3669.000000 0.8818 0.8816 0.8814 0.8812 0.8810
3664.000000 0.8809 0.8807 0.8805 0.8803 0.8801
3659.000000 0.8799 0.8797 0.8797 0.8797 0.8797
3654.000000 0.8798 0.8798 0.8799 0.8799 0.8800
3649.000000 0.8800 0.8800 0.8800 0.8801 0.8801
3644.000000 0.8801 0.8801 0.8802 0.8802 0.8802
3639.000000 0.8802 0.8803 0.8803 0.8803 0.8803
3634.000000 0.8804 0.8804 0.8804 0.8804 0.8805
3629.000000 0.8805 0.8805 0.8805 0.8806 0.8806
3624.000000 0.8807 0.8807 0.8807 0.8807 0.8808
3619.000000 0.8808 0.8808 0.8808 0.8809 0.8809
3614.000000 0.8809 0.8809 0.8810 0.8810 0.8810
3609.000000 0.8810 0.8811 0.8811 0.8811 0.8811
3604.000000 0.8812 0.8812 0.8812 0.8812 0.8813
3599.000000 0.8813 0.8814 0.8814 0.8814 0.8814
3594.000000 0.8815 0.8815 0.8815 0.8815 0.8816
3589.000000 0.8816 0.8816 0.8816 0.8817 0.8817
3584.000000 0.8817 0.8817 0.8817 0.8818 0.8818
3579.000000 0.8818 0.8818 0.8818 0.8818 0.8818
3574.000000 0.8820 0.8820 0.8821 0.8821 0.8821
3569.000000 0.8821 0.8821 0.8821 0.8821 0.8821
3564.000000 0.8823 0.8823 0.8823 0.8823 0.8824
3559.000000 0.8824 0.8824 0.8824 0.8825 0.8825
3554.000000 0.8825 0.8825 0.8825 0.8825 0.8825
3549.000000 0.8825 0.8827 0.8827 0.8828 0.8828
3544.000000 0.8828 0.8828 0.8828 0.8828 0.8828
3539.000000 0.8828 0.8830 0.8830 0.8830 0.8830
3534.000000 0.8831 0.8831 0.8831 0.8831 0.8832
3529.000000 0.8832 0.8832 0.8832 0.8832 0.8830
3524.000000 0.8828 0.8825 0.8823 0.8820 0.8818
3519.000000 0.8816 0.8814 0.8811 0.8809 0.8806
3514.000000 0.8804 0.8802 0.8800 0.8798 0.8797
3509.000000 0.8794 0.8792 0.8789 0.8786 0.8783
3504.000000 0.8780 0.8775 0.8773 0.8770 0.8767
3499.000000 0.8763 0.8760 0.8756 0.8752 0.8748
3494.000000 0.8744 0.8740 0.8736 0.8732 0.8728
3489.000000 0.8723 0.8718 0.8712 0.8706 0.8698
3484.000000 0.8691 0.8683 0.8675 0.8667 0.8660
3479.000000 0.8650 0.8641 0.8630 0.8618 0.8608
3474.000000 0.8597 0.8586 0.8575 0.8563 0.8551
3469.000000 0.8537 0.8524 0.8511 0.8498 0.8483
3464.000000 0.8468 0.8447 0.8425 0.8405 0.8384
3459.000000 0.8363 0.8342 0.8320 0.8299 0.8277
3454.000000 0.8256 0.8235 0.8214 0.8191 0.8168
3449.000000 0.8136 0.8104 0.8071 0.8040 0.8007
3444.000000 0.7974 0.7937 0.7901 0.7864 0.7828
3439.000000 0.7791 0.7755 0.7707 0.7660 0.7606
3434.000000 0.7551 0.7497 0.7442 0.7382 0.7321
3429.000000 0.7261 0.7201 0.7145 0.7090 0.7035
3424.000000 0.6980 0.6925 0.6869 0.6765 0.6662
3419.000000 0.6543 0.6422 0.6298 0.6174 0.6096
3414.000000 0.6019 0.5923 0.5828 0.5650 0.5473
3409.000000 0.5372 0.5271 0.4558 0.3846 0.3706
3404.000000 0.3566 0.3521 0.3475 0.3429 0.3384
3399.000000 0.3338 0.3293 0.3253 0.3212 0.3177
3394.000000 0.3142 0.3106 0.3070 0.3007 0.2945
3389.000000 0.2880 0.2816 0.2735 0.2657 0.2566
3384.000000 0.2475 0.2271 0.2067 0.1996 0.1928
3379.000000 0.1876 0.1825 0.1783 0.1742 0.1720
3374.000000 0.1699 0.1653 0.1608 0.1581 0.1554
3369.000000 0.1549 0.1545 0.1542 0.1518 0.1538
3364.000000 0.1538 0.1537 0.1538 0.1544 0.1550
3359.000000 0.1579 0.1609 0.1663 0.1718 0.1761
3354.000000 0.1804 0.1853 0.1902 0.1987 0.2075
3349.000000 0.2116 0.2158 0.2199 0.2241 0.2302
3344.000000 0.2364 0.2442 0.2520 0.2588 0.2656
3339.000000 0.2722 0.2789 0.2847 0.2905 0.2963
3334.000000 0.3021 0.3054 0.3088 0.3121 0.3154
3329.000000 0.3187 0.3220 0.3253 0.3286 0.3318
3324.000000 0.3350 0.3382 0.3414 0.3447 0.3480
3319.000000 0.3509 0.3540 0.3564 0.3591 0.3616
3314.000000 0.3642 0.3666 0.3693 0.3718 0.3743
3309.000000 0.3766 0.3791 0.3814 0.3840 0.3864
3304.000000 0.3888 0.3910 0.3934 0.3958 0.3980
3299.000000 0.4003 0.4026 0.4048 0.4071 0.4094
3294.000000 0.4117 0.4138 0.4160 0.4181 0.4202
3289.000000 0.4223 0.4244 0.4265 0.4286 0.4307
3284.000000 0.4328 0.4345 0.4362 0.4380 0.4397
3279.000000 0.4414 0.4431 0.4449 0.4468 0.4486
3274.000000 0.4504 0.4522 0.4541 0.4558 0.4575
3269.000000 0.4591 0.4608 0.4617 0.4627 0.4636
3264.000000 0.4645 0.4652 0.4660 0.4662 0.4666
3259.000000 0.4669 0.4655 0.4674 0.4676 0.4676
3254.000000 0.4676 0.4675 0.4674 0.4668 0.4662
3249.000000 0.4639 0.4616 0.4589 0.4562 0.4528
3244.000000 0.4495 0.4453 0.4410 0.4356 0.4301
3239.000000 0.4250 0.4199 0.4151 0.4103 0.4056
3234.000000 0.4009 0.3962 0.3916 0.3866 0.3816
3229.000000 0.3760 0.3706 0.3657 0.3609 0.3564
3224.000000 0.3520 0.3480 0.3441 0.3407 0.3373
3219.000000 0.3339 0.3305 0.3276 0.3247 0.3222
3214.000000 0.3198 0.3174 0.3150 0.3125 0.3101
3209.000000 0.3082 0.3063 0.3044 0.3025 0.3006
3204.000000 0.2987 0.2972 0.2958 0.2945 0.2932
3199.000000 0.2923 0.2915 0.2907 0.2899 0.2892
3194.000000 0.2884 0.2879 0.2873 0.2868 0.2864
3189.000000 0.2860 0.2838 0.2853 0.2851 0.2850
3184.000000 0.2849 0.2848 0.2848 0.2856 0.2865
3179.000000 0.2890 0.2916 0.2952 0.2988 0.3035
3174.000000 0.3084 0.3150 0.3216 0.3303 0.3389
3169.000000 0.3497 0.3605 0.3725 0.3845 0.3966
3164.000000 0.4089 0.4178 0.4267 0.4346 0.4426
3159.000000 0.4504 0.4582 0.4662 0.4745 0.4825
3154.000000 0.4905 0.4978 0.5052 0.5120 0.5189
3149.000000 0.5236 0.5283 0.5329 0.5376 0.5423
3144.000000 0.5470 0.5518 0.5567 0.5615 0.5662
3139.000000 0.5748 0.5834 0.5875 0.5916 0.5957
3134.000000 0.5998 0.6038 0.6078 0.6110 0.6144
3129.000000 0.6180 0.6217 0.6245 0.6274 0.6302
3124.000000 0.6330 0.6358 0.6387 0.6415 0.6443
3119.000000 0.6471 0.6499 0.6524 0.6549 0.6568
3114.000000 0.6587 0.6605 0.6624 0.6643 0.6661
3109.000000 0.6681 0.6700 0.6721 0.6742 0.6762
3104.000000 0.6785 0.6806 0.6828 0.6850 0.6871
3099.000000 0.6891 0.6911 0.6930 0.6949 0.6968
3094.000000 0.6987 0.7006 0.7025 0.7044 0.7064
3089.000000 0.7083 0.7101 0.7121 0.7142 0.7161
3084.000000 0.7182 0.7201 0.7221 0.7242 0.7261
3079.000000 0.7280 0.7299 0.7317 0.7336 0.7354
3074.000000 0.7371 0.7390 0.7408 0.7422 0.7437
3069.000000 0.7449 0.7461 0.7475 0.7488 0.7501
3064.000000 0.7514 0.7525 0.7539 0.7551 0.7564
3059.000000 0.7575 0.7589 0.7601 0.7614 0.7625
3054.000000 0.7639 0.7651 0.7664 0.7675 0.7687
3049.000000 0.7698 0.7710 0.7721 0.7733 0.7744
3044.000000 0.7755 0.7765 0.7775 0.7784 0.7792
3039.000000 0.7800 0.7808 0.7815 0.7824 0.7830
3034.000000 0.7837 0.7843 0.7849 0.7854 0.7860
3029.000000 0.7865 0.7871 0.7878 0.7884 0.7889
3024.000000 0.7895 0.7899 0.7904 0.7908 0.7911
3019.000000 0.7915 0.7921 0.7924 0.7926 0.7930
3014.000000 0.7934 0.7937 0.7940 0.7942 0.7944
3009.000000 0.7944 0.7944 0.7943 0.7936 0.7935
3004.000000 0.7930 0.7925 0.7919 0.7911 0.7901
2999.000000 0.7890 0.7878 0.7865 0.7851 0.7831
2994.000000 0.7810 0.7788 0.7767 0.7745 0.7724
2989.000000 0.7695 0.7665 0.7636 0.7607 0.7572
2984.000000 0.7540 0.7499 0.7458 0.7399 0.7339
2979.000000 0.7264 0.7189 0.7141 0.7094 0.7022
2974.000000 0.6951 0.6884 0.6817 0.6284 0.5751
2969.000000 0.4646 0.3542 0.3542 0.3549 0.3547
2964.000000 0.3552 0.3706 0.3859 0.4062 0.4266
2959.000000 0.4469 0.4672 0.4875 0.5078 0.5281
2954.000000 0.5484 0.5687 0.5890 0.6036 0.6183
2949.000000 0.6223 0.6262 0.6268 0.6273 0.6276
2944.000000 0.6279 0.6280 0.6282 0.6260 0.6240
2939.000000 0.6186 0.6132 0.6078 0.6024 0.6007
2934.000000 0.5990 0.5988 0.5986 0.6104 0.6222
2929.000000 0.6355 0.6489 0.6594 0.6699 0.6767
2924.000000 0.6835 0.6868 0.6901 0.6919 0.6939
2919.000000 0.6953 0.6967 0.6975 0.6983 0.6988
2914.000000 0.6993 0.6997 0.7001 0.7003 0.7006
2909.000000 0.7008 0.7010 0.7014 0.7018 0.7022
2904.000000 0.7028 0.7061 0.7094 0.7142 0.7190
2899.000000 0.7228 0.7267 0.7290 0.7314 0.7321
2894.000000 0.7331 0.7337 0.7344 0.7347 0.7365
2889.000000 0.7350 0.7349 0.7344 0.7339 0.7267
2884.000000 0.7195 0.6992 0.6790 0.6588 0.6386
2879.000000 0.6277 0.6183 0.6165 0.6162 0.6162
2874.000000 0.6160 0.6298 0.6435 0.6638 0.6842
2869.000000 0.7045 0.7249 0.7378 0.7510 0.7539
2864.000000 0.7568 0.7597 0.7626 0.7665 0.7705
2859.000000 0.7740 0.7775 0.7807 0.7838 0.7861
2854.000000 0.7884 0.7901 0.7918 0.7930 0.7941
2849.000000 0.7951 0.7961 0.7968 0.7976 0.7983
2844.000000 0.7990 0.7996 0.8003 0.8006 0.8010
2839.000000 0.8010 0.8010 0.8010 0.8010 0.8008
2834.000000 0.8008 0.8007 0.8007 0.7999 0.7991
2829.000000 0.7975 0.7960 0.7933 0.7906 0.7883
2824.000000 0.7860 0.7838 0.7817 0.7792 0.7768
2819.000000 0.7738 0.7708 0.7684 0.7660 0.7639
2814.000000 0.7618 0.7614 0.7628 0.7610 0.7610
2809.000000 0.7618 0.7625 0.7638 0.7651 0.7671
2804.000000 0.7693 0.7725 0.7758 0.7792 0.7825
2799.000000 0.7857 0.7889 0.7911 0.7934 0.7953
2794.000000 0.7972 0.7985 0.7997 0.8008 0.8019
2789.000000 0.8030 0.8041 0.8049 0.8057 0.8062
2784.000000 0.8069 0.8074 0.8078 0.8082 0.8085
2779.000000 0.8087 0.8089 0.8089 0.8089 0.8089
2774.000000 0.8090 0.8090 0.8090 0.8090 0.8091
2769.000000 0.8092 0.8094 0.8095 0.8096 0.8100
2764.000000 0.8105 0.8110 0.8115 0.8121 0.8128
2759.000000 0.8140 0.8151 0.8164 0.8175 0.8187
2754.000000 0.8199 0.8211 0.8223 0.8236 0.8249
2749.000000 0.8264 0.8278 0.8294 0.8309 0.8317
2744.000000 0.8325 0.8333 0.8341 0.8347 0.8354
2739.000000 0.8356 0.8359 0.8361 0.8363 0.8363
2734.000000 0.8364 0.8364 0.8365 0.8367 0.8368
2729.000000 0.8373 0.8377 0.8380 0.8384 0.8387
2724.000000 0.8391 0.8395 0.8399 0.8404 0.8409
2719.000000 0.8414 0.8418 0.8424 0.8428 0.8434
2714.000000 0.8439 0.8443 0.8448 0.8452 0.8456
2709.000000 0.8460 0.8464 0.8468 0.8471 0.8471
2704.000000 0.8473 0.8474 0.8475 0.8475 0.8475
2699.000000 0.8475 0.8477 0.8478 0.8478 0.8478
2694.000000 0.8480 0.8481 0.8482 0.8482 0.8483
2689.000000 0.8483 0.8484 0.8485 0.8486 0.8488
2684.000000 0.8491 0.8493 0.8495 0.8497 0.8500
2679.000000 0.8502 0.8505 0.8507 0.8509 0.8511
2674.000000 0.8514 0.8516 0.8518 0.8520 0.8523
2669.000000 0.8525 0.8528 0.8532 0.8535 0.8538
2664.000000 0.8542 0.8545 0.8549 0.8552 0.8556
2659.000000 0.8559 0.8563 0.8566 0.8570 0.8573
2654.000000 0.8575 0.8578 0.8581 0.8582 0.8584
2649.000000 0.8585 0.8587 0.8588 0.8590 0.8591
2644.000000 0.8593 0.8594 0.8596 0.8597 0.8599
2639.000000 0.8600 0.8602 0.8602 0.8603 0.8604
2634.000000 0.8605 0.8606 0.8607 0.8607 0.8608
2629.000000 0.8609 0.8610 0.8611 0.8612 0.8613
2624.000000 0.8614 0.8614 0.8615 0.8616 0.8617
2619.000000 0.8618 0.8618 0.8620 0.8621 0.8621
2614.000000 0.8621 0.8623 0.8624 0.8625 0.8625
2609.000000 0.8627 0.8628 0.8628 0.8628 0.8630
2604.000000 0.8631 0.8632 0.8633 0.8633 0.8634
2599.000000 0.8634 0.8635 0.8635 0.8636 0.8636
2594.000000 0.8637 0.8637 0.8638 0.8639 0.8640
2589.000000 0.8640 0.8641 0.8641 0.8642 0.8642
2584.000000 0.8643 0.8643 0.8644 0.8644 0.8645
2579.000000 0.8646 0.8647 0.8647 0.8648 0.8648
2574.000000 0.8649 0.8649 0.8650 0.8650 0.8651
2569.000000 0.8651 0.8652 0.8652 0.8653 0.8654
2564.000000 0.8655 0.8655 0.8656 0.8656 0.8657
2559.000000 0.8657 0.8658 0.8658 0.8658 0.8658
2554.000000 0.8658 0.8657 0.8657 0.8657 0.8657
2549.000000 0.8656 0.8656 0.8655 0.8655 0.8655
2544.000000 0.8655 0.8654 0.8654 0.8653 0.8653
2539.000000 0.8653 0.8653 0.8652 0.8652 0.8651
2534.000000 0.8651 0.8651 0.8651 0.8650 0.8650
2529.000000 0.8649 0.8649 0.8649 0.8649 0.8648
2524.000000 0.8648 0.8648 0.8648 0.8647 0.8647
2519.000000 0.8647 0.8647 0.8646 0.8646 0.8645
2514.000000 0.8645 0.8644 0.8644 0.8643 0.8643
2509.000000 0.8642 0.8642 0.8642 0.8642 0.8641
2504.000000 0.8641 0.8640 0.8640 0.8639 0.8639
2499.000000 0.8638 0.8638 0.8637 0.8637 0.8637
2494.000000 0.8637 0.8636 0.8636 0.8635 0.8635
2489.000000 0.8634 0.8634 0.8633 0.8633 0.8633
2484.000000 0.8633 0.8632 0.8632 0.8631 0.8631
2479.000000 0.8631 0.8631 0.8630 0.8630 0.8630
2474.000000 0.8630 0.8630 0.8630 0.8628 0.8628
2469.000000 0.8628 0.8628 0.8628 0.8628 0.8628
2464.000000 0.8628 0.8627 0.8627 0.8627 0.8627
2459.000000 0.8627 0.8627 0.8625 0.8625 0.8625
2454.000000 0.8625 0.8625 0.8625 0.8625 0.8625
2449.000000 0.8624 0.8624 0.8624 0.8624 0.8623
2444.000000 0.8623 0.8623 0.8623 0.8623 0.8623
2439.000000 0.8621 0.8621 0.8621 0.8621 0.8621
2434.000000 0.8621 0.8621 0.8621 0.8620 0.8620
2429.000000 0.8620 0.8620 0.8618 0.8618 0.8618
2424.000000 0.8618 0.8617 0.8617 0.8616 0.8616
2419.000000 0.8615 0.8615 0.8614 0.8614 0.8613
2414.000000 0.8613 0.8612 0.8612 0.8611 0.8611
2409.000000 0.8610 0.8610 0.8609 0.8609 0.8608
2404.000000 0.8608 0.8607 0.8607 0.8607 0.8607
2399.000000 0.8606 0.8606 0.8606 0.8606 0.8605
2394.000000 0.8605 0.8605 0.8605 0.8605 0.8605
2389.000000 0.8604 0.8604 0.8604 0.8604 0.8603
2384.000000 0.8602 0.8600 0.8599 0.8597 0.8596
2379.000000 0.8595 0.8594 0.8593 0.8593 0.8592
2374.000000 0.8591 0.8590 0.8589 0.8588 0.8588
2369.000000 0.8587 0.8586 0.8584 0.8582 0.8577
2364.000000 0.8573 0.8568 0.8564 0.8561 0.8558
2359.000000 0.8554 0.8551 0.8548 0.8545 0.8540
2354.000000 0.8536 0.8531 0.8525 0.8521 0.8516
2349.000000 0.8513 0.8511 0.8510 0.8509 0.8507
2344.000000 0.8506 0.8504 0.8503 0.8502 0.8501
2339.000000 0.8500 0.8499 0.8497 0.8496 0.8495
2334.000000 0.8494 0.8493 0.8492 0.8491 0.8490
2329.000000 0.8489 0.8489 0.8488 0.8488 0.8487
2324.000000 0.8487 0.8486 0.8486 0.8485 0.8485
2319.000000 0.8485 0.8485 0.8484 0.8484 0.8484
2314.000000 0.8484 0.8483 0.8483 0.8483 0.8483
2309.000000 0.8482 0.8481 0.8475 0.8471 0.8468
2304.000000 0.8464 0.8461 0.8458 0.8455 0.8452
2299.000000 0.8448 0.8445 0.8443 0.8442 0.8441
2294.000000 0.8440 0.8439 0.8438 0.8437 0.8436
2289.000000 0.8435 0.8435 0.8434 0.8434 0.8433
2284.000000 0.8433 0.8432 0.8432 0.8431 0.8431
2279.000000 0.8430 0.8430 0.8430 0.8431 0.8434
2274.000000 0.8438 0.8441 0.8445 0.8447 0.8450
2269.000000 0.8452 0.8454 0.8456 0.8458 0.8460
2264.000000 0.8462 0.8464 0.8466 0.8468 0.8470
2259.000000 0.8471 0.8474 0.8475 0.8478 0.8478
2254.000000 0.8481 0.8483 0.8485 0.8487 0.8489
2249.000000 0.8491 0.8493 0.8495 0.8497 0.8499
2244.000000 0.8501 0.8502 0.8504 0.8506 0.8508
2239.000000 0.8510 0.8512 0.8514 0.8516 0.8517
2234.000000 0.8518 0.8521 0.8523 0.8525 0.8527
2229.000000 0.8528 0.8531 0.8532 0.8534 0.8536
2224.000000 0.8538 0.8540 0.8543 0.8545 0.8548
2219.000000 0.8550 0.8553 0.8555 0.8558 0.8560
2214.000000 0.8563 0.8565 0.8568 0.8570 0.8573
2209.000000 0.8575 0.8578 0.8580 0.8583 0.8583
2204.000000 0.8584 0.8584 0.8584 0.8584 0.8585
2199.000000 0.8585 0.8586 0.8586 0.8586 0.8586
2194.000000 0.8587 0.8587 0.8587 0.8587 0.8587
2189.000000 0.8587 0.8587 0.8587 0.8587 0.8587
2184.000000 0.8587 0.8587 0.8587 0.8587 0.8587
2179.000000 0.8587 0.8587 0.8587 0.8587 0.8587
2174.000000 0.8587 0.8587 0.8588 0.8588 0.8589
2169.000000 0.8590 0.8591 0.8591 0.8592 0.8592
2164.000000 0.8593 0.8593 0.8594 0.8594 0.8595
2159.000000 0.8595 0.8596 0.8597 0.8598 0.8598
2154.000000 0.8599 0.8599 0.8600 0.8601 0.8602
2149.000000 0.8603 0.8605 0.8606 0.8607 0.8608
2144.000000 0.8609 0.8610 0.8612 0.8613 0.8614
2139.000000 0.8615 0.8616 0.8617 0.8618 0.8620
2134.000000 0.8621 0.8621 0.8623 0.8623 0.8624
2129.000000 0.8625 0.8625 0.8625 0.8627 0.8627
2124.000000 0.8628 0.8628 0.8628 0.8628 0.8628
2119.000000 0.8628 0.8630 0.8630 0.8631 0.8631
2114.000000 0.8631 0.8631 0.8632 0.8632 0.8633
2109.000000 0.8633 0.8634 0.8634 0.8634 0.8634
2104.000000 0.8635 0.8635 0.8636 0.8637 0.8638
2099.000000 0.8639 0.8641 0.8642 0.8643 0.8644
2094.000000 0.8645 0.8646 0.8648 0.8649 0.8650
2089.000000 0.8651 0.8652 0.8653 0.8655 0.8656
2084.000000 0.8657 0.8658 0.8659 0.8660 0.8662
2079.000000 0.8663 0.8664 0.8665 0.8666 0.8667
2074.000000 0.8668 0.8668 0.8671 0.8671 0.8673
2069.000000 0.8674 0.8675 0.8675 0.8677 0.8678
2064.000000 0.8678 0.8678 0.8680 0.8681 0.8682
2059.000000 0.8683 0.8684 0.8685 0.8686 0.8687
2054.000000 0.8688 0.8688 0.8689 0.8690 0.8691
2049.000000 0.8692 0.8693 0.8693 0.8694 0.8695
2044.000000 0.8696 0.8696 0.8697 0.8698 0.8699
2039.000000 0.8699 0.8700 0.8700 0.8701 0.8701
2034.000000 0.8702 0.8702 0.8703 0.8703 0.8704
2029.000000 0.8705 0.8705 0.8705 0.8705 0.8705
2024.000000 0.8705 0.8705 0.8705 0.8705 0.8705
2019.000000 0.8706 0.8707 0.8708 0.8709 0.8710
2014.000000 0.8711 0.8712 0.8713 0.8713 0.8713
2009.000000 0.8712 0.8712 0.8711 0.8710 0.8708
2004.000000 0.8707 0.8705 0.8704 0.8700 0.8696
1999.000000 0.8691 0.8682 0.8674 0.8627 0.8551
1994.000000 0.8475 0.8421 0.8420 0.8446 0.8486
1989.000000 0.8523 0.8560 0.8596 0.8625 0.8625
1984.000000 0.8625 0.8627 0.8627 0.8627 0.8627
1979.000000 0.8628 0.8628 0.8628 0.8628 0.8628
1974.000000 0.8631 0.8632 0.8633 0.8635 0.8636
1969.000000 0.8637 0.8639 0.8641 0.8643 0.8645
1964.000000 0.8648 0.8650 0.8652 0.8653 0.8653
1959.000000 0.8652 0.8651 0.8650 0.8649 0.8648
1954.000000 0.8647 0.8646 0.8645 0.8644 0.8643
1949.000000 0.8642 0.8641 0.8640 0.8638 0.8637
1944.000000 0.8636 0.8635 0.8633 0.8632 0.8631
1939.000000 0.8628 0.8628 0.8627 0.8625 0.8624
1934.000000 0.8624 0.8624 0.8623 0.8623 0.8621
1929.000000 0.8621 0.8621 0.8621 0.8621 0.8620
1924.000000 0.8620 0.8618 0.8618 0.8616 0.8615
1919.000000 0.8613 0.8612 0.8610 0.8609 0.8609
1914.000000 0.8610 0.8610 0.8610 0.8610 0.8610
1909.000000 0.8611 0.8611 0.8611 0.8611 0.8612
1904.000000 0.8612 0.8612 0.8612 0.8613 0.8613
1899.000000 0.8612 0.8612 0.8611 0.8610 0.8610
1894.000000 0.8609 0.8608 0.8608 0.8607 0.8606
1889.000000 0.8606 0.8605 0.8604 0.8604 0.8603
1884.000000 0.8603 0.8603 0.8603 0.8603 0.8604
1879.000000 0.8604 0.8604 0.8605 0.8605 0.8605
1874.000000 0.8606 0.8606 0.8606 0.8606 0.8606
1869.000000 0.8606 0.8606 0.8605 0.8604 0.8603
1864.000000 0.8602 0.8601 0.8600 0.8599 0.8596
1859.000000 0.8593 0.8590 0.8587 0.8585 0.8582
1854.000000 0.8578 0.8577 0.8575 0.8573 0.8571
1849.000000 0.8570 0.8568 0.8566 0.8564 0.8562
1844.000000 0.8561 0.8559 0.8557 0.8555 0.8553
1839.000000 0.8552 0.8550 0.8549 0.8548 0.8547
1834.000000 0.8546 0.8545 0.8544 0.8543 0.8542
1829.000000 0.8541 0.8540 0.8539 0.8537 0.8536
1824.000000 0.8535 0.8533 0.8532 0.8531 0.8528
1819.000000 0.8528 0.8527 0.8525 0.8525 0.8524
1814.000000 0.8523 0.8521 0.8521 0.8520 0.8518
1809.000000 0.8515 0.8512 0.8510 0.8507 0.8504
