##TITLE=Isothiocyanic acid, ethyl ester
##JCAMP-DX=4.24
$$ By DXEDIT 1.05 (RS McDonald)
##DATA TYPE=INFRARED SPECTRUM
##CLASS=COBLENTZ III
##ORIGIN=DOW CHEMICAL COMPANY
##OWNER=COPYRIGHT (C) 1988 by COBLENTZ SOCIETY INC.
Collection (C) 2018 copyright by the U.S. Secretary of Commerce
on behalf of the United States of America. All rights reserved.
##DATE=1967/07/14
##NAMES=1-isothiocyanatoethane
##CAS REGISTRY NO=542-85-8
##MOLFORM=C3 H5 N S
##SOURCE REFERENCE=COBLENTZ NO. 5630
##$NIST SOURCE=COBLENTZ
##$NIST IMAGE=cob5630
##SPECTROMETER/DATA SYSTEM=DOW KBr FOREPRISM-GRATING
##INSTRUMENT PARAMETERS=BLAZED AT 3.5, 12.0, 20.0 AND CHANGED AT 5.0, 7.5, 14.9 MICRON
##STATE=SOLUTION (10% CCl4 FOR 3800-1340, 10% CS2 FOR 1340-400 CM^-^1)
##PATH LENGTH=0.011 CM, 0.010 CM
##SAMPLING PROCEDURE=TRANSMISSION
##RESOLUTION=2
##DATA PROCESSING=DIGITIZED BY COBLENTZ SOCIETY (BATCH I) FROM HARD COPY
##XUNITS=1/CM
##YUNITS=TRANSMITTANCE
##XFACTOR=1
##YFACTOR=1
##DELTAX=1
##FIRSTX=385
##LASTX=3812
##FIRSTY=0.3146
##MAXX=3812
##MINX=385
##MAXY=0.9307
##MINY=0
##NPOINTS=3428
##XYDATA=(X++(Y..Y))
385.000000 0.3146 0.3217 0.3274 0.3325 0.3377
390.000000 0.3432 0.3480 0.3531 0.3593 0.3653
395.000000 0.3720 0.3784 0.3849 0.3930 0.4034
400.000000 0.4233 0.4520 0.4779 0.5015 0.5246
405.000000 0.5478 0.5710 0.5943 0.6175 0.6327
410.000000 0.6439 0.6513 0.6555 0.6580 0.6604
415.000000 0.6614 0.6624 0.6633 0.6640 0.6644
420.000000 0.6648 0.6652 0.6652 0.6653 0.6653
425.000000 0.6652 0.6651 0.6648 0.6648 0.6646
430.000000 0.6644 0.6640 0.6637 0.6633 0.6630
435.000000 0.6627 0.6619 0.6612 0.6604 0.6595
440.000000 0.6593 0.6590 0.6587 0.6584 0.6575
445.000000 0.6582 0.6589 0.6599 0.6607 0.6616
450.000000 0.6632 0.6646 0.6670 0.6696 0.6723
455.000000 0.6772 0.6824 0.6878 0.6950 0.7012
460.000000 0.7054 0.7106 0.7127 0.7141 0.7150
465.000000 0.7149 0.7148 0.7144 0.7142 0.7139
470.000000 0.7135 0.7127 0.7121 0.7114 0.7098
475.000000 0.7082 0.7064 0.7043 0.7021 0.7001
480.000000 0.6980 0.6956 0.6931 0.6907 0.6883
485.000000 0.6860 0.6840 0.6818 0.6799 0.6780
490.000000 0.6762 0.6744 0.6731 0.6721 0.6710
495.000000 0.6700 0.6687 0.6655 0.6615 0.6556
500.000000 0.6482 0.6404 0.6356 0.6334 0.6313
505.000000 0.6293 0.6280 0.6267 0.6250 0.6221
510.000000 0.6187 0.6125 0.6081 0.6039 0.6009
515.000000 0.5980 0.5951 0.5927 0.5906 0.5885
520.000000 0.5879 0.5880 0.5879 0.5879 0.5886
525.000000 0.5881 0.5879 0.5876 0.5883 0.5891
530.000000 0.5898 0.5910 0.5929 0.5947 0.5959
535.000000 0.5982 0.6003 0.6020 0.6045 0.6062
540.000000 0.6089 0.6125 0.6162 0.6236 0.6313
545.000000 0.6357 0.6401 0.6444 0.6488 0.6535
550.000000 0.6585 0.6632 0.6697 0.6804 0.6904
555.000000 0.7017 0.7131 0.7207 0.7285 0.7406
560.000000 0.7480 0.7543 0.7573 0.7603 0.7642
565.000000 0.7698 0.7741 0.7830 0.7912 0.7980
570.000000 0.8034 0.8089 0.8134 0.8172 0.8208
575.000000 0.8232 0.8258 0.8287 0.8323 0.8345
580.000000 0.8363 0.8382 0.8400 0.8419 0.8432
585.000000 0.8453 0.8465 0.8477 0.8488 0.8493
590.000000 0.8499 0.8505 0.8511 0.8516 0.8521
595.000000 0.8524 0.8551 0.8521 0.8520 0.8516
600.000000 0.8511 0.8506 0.8501 0.8481 0.8461
605.000000 0.8431 0.8400 0.8369 0.8317 0.8242
610.000000 0.8203 0.8186 0.8172 0.8153 0.8141
615.000000 0.8124 0.8096 0.8078 0.8047 0.7991
620.000000 0.7936 0.7877 0.7815 0.7749 0.7693
625.000000 0.7608 0.7504 0.7417 0.7324 0.7241
630.000000 0.7127 0.6957 0.6741 0.6584 0.6481
635.000000 0.6386 0.6236 0.6065 0.5936 0.5727
640.000000 0.5619 0.5584 0.5621 0.5630 0.5646
645.000000 0.5669 0.5705 0.5754 0.5806 0.5872
650.000000 0.5942 0.6019 0.6108 0.6221 0.6327
655.000000 0.6458 0.6691 0.7157 0.7383 0.7524
660.000000 0.7673 0.8074 0.8539 0.8602 0.8602
665.000000 0.8597 0.8604 0.8684 0.8789 0.8758
670.000000 0.8752 0.8996 0.9097 0.9203 0.9259
675.000000 0.9292 0.9295 0.9281 0.9277 0.9258
680.000000 0.9267 0.9263 0.9271 0.9277 0.9267
685.000000 0.9269 0.9270 0.9273 0.9269 0.9262
690.000000 0.9263 0.9265 0.9268 0.9269 0.9270
695.000000 0.9263 0.9259 0.9260 0.9262 0.9263
700.000000 0.9264 0.9253 0.9250 0.9251 0.9238
705.000000 0.9237 0.9234 0.9232 0.9229 0.9226
710.000000 0.9224 0.9214 0.9206 0.9195 0.9182
715.000000 0.9161 0.9157 0.9153 0.9146 0.9147
720.000000 0.9150 0.9143 0.9135 0.9160 0.9126
725.000000 0.9132 0.9129 0.9131 0.9139 0.9146
730.000000 0.9153 0.9141 0.9142 0.9144 0.9146
735.000000 0.9147 0.9146 0.9146 0.9145 0.9144
740.000000 0.9143 0.9142 0.9141 0.9140 0.9139
745.000000 0.9138 0.9137 0.9136 0.9135 0.9133
750.000000 0.9129 0.9126 0.9125 0.9122 0.9108
755.000000 0.9103 0.9100 0.9098 0.9096 0.9092
760.000000 0.9090 0.9088 0.9086 0.9084 0.9082
765.000000 0.9082 0.9088 0.9082 0.9075 0.9074
770.000000 0.9077 0.9071 0.9062 0.9058 0.9051
775.000000 0.9037 0.9024 0.9012 0.9010 0.8998
780.000000 0.8963 0.8941 0.8910 0.8888 0.8868
785.000000 0.8802 0.8730 0.8663 0.8598 0.8454
790.000000 0.8178 0.8116 0.8027 0.8012 0.8017
795.000000 0.8015 0.8056 0.8103 0.8224 0.8345
800.000000 0.8521 0.8703 0.8821 0.8902 0.8971
805.000000 0.9028 0.9061 0.9088 0.9128 0.9159
810.000000 0.9160 0.9165 0.9159 0.9147 0.9148
815.000000 0.9149 0.9148 0.9134 0.9133 0.9130
820.000000 0.9123 0.9124 0.9126 0.9115 0.9103
825.000000 0.9093 0.9087 0.9079 0.9070 0.9067
830.000000 0.9047 0.9028 0.9015 0.9002 0.8995
835.000000 0.8984 0.8979 0.8985 0.8971 0.8978
840.000000 0.8976 0.8949 0.8937 0.8933 0.8924
845.000000 0.8937 0.8980 0.9026 0.8976 0.8732
850.000000 0.8683 0.8738 0.8788 0.8827 0.8870
855.000000 0.8887 0.8885 0.8889 0.8901 0.8963
860.000000 0.9000 0.9015 0.9021 0.9026 0.9001
865.000000 0.8973 0.8956 0.8939 0.8957 0.9020
870.000000 0.9093 0.9126 0.9140 0.9136 0.9124
875.000000 0.9113 0.9094 0.9077 0.9065 0.9076
880.000000 0.9086 0.9105 0.9138 0.9214 0.9276
885.000000 0.9307 0.9305 0.9274 0.9248 0.9211
890.000000 0.9184 0.9154 0.9122 0.9092 0.9073
895.000000 0.9042 0.9022 0.8998 0.8974 0.8952
900.000000 0.8940 0.8918 0.8906 0.8885 0.8866
905.000000 0.8844 0.8819 0.8792 0.8761 0.8728
910.000000 0.8695 0.8658 0.8614 0.8571 0.8534
915.000000 0.8483 0.8435 0.8374 0.8303 0.8203
920.000000 0.8102 0.8000 0.7873 0.7749 0.7636
925.000000 0.7458 0.7188 0.6885 0.6509 0.5940
930.000000 0.5371 0.4803 0.4234 0.3665 0.3096
935.000000 0.2854 0.2845 0.2894 0.2867 0.3275
940.000000 0.3852 0.4430 0.5006 0.5583 0.6160
945.000000 0.6738 0.7514 0.7723 0.8022 0.8156
950.000000 0.8279 0.8386 0.8456 0.8524 0.8573
955.000000 0.8622 0.8666 0.8693 0.8720 0.8748
960.000000 0.8768 0.8787 0.8806 0.8822 0.8828
965.000000 0.8834 0.8840 0.8841 0.8841 0.8836
970.000000 0.8831 0.8824 0.8808 0.8810 0.8805
975.000000 0.8798 0.8788 0.8775 0.8760 0.8747
980.000000 0.8734 0.8721 0.8710 0.8699 0.8687
985.000000 0.8675 0.8663 0.8652 0.8640 0.8630
990.000000 0.8618 0.8607 0.8589 0.8572 0.8561
995.000000 0.8551 0.8539 0.8528 0.8530 0.8524
1000.000000 0.8515 0.8506 0.8497 0.8489 0.8481
1005.000000 0.8487 0.8479 0.8468 0.8455 0.8454
1010.000000 0.8442 0.8425 0.8407 0.8388 0.8370
1015.000000 0.8351 0.8332 0.8311 0.8292 0.8272
1020.000000 0.8251 0.8226 0.8198 0.8169 0.8140
1025.000000 0.8111 0.8093 0.8050 0.8004 0.7956
1030.000000 0.7911 0.7879 0.7837 0.7795 0.7750
1035.000000 0.7705 0.7654 0.7603 0.7552 0.7501
1040.000000 0.7450 0.7370 0.7285 0.7190 0.7091
1045.000000 0.6988 0.6864 0.6743 0.6585 0.6423
1050.000000 0.6269 0.6065 0.5885 0.5751 0.5615
1055.000000 0.5476 0.5356 0.5248 0.5098 0.4924
1060.000000 0.4685 0.4587 0.4584 0.4575 0.4595
1065.000000 0.4642 0.4929 0.5268 0.5606 0.5943
1070.000000 0.6281 0.6618 0.6956 0.7289 0.7396
1075.000000 0.7421 0.7436 0.7451 0.7461 0.7470
1080.000000 0.7473 0.7461 0.7458 0.7450 0.7440
1085.000000 0.7432 0.7422 0.7412 0.7404 0.7390
1090.000000 0.7376 0.7358 0.7338 0.7316 0.7287
1095.000000 0.7252 0.7203 0.7151 0.7098 0.7045
1100.000000 0.6993 0.6938 0.6885 0.6830 0.6755
1105.000000 0.6686 0.6624 0.6569 0.6501 0.6449
1110.000000 0.6390 0.6328 0.6250 0.6173 0.6095
1115.000000 0.6028 0.5959 0.5838 0.5834 0.5834
1120.000000 0.5831 0.5843 0.5844 0.5849 0.5875
1125.000000 0.5913 0.5952 0.6046 0.6130 0.6408
1130.000000 0.6535 0.6689 0.6853 0.6966 0.7051
1135.000000 0.7169 0.7343 0.7466 0.7561 0.7654
1140.000000 0.7702 0.7736 0.7752 0.7759 0.7781
1145.000000 0.7789 0.7798 0.7808 0.7820 0.7837
1150.000000 0.7841 0.7847 0.7864 0.7872 0.7881
1155.000000 0.7889 0.7897 0.7903 0.7907 0.7913
1160.000000 0.7918 0.7923 0.7928 0.7933 0.7936
1165.000000 0.7938 0.7941 0.7944 0.7933 0.7937
1170.000000 0.7941 0.7943 0.7945 0.7948 0.7951
1175.000000 0.7955 0.7958 0.7960 0.7959 0.7955
1180.000000 0.7952 0.7949 0.7959 0.7975 0.7983
1185.000000 0.7987 0.7990 0.7993 0.7996 0.8002
1190.000000 0.8008 0.8013 0.8021 0.8026 0.8020
1195.000000 0.8026 0.8032 0.8038 0.8046 0.8062
1200.000000 0.8070 0.8079 0.8086 0.8095 0.8103
1205.000000 0.8111 0.8118 0.8125 0.8128 0.8131
1210.000000 0.8133 0.8136 0.8138 0.8133 0.8132
1215.000000 0.8131 0.8129 0.8128 0.8126 0.8124
1220.000000 0.8123 0.8121 0.8119 0.8117 0.8141
1225.000000 0.8113 0.8110 0.8108 0.8106 0.8103
1230.000000 0.8100 0.8099 0.8096 0.8087 0.8076
1235.000000 0.8071 0.8068 0.8064 0.8052 0.8030
1240.000000 0.8014 0.8002 0.7987 0.7970 0.7953
1245.000000 0.7948 0.7932 0.7916 0.7902 0.7891
1250.000000 0.7878 0.7866 0.7854 0.7844 0.7846
1255.000000 0.7838 0.7831 0.7824 0.7817 0.7809
1260.000000 0.7802 0.7797 0.7791 0.7786 0.7773
1265.000000 0.7764 0.7759 0.7744 0.7734 0.7728
1270.000000 0.7721 0.7713 0.7707 0.7702 0.7696
1275.000000 0.7693 0.7690 0.7675 0.7673 0.7669
1280.000000 0.7662 0.7650 0.7639 0.7627 0.7615
1285.000000 0.7597 0.7580 0.7561 0.7543 0.7525
1290.000000 0.7505 0.7490 0.7476 0.7454 0.7435
1295.000000 0.7403 0.7359 0.7318 0.7280 0.7243
1300.000000 0.7196 0.7151 0.7105 0.7059 0.7005
1305.000000 0.6920 0.6823 0.6703 0.6566 0.6440
1310.000000 0.6323 0.6206 0.6092 0.5979 0.5866
1315.000000 0.5651 0.5253 0.5113 0.4974 0.4836
1320.000000 0.4687 0.4538 0.4428 0.4337 0.4242
1325.000000 0.4146 0.4027 0.3874 0.3720 0.3471
1330.000000 0.3159 0.2953 0.2857 0.2791 0.2719
1335.000000 0.2595 0.2140 0.1664 0.1190 0.0715
1340.000000 0.0241 0.0001 0.0000 0.0000 0.0000
1345.000000 0.0000 0.0000 0.0269 0.0828 0.1389
1350.000000 0.1949 0.2509 0.3070 0.3630 0.4190
1355.000000 0.4750 0.4954 0.5077 0.5213 0.5639
1360.000000 0.6168 0.6315 0.6360 0.6375 0.6377
1365.000000 0.6377 0.6376 0.6373 0.6362 0.6350
1370.000000 0.6333 0.6293 0.6244 0.6194 0.6140
1375.000000 0.6056 0.5653 0.5141 0.4626 0.4111
1380.000000 0.3599 0.3088 0.3029 0.3058 0.3339
1385.000000 0.3895 0.4438 0.4979 0.5430 0.5568
1390.000000 0.5707 0.5863 0.6067 0.6286 0.6444
1395.000000 0.6551 0.6656 0.6742 0.6823 0.6878
1400.000000 0.6930 0.6980 0.7014 0.7045 0.7073
1405.000000 0.7083 0.7094 0.7104 0.7107 0.7108
1410.000000 0.7107 0.7107 0.7107 0.7106 0.7099
1415.000000 0.7091 0.7085 0.7087 0.7076 0.7061
1420.000000 0.7045 0.7031 0.7016 0.6999 0.6985
1425.000000 0.6975 0.6954 0.6915 0.6880 0.6845
1430.000000 0.6801 0.6740 0.6671 0.6579 0.6476
1435.000000 0.6360 0.6235 0.6112 0.5992 0.5873
1440.000000 0.5743 0.5610 0.5397 0.5093 0.4775
1445.000000 0.4551 0.4148 0.3991 0.3627 0.3220
1450.000000 0.2813 0.2407 0.2246 0.2247 0.2247
1455.000000 0.2265 0.2561 0.2964 0.3366 0.3774
1460.000000 0.4177 0.4643 0.4614 0.4464 0.4203
1465.000000 0.3946 0.3683 0.3426 0.3255 0.3252
1470.000000 0.4126 0.5467 0.5699 0.5996 0.6499
1475.000000 0.6692 0.6866 0.7227 0.7424 0.7608
1480.000000 0.7688 0.7715 0.7725 0.7705 0.7703
1485.000000 0.7709 0.7721 0.7730 0.7746 0.7760
1490.000000 0.7766 0.7766 0.7769 0.7770 0.7754
1495.000000 0.7744 0.7728 0.7727 0.7726 0.7732
1500.000000 0.7727 0.7722 0.7719 0.7720 0.7705
1505.000000 0.7679 0.7659 0.7639 0.7618 0.7619
1510.000000 0.7622 0.7628 0.7630 0.7614 0.7592
1515.000000 0.7549 0.7495 0.7484 0.7484 0.7519
1520.000000 0.7545 0.7571 0.7610 0.7626 0.7650
1525.000000 0.7648 0.7629 0.7616 0.7601 0.7577
1530.000000 0.7545 0.7498 0.7458 0.7428 0.7408
1535.000000 0.7415 0.7397 0.7400 0.7435 0.7442
1540.000000 0.7323 0.7339 0.7370 0.7399 0.7430
1545.000000 0.7481 0.7542 0.7580 0.7599 0.7632
1550.000000 0.7657 0.7649 0.7655 0.7691 0.7747
1555.000000 0.7790 0.7776 0.7800 0.7824 0.7809
1560.000000 0.7773 0.7733 0.7727 0.7757 0.7787
1565.000000 0.7818 0.7857 0.7908 0.7945 0.8003
1570.000000 0.8037 0.8089 0.8097 0.8120 0.8138
1575.000000 0.8138 0.8136 0.8148 0.8148 0.8164
1580.000000 0.8164 0.8166 0.8161 0.8162 0.8127
1585.000000 0.8094 0.8092 0.8093 0.8101 0.8124
1590.000000 0.8132 0.8157 0.8147 0.8143 0.8174
1595.000000 0.8219 0.8265 0.8284 0.8291 0.8291
1600.000000 0.8301 0.8311 0.8411 0.8459 0.8493
1605.000000 0.8500 0.8547 0.8559 0.8596 0.8600
1610.000000 0.8596 0.8608 0.8598 0.8595 0.8594
1615.000000 0.8572 0.8549 0.8531 0.8526 0.8525
1620.000000 0.8524 0.8559 0.8598 0.8622 0.8655
1625.000000 0.8678 0.8703 0.8716 0.8710 0.8716
1630.000000 0.8708 0.8714 0.8709 0.8717 0.8714
1635.000000 0.8723 0.8728 0.8727 0.8731 0.8729
1640.000000 0.8738 0.8746 0.8747 0.8748 0.8756
1645.000000 0.8764 0.8761 0.8758 0.8804 0.8762
1650.000000 0.8764 0.8766 0.8757 0.8769 0.8772
1655.000000 0.8772 0.8771 0.8771 0.8758 0.8759
1660.000000 0.8769 0.8757 0.8757 0.8757 0.8757
1665.000000 0.8758 0.8758 0.8758 0.8758 0.8759
1670.000000 0.8758 0.8759 0.8759 0.8748 0.8740
1675.000000 0.8737 0.8735 0.8732 0.8729 0.8725
1680.000000 0.8722 0.8720 0.8717 0.8713 0.8709
1685.000000 0.8704 0.8700 0.8695 0.8691 0.8687
1690.000000 0.8683 0.8678 0.8673 0.8668 0.8664
1695.000000 0.8657 0.8647 0.8637 0.8626 0.8616
1700.000000 0.8605 0.8594 0.8584 0.8567 0.8548
1705.000000 0.8530 0.8511 0.8491 0.8477 0.8468
1710.000000 0.8458 0.8446 0.8437 0.8427 0.8422
1715.000000 0.8422 0.8421 0.8420 0.8419 0.8418
1720.000000 0.8425 0.8432 0.8442 0.8457 0.8471
1725.000000 0.8483 0.8498 0.8512 0.8525 0.8537
1730.000000 0.8548 0.8559 0.8568 0.8578 0.8587
1735.000000 0.8596 0.8606 0.8615 0.8626 0.8638
1740.000000 0.8649 0.8661 0.8673 0.8684 0.8695
1745.000000 0.8707 0.8719 0.8731 0.8743 0.8754
1750.000000 0.8767 0.8779 0.8788 0.8792 0.8796
1755.000000 0.8801 0.8806 0.8810 0.8814 0.8808
1760.000000 0.8809 0.8813 0.8817 0.8822 0.8826
1765.000000 0.8831 0.8834 0.8835 0.8838 0.8840
1770.000000 0.8843 0.8845 0.8846 0.8849 0.8851
1775.000000 0.8853 0.8861 0.8871 0.8873 0.8891
1780.000000 0.8877 0.8878 0.8880 0.8881 0.8883
1785.000000 0.8883 0.8883 0.8882 0.8882 0.8882
1790.000000 0.8882 0.8881 0.8881 0.8881 0.8879
1795.000000 0.8878 0.8876 0.8874 0.8873 0.8871
1800.000000 0.8870 0.8868 0.8867 0.8865 0.8870
1805.000000 0.8875 0.8873 0.8872 0.8870 0.8878
1810.000000 0.8882 0.8881 0.8879 0.8879 0.8878
1815.000000 0.8876 0.8876 0.8874 0.8871 0.8868
1820.000000 0.8851 0.8848 0.8844 0.8841 0.8838
1825.000000 0.8834 0.8831 0.8827 0.8824 0.8818
1830.000000 0.8813 0.8806 0.8801 0.8795 0.8788
1835.000000 0.8783 0.8785 0.8785 0.8779 0.8774
1840.000000 0.8767 0.8760 0.8753 0.8744 0.8737
1845.000000 0.8730 0.8722 0.8715 0.8707 0.8699
1850.000000 0.8692 0.8685 0.8676 0.8664 0.8651
1855.000000 0.8639 0.8630 0.8621 0.8601 0.8589
1860.000000 0.8579 0.8566 0.8556 0.8546 0.8535
1865.000000 0.8524 0.8513 0.8506 0.8498 0.8492
1870.000000 0.8486 0.8480 0.8483 0.8484 0.8488
1875.000000 0.8491 0.8479 0.8481 0.8482 0.8482
1880.000000 0.8481 0.8478 0.8474 0.8470 0.8461
1885.000000 0.8449 0.8438 0.8429 0.8418 0.8408
1890.000000 0.8398 0.8395 0.8389 0.8379 0.8365
1895.000000 0.8353 0.8339 0.8327 0.8313 0.8301
1900.000000 0.8282 0.8265 0.8246 0.8228 0.8209
1905.000000 0.8191 0.8173 0.8152 0.8119 0.8094
1910.000000 0.8067 0.8041 0.8008 0.7969 0.7932
1915.000000 0.7892 0.7854 0.7822 0.7795 0.7770
1920.000000 0.7743 0.7719 0.7690 0.7678 0.7669
1925.000000 0.7661 0.7652 0.7644 0.7634 0.7621
1930.000000 0.7610 0.7596 0.7579 0.7553 0.7529
1935.000000 0.7499 0.7464 0.7427 0.7391 0.7358
1940.000000 0.7324 0.7289 0.7255 0.7220 0.7185
1945.000000 0.7149 0.7114 0.7077 0.7026 0.6968
1950.000000 0.6889 0.6705 0.6583 0.6539 0.6496
1955.000000 0.6463 0.6408 0.6351 0.6275 0.6201
1960.000000 0.6137 0.6073 0.6009 0.5890 0.5761
1965.000000 0.5557 0.5506 0.5449 0.5395 0.5348
1970.000000 0.5302 0.5257 0.5211 0.5160 0.5106
1975.000000 0.5052 0.4970 0.4758 0.4626 0.4511
1980.000000 0.4423 0.4333 0.4236 0.4139 0.3977
1985.000000 0.3803 0.3616 0.3360 0.3212 0.3102
1990.000000 0.2998 0.2898 0.2806 0.2735 0.2715
1995.000000 0.2695 0.2675 0.2655 0.2635 0.2615
2000.000000 0.2595 0.2575 0.2555 0.2535 0.2515
2005.000000 0.2495 0.2475 0.2455 0.2435 0.2415
2010.000000 0.2395 0.2375 0.2354 0.2329 0.2306
2015.000000 0.2274 0.2242 0.2185 0.2129 0.2090
2020.000000 0.2053 0.2026 0.1999 0.1930 0.1864
2025.000000 0.1781 0.1702 0.1583 0.1462 0.1360
2030.000000 0.1259 0.1105 0.0950 0.0847 0.0745
2035.000000 0.0674 0.0605 0.0541 0.0477 0.0396
2040.000000 0.0316 0.0288 0.0259 0.0236 0.0213
2045.000000 0.0194 0.0179 0.0168 0.0159 0.0156
2050.000000 0.0154 0.0150 0.0148 0.0146 0.0144
2055.000000 0.0140 0.0139 0.0136 0.0133 0.0130
2060.000000 0.0128 0.0127 0.0127 0.0128 0.0129
2065.000000 0.0129 0.0130 0.0130 0.0131 0.0131
2070.000000 0.0132 0.0132 0.0133 0.0133 0.0134
2075.000000 0.0134 0.0135 0.0137 0.0138 0.0139
2080.000000 0.0139 0.0140 0.0140 0.0141 0.0142
2085.000000 0.0144 0.0145 0.0147 0.0149 0.0151
2090.000000 0.0154 0.0156 0.0160 0.0162 0.0164
2095.000000 0.0166 0.0169 0.0170 0.0172 0.0172
2100.000000 0.0172 0.0172 0.0172 0.0172 0.0172
2105.000000 0.0172 0.0172 0.0172 0.0172 0.0172
2110.000000 0.0173 0.0173 0.0173 0.0173 0.0174
2115.000000 0.0175 0.0176 0.0177 0.0179 0.0180
2120.000000 0.0181 0.0181 0.0181 0.0183 0.0184
2125.000000 0.0185 0.0186 0.0186 0.0187 0.0188
2130.000000 0.0189 0.0191 0.0192 0.0194 0.0198
2135.000000 0.0202 0.0205 0.0207 0.0210 0.0214
2140.000000 0.0218 0.0226 0.0234 0.0241 0.0247
2145.000000 0.0254 0.0262 0.0271 0.0279 0.0294
2150.000000 0.0308 0.0321 0.0336 0.0350 0.0364
2155.000000 0.0398 0.0432 0.0487 0.0544 0.0600
2160.000000 0.0656 0.0713 0.0770 0.0826 0.0881
2165.000000 0.0905 0.0928 0.0933 0.0937 0.0938
2170.000000 0.0954 0.0906 0.0872 0.0809 0.0746
2175.000000 0.0683 0.0620 0.0556 0.0493 0.0430
2180.000000 0.0367 0.0322 0.0278 0.0279 0.0279
2185.000000 0.0279 0.0279 0.0280 0.0284 0.0299
2190.000000 0.0267 0.0357 0.0398 0.0439 0.0481
2195.000000 0.0520 0.0562 0.0603 0.0644 0.0685
2200.000000 0.0726 0.0766 0.0807 0.0848 0.0889
2205.000000 0.0930 0.0970 0.1010 0.1048 0.1089
2210.000000 0.1130 0.1163 0.1198 0.1218 0.1238
2215.000000 0.1264 0.1292 0.1320 0.1349 0.1371
2220.000000 0.1394 0.1414 0.1437 0.1457 0.1478
2225.000000 0.1501 0.1523 0.1545 0.1566 0.1582
2230.000000 0.1600 0.1647 0.1694 0.1731 0.1768
2235.000000 0.1819 0.1872 0.1936 0.2003 0.2061
2240.000000 0.2119 0.2193 0.2267 0.2310 0.2353
2245.000000 0.2441 0.2529 0.2615 0.2701 0.2770
2250.000000 0.2838 0.2913 0.2986 0.3211 0.3439
2255.000000 0.3496 0.3548 0.3682 0.3816 0.3920
2260.000000 0.4020 0.4232 0.4449 0.4691 0.4935
2265.000000 0.5001 0.5069 0.5154 0.5239 0.5356
2270.000000 0.5473 0.5608 0.5750 0.5923 0.6093
2275.000000 0.6172 0.6260 0.6318 0.6375 0.6451
2280.000000 0.6518 0.6561 0.6605 0.6719 0.6843
2285.000000 0.6968 0.7091 0.7163 0.7238 0.7258
2290.000000 0.7270 0.7282 0.7293 0.7313 0.7332
2295.000000 0.7371 0.7411 0.7597 0.7785 0.7810
2300.000000 0.7840 0.7858 0.7878 0.7893 0.7908
2305.000000 0.7922 0.7935 0.7948 0.7961 0.7971
2310.000000 0.7984 0.7995 0.8007 0.8022 0.8040
2315.000000 0.8065 0.8090 0.8119 0.8148 0.8182
2320.000000 0.8217 0.8298 0.8379 0.8577 0.8774
2325.000000 0.8789 0.8808 0.8807 0.8814 0.8823
2330.000000 0.8831 0.8824 0.8827 0.8832 0.8836
2335.000000 0.8827 0.8866 0.8843 0.8842 0.8832
2340.000000 0.8843 0.8843 0.8843 0.8842 0.8847
2345.000000 0.8854 0.8854 0.8848 0.8834 0.8827
2350.000000 0.8829 0.8837 0.8844 0.8844 0.8844
2355.000000 0.8844 0.8835 0.8821 0.8819 0.8807
2360.000000 0.8805 0.8793 0.8792 0.8792 0.8792
2365.000000 0.8792 0.8793 0.8793 0.8793 0.8796
2370.000000 0.8806 0.8803 0.8803 0.8803 0.8798
2375.000000 0.8789 0.8789 0.8782 0.8776 0.8765
2380.000000 0.8760 0.8760 0.8751 0.8745 0.8743
2385.000000 0.8732 0.8728 0.8726 0.8725 0.8724
2390.000000 0.8710 0.8708 0.8707 0.8706 0.8705
2395.000000 0.8703 0.8702 0.8700 0.8698 0.8696
2400.000000 0.8695 0.8693 0.8692 0.8690 0.8689
