##TITLE=p-Dioxin, 2,3-dihydro-
##JCAMP-DX=4.24
$$ By DXEDIT 1.05 (RS McDonald)
##DATA TYPE=INFRARED SPECTRUM
##CLASS=COBLENTZ III
##ORIGIN=DOW CHEMICAL COMPANY
##OWNER=COPYRIGHT (C) 1988 by COBLENTZ SOCIETY INC.
Collection (C) 2018 copyright by the U.S. Secretary of Commerce
on behalf of the United States of America. All rights reserved.
##DATE=1962/04/10
##NAMES=2,3-dihydro-1,4-dioxine
1,4-Dioxene
##CAS REGISTRY NO=543-75-9
##MOLFORM=C4 H6 O2
##SOURCE REFERENCE=COBLENTZ NO. 5692
##$NIST SOURCE=COBLENTZ
##$NIST IMAGE=cob5692
##SPECTROMETER/DATA SYSTEM=DOW KBr FOREPRISM-GRATING
##INSTRUMENT PARAMETERS=BLAZED AT 3.5, 12.0, 20.0 MICRON AND CHANGED AT 5.0, 7.5, 14.9 MICRON
##STATE=SOLUTION (10% CCl4 FOR 2.6-7.5, 10% CS2 FOR 7.5-22 MICRON)
##PATH LENGTH=0.010 CM, 0.011 CM
$$SPECTRAL CONTAMINATION DUE TO CCl4 AROUND 1550 CM^-^1 HAS BEEN SUBTRACTED
##SAMPLING PROCEDURE=TRANSMISSION
##RESOLUTION=2
##DATA PROCESSING=DIGITIZED BY COBLENTZ SOCIETY (BATCH I) FROM HARD COPY
##XUNITS=1/CM
##YUNITS=TRANSMITTANCE
##XFACTOR=1
##YFACTOR=1
##DELTAX=1
##FIRSTX=449
##LASTX=3814
##FIRSTY=0.8964
##MAXX=3814
##MINX=449
##MAXY=0.9549
##MINY=-0.0036
##NPOINTS=3366
##XYDATA=(X++(Y..Y))
449.000000 0.8964 0.8983 0.9000 0.9013 0.9025
454.000000 0.9037 0.9048 0.9056 0.9065 0.9073
459.000000 0.9082 0.9091 0.9100 0.9110 0.9119
464.000000 0.9129 0.9138 0.9149 0.9158 0.9166
469.000000 0.9173 0.9179 0.9186 0.9192 0.9199
474.000000 0.9206 0.9212 0.9221 0.9231 0.9243
479.000000 0.9254 0.9265 0.9276 0.9288 0.9305
484.000000 0.9323 0.9340 0.9358 0.9374 0.9384
489.000000 0.9393 0.9403 0.9412 0.9422 0.9429
494.000000 0.9435 0.9441 0.9470 0.9451 0.9456
499.000000 0.9457 0.9458 0.9458 0.9459 0.9459
504.000000 0.9458 0.9452 0.9447 0.9442 0.9436
509.000000 0.9430 0.9423 0.9410 0.9401 0.9389
514.000000 0.9378 0.9365 0.9348 0.9332 0.9315
519.000000 0.9299 0.9258 0.9215 0.9168 0.9097
524.000000 0.9025 0.8909 0.8781 0.8680 0.8590
529.000000 0.8498 0.8368 0.7921 0.7476 0.7029
534.000000 0.6575 0.6134 0.5978 0.5961 0.5976
539.000000 0.6239 0.6509 0.6782 0.7055 0.7329
544.000000 0.7602 0.7874 0.8148 0.8437 0.8581
549.000000 0.8759 0.8891 0.8980 0.9063 0.9132
554.000000 0.9189 0.9234 0.9272 0.9299 0.9325
559.000000 0.9344 0.9364 0.9383 0.9402 0.9422
564.000000 0.9455 0.9479 0.9481 0.9513 0.9517
569.000000 0.9530 0.9541 0.9549 0.9546 0.9543
574.000000 0.9538 0.9519 0.9516 0.9518 0.9530
579.000000 0.9527 0.9525 0.9522 0.9520 0.9517
584.000000 0.9508 0.9508 0.9496 0.9491 0.9488
589.000000 0.9477 0.9463 0.9448 0.9434 0.9418
594.000000 0.9416 0.9415 0.9402 0.9388 0.9375
599.000000 0.9362 0.9347 0.9333 0.9302 0.9270
604.000000 0.9239 0.9208 0.9172 0.9127 0.9087
609.000000 0.9036 0.8895 0.8895 0.8895 0.8936
614.000000 0.9021 0.9109 0.9218 0.9289 0.9350
619.000000 0.9373 0.9367 0.9364 0.9382 0.9350
624.000000 0.9359 0.9349 0.9341 0.9344 0.9327
629.000000 0.9324 0.9304 0.9290 0.9290 0.9274
634.000000 0.9258 0.9260 0.9241 0.9221 0.9220
639.000000 0.9219 0.9208 0.9209 0.9206 0.9196
644.000000 0.9198 0.9193 0.9181 0.9188 0.9183
649.000000 0.9176 0.9167 0.9153 0.9152 0.9167
654.000000 0.9188 0.9219 0.9254 0.9274 0.9285
659.000000 0.9309 0.9322 0.9311 0.9278 0.9259
664.000000 0.9239 0.9210 0.9201 0.9290 0.9395
669.000000 0.9292 0.9144 0.9096 0.9076 0.9065
674.000000 0.9029 0.9004 0.8953 0.8880 0.8823
679.000000 0.8751 0.8716 0.8689 0.8683 0.8684
684.000000 0.8675 0.8684 0.8691 0.8699 0.8699
689.000000 0.8693 0.8693 0.8693 0.8691 0.8682
694.000000 0.8674 0.8657 0.8636 0.8621 0.8589
699.000000 0.8554 0.8517 0.8465 0.8411 0.8343
704.000000 0.8253 0.8176 0.8116 0.8055 0.7993
709.000000 0.7909 0.7825 0.7742 0.7649 0.7540
714.000000 0.7427 0.7284 0.7160 0.6921 0.6593
719.000000 0.6228 0.6023 0.5782 0.5508 0.3959
724.000000 0.3435 0.2922 0.2405 0.1892 0.1378
729.000000 -0.0036 -0.0036 -0.0036 -0.0036 -0.0036
734.000000 -0.0036 -0.0036 -0.0036 -0.0036 -0.0036
739.000000 -0.0036 -0.0016 0.0312 0.0643 0.0973
744.000000 0.1303 0.1633 0.1963 0.2293 0.2622
749.000000 0.2953 0.3283 0.3612 0.6053 0.6271
754.000000 0.6375 0.6468 0.6564 0.6661 0.6775
759.000000 0.6891 0.7005 0.7214 0.7431 0.7607
764.000000 0.7784 0.7933 0.8070 0.8194 0.8279
769.000000 0.8366 0.8449 0.8491 0.8535 0.8586
774.000000 0.8627 0.8649 0.8672 0.8695 0.8727
779.000000 0.8742 0.8754 0.8777 0.8792 0.8816
784.000000 0.8834 0.8836 0.8836 0.8838 0.8826
789.000000 0.8815 0.8806 0.8809 0.8762 0.8724
794.000000 0.8684 0.8653 0.8588 0.8513 0.8410
799.000000 0.8286 0.8169 0.8054 0.7899 0.7316
804.000000 0.6732 0.6149 0.5557 0.4972 0.4677
809.000000 0.4689 0.7678 0.7846 0.8016 0.8105
814.000000 0.8211 0.8286 0.8361 0.8405 0.8406
819.000000 0.8409 0.8402 0.8398 0.8394 0.8370
824.000000 0.8341 0.8319 0.8305 0.8293 0.8264
829.000000 0.8232 0.8107 0.7989 0.7879 0.7769
834.000000 0.7670 0.7561 0.7464 0.7438 0.7395
839.000000 0.7372 0.7342 0.7335 0.7347 0.7333
844.000000 0.6972 0.6929 0.6838 0.6714 0.6084
849.000000 0.5489 0.4522 0.3522 0.2501 0.1790
854.000000 0.1809 0.2615 0.3425 0.4229 0.5026
859.000000 0.5812 0.6586 0.6825 0.6903 0.6899
864.000000 0.6879 0.6815 0.6764 0.6690 0.6396
869.000000 0.5997 0.5600 0.5207 0.4817 0.4632
874.000000 0.4627 0.4802 0.5062 0.5317 0.5307
879.000000 0.5259 0.5274 0.4725 0.4458 0.4198
884.000000 0.3936 0.3672 0.3417 0.3162 0.1775
889.000000 0.1548 0.0781 0.0180 -0.0036 -0.0036
894.000000 -0.0036 -0.0036 -0.0036 -0.0036 -0.0036
899.000000 -0.0036 -0.0036 -0.0036 -0.0036 -0.0036
904.000000 -0.0036 -0.0036 0.0341 0.0960 0.1576
909.000000 0.2191 0.2809 0.3426 0.3778 0.4333
914.000000 0.5170 0.5346 0.5522 0.5781 0.6207
919.000000 0.6426 0.6536 0.6649 0.6762 0.6850
924.000000 0.6937 0.7023 0.7111 0.7193 0.7277
929.000000 0.7359 0.7444 0.7527 0.7595 0.7641
934.000000 0.7672 0.7679 0.7689 0.7686 0.7675
939.000000 0.7664 0.7644 0.7612 0.7540 0.7446
944.000000 0.7224 0.6900 0.6471 0.6043 0.5615
949.000000 0.5187 0.4758 0.4428 0.4498 0.4443
954.000000 0.5197 0.5362 0.5378 0.5388 0.5396
959.000000 0.5418 0.5552 0.7690 0.7850 0.7967
964.000000 0.8092 0.8231 0.8379 0.8532 0.8596
969.000000 0.8660 0.8722 0.8776 0.8816 0.8864
974.000000 0.8891 0.8916 0.8940 0.8964 0.8975
979.000000 0.8985 0.8993 0.9003 0.9005 0.9007
984.000000 0.8980 0.9012 0.9014 0.9014 0.9009
989.000000 0.9006 0.9001 0.8998 0.8977 0.8956
994.000000 0.8944 0.8930 0.8917 0.8905 0.8904
999.000000 0.8893 0.8879 0.8864 0.8848 0.8834
1004.000000 0.8819 0.8823 0.8809 0.8796 0.8784
1009.000000 0.8786 0.8771 0.8757 0.8744 0.8724
1014.000000 0.8699 0.8675 0.8650 0.8625 0.8601
1019.000000 0.8560 0.8512 0.8465 0.8416 0.8368
1024.000000 0.8321 0.8271 0.8233 0.8187 0.8136
1029.000000 0.8085 0.8016 0.7963 0.7893 0.7820
1034.000000 0.7716 0.7612 0.7507 0.7386 0.7255
1039.000000 0.7127 0.6992 0.6834 0.6678 0.6522
1044.000000 0.6362 0.6199 0.6039 0.5857 0.5656
1049.000000 0.5455 0.5181 0.3781 0.3295 0.2719
1054.000000 0.2145 0.1570 0.0996 0.0125 -0.0036
1059.000000 -0.0036 -0.0036 -0.0036 -0.0036 -0.0036
1064.000000 -0.0036 -0.0036 -0.0036 -0.0036 -0.0036
1069.000000 -0.0036 -0.0036 -0.0036 -0.0036 -0.0036
1074.000000 -0.0036 -0.0036 0.0062 0.0596 0.1122
1079.000000 0.1652 0.2181 0.2707 0.3242 0.3751
1084.000000 0.3985 0.4321 0.4449 0.4577 0.4998
1089.000000 0.5646 0.5781 0.5838 0.5842 0.5855
1094.000000 0.5826 0.5809 0.5744 0.5612 0.5469
1099.000000 0.5370 0.5301 0.5310 0.5319 0.5327
1104.000000 0.5328 0.5288 0.5237 0.5149 0.5050
1109.000000 0.4922 0.4761 0.4594 0.4270 0.3799
1114.000000 0.3333 0.2866 0.2401 0.1930 0.1465
1119.000000 0.1000 0.0535 0.0069 -0.0036 -0.0036
1124.000000 -0.0036 -0.0036 -0.0036 -0.0036 -0.0036
1129.000000 -0.0036 -0.0036 -0.0036 -0.0036 0.0458
1134.000000 0.1267 0.2077 0.2881 0.3687 0.4444
1139.000000 0.4655 0.4809 0.5311 0.5594 0.5864
1144.000000 0.6541 0.6800 0.6991 0.7153 0.7320
1149.000000 0.7453 0.7569 0.7685 0.7794 0.7865
1154.000000 0.7932 0.8000 0.8067 0.8120 0.8172
1159.000000 0.8225 0.8279 0.8328 0.8370 0.8413
1164.000000 0.8456 0.8499 0.8543 0.8581 0.8593
1169.000000 0.8621 0.8651 0.8680 0.8709 0.8718
1174.000000 0.8727 0.8734 0.8744 0.8752 0.8754
1179.000000 0.8761 0.8784 0.8805 0.8846 0.8881
1184.000000 0.8896 0.8902 0.8904 0.8905 0.8906
1189.000000 0.8897 0.8908 0.8904 0.8899 0.8895
1194.000000 0.8872 0.8868 0.8862 0.8858 0.8855
1199.000000 0.8867 0.8861 0.8857 0.8847 0.8835
1204.000000 0.8825 0.8813 0.8802 0.8790 0.8775
1209.000000 0.8759 0.8744 0.8729 0.8714 0.8686
1214.000000 0.8666 0.8647 0.8629 0.8611 0.8592
1219.000000 0.8569 0.8532 0.8492 0.8452 0.8398
1224.000000 0.8343 0.8287 0.8210 0.8132 0.8052
1229.000000 0.7973 0.7895 0.7807 0.7696 0.7580
1234.000000 0.7461 0.7224 0.7036 0.5670 0.5112
1239.000000 0.4548 0.4036 0.4029 0.4294 0.4636
1244.000000 0.4976 0.5147 0.5144 0.5186 0.4723
1249.000000 0.4427 0.4132 0.3836 0.3684 0.3419
1254.000000 0.2975 0.2456 0.1938 0.1418 0.0900
1259.000000 0.0381 -0.0036 -0.0036 -0.0036 -0.0036
1264.000000 -0.0036 -0.0036 -0.0036 -0.0036 -0.0036
1269.000000 -0.0036 -0.0036 -0.0036 -0.0036 -0.0036
1274.000000 -0.0036 -0.0036 -0.0036 -0.0036 -0.0036
1279.000000 0.0434 0.1002 0.1571 0.2139 0.2707
1284.000000 0.3276 0.4811 0.5271 0.5546 0.5812
1289.000000 0.6073 0.6246 0.6403 0.6557 0.6691
1294.000000 0.6818 0.6946 0.7063 0.7189 0.7315
1299.000000 0.7382 0.7449 0.7515 0.7562 0.7610
1304.000000 0.7658 0.7694 0.7690 0.7689 0.7667
1309.000000 0.7653 0.7628 0.7599 0.7563 0.7528
1314.000000 0.7491 0.7428 0.7350 0.7267 0.7183
1319.000000 0.6895 0.6551 0.6208 0.5864 0.5641
1324.000000 0.5640 0.5948 0.6352 0.6750 0.6940
1329.000000 0.6971 0.6999 0.7004 0.7004 0.7010
1334.000000 0.7041 0.7081 0.7180 0.7379 0.7455
1339.000000 0.7530 0.7566 0.7596 0.7599 0.7600
1344.000000 0.7602 0.7593 0.7584 0.7573 0.7556
1349.000000 0.7539 0.7531 0.7523 0.7523 0.7525
1354.000000 0.7512 0.7498 0.7485 0.7411 0.7287
1359.000000 0.7164 0.7038 0.6915 0.6792 0.6668
1364.000000 0.6545 0.6420 0.6214 0.6215 0.6215
1369.000000 0.6208 0.6431 0.6630 0.6828 0.7025
1374.000000 0.7223 0.7423 0.7485 0.7511 0.7522
1379.000000 0.7504 0.7499 0.7458 0.7363 0.7290
1384.000000 0.7143 0.6981 0.6695 0.6028 0.5369
1389.000000 0.4730 0.4085 0.3944 0.3925 0.4594
1394.000000 0.5266 0.5937 0.6609 0.7280 0.7890
1399.000000 0.8005 0.8103 0.8157 0.8189 0.8208
1404.000000 0.8208 0.8205 0.8184 0.8198 0.8195
1409.000000 0.8191 0.8186 0.8183 0.8180 0.8169
1414.000000 0.8154 0.8138 0.8126 0.8123 0.8106
1419.000000 0.8089 0.8070 0.8050 0.8027 0.8007
1424.000000 0.7994 0.7981 0.7949 0.7908 0.7877
1429.000000 0.7851 0.7802 0.7752 0.7690 0.7636
1434.000000 0.7588 0.7538 0.7488 0.7438 0.7388
1439.000000 0.7335 0.7284 0.7248 0.7184 0.7107
1444.000000 0.7030 0.6955 0.6870 0.6777 0.4997
1449.000000 0.4408 0.3823 0.3239 0.2650 0.2061
1454.000000 0.1629 0.1621 0.1641 0.1661 0.2074
1459.000000 0.3055 0.4036 0.5014 0.5992 0.6233
1464.000000 0.6324 0.6403 0.6469 0.6550 0.6618
1469.000000 0.6768 0.6899 0.6993 0.7091 0.7185
1474.000000 0.7249 0.7324 0.7395 0.7467 0.7556
1479.000000 0.7632 0.7700 0.7742 0.7733 0.7717
1484.000000 0.7706 0.7709 0.7718 0.7727 0.7740
1489.000000 0.7754 0.7769 0.7782 0.7795 0.7797
1494.000000 0.7801 0.7818 0.7823 0.7830 0.7831
1499.000000 0.7846 0.7845 0.7835 0.7827 0.7832
1504.000000 0.7828 0.7817 0.7812 0.7809 0.7786
1509.000000 0.7753 0.7707 0.7670 0.7723 0.7763
1514.000000 0.7812 0.7857 0.7914 0.7950 0.7980
1519.000000 0.8002 0.8006 0.8004 0.8015 0.8012
1524.000000 0.8021 0.8006 0.7998 0.7995 0.8005
1529.000000 0.8014 0.8030 0.8066 0.8066 0.8064
1534.000000 0.8068 0.8031 0.7956 0.7893 0.7871
1539.000000 0.7826 0.7805 0.7763 0.7752 0.7715
1544.000000 0.7667 0.7619 0.7617 0.7641 0.7713
1549.000000 0.7868 0.7979 0.7998 0.7960 0.7885
1554.000000 0.7828 0.7758 0.7651 0.7576 0.7507
1559.000000 0.7396 0.7260 0.7136 0.6986 0.6876
1564.000000 0.6753 0.6630 0.6518 0.6413 0.6309
1569.000000 0.6234 0.6150 0.6098 0.6045 0.6115
1574.000000 0.6202 0.6282 0.6424 0.6564 0.6689
1579.000000 0.6774 0.6842 0.6969 0.7136 0.7311
1584.000000 0.7374 0.7437 0.7506 0.7598 0.7718
1589.000000 0.7783 0.7796 0.7832 0.7818 0.7797
1594.000000 0.7813 0.7838 0.7864 0.7924 0.7993
1599.000000 0.8007 0.7994 0.7931 0.7932 0.7900
1604.000000 0.7884 0.7809 0.7772 0.7672 0.7571
1609.000000 0.7471 0.7368 0.7340 0.7304 0.7288
1614.000000 0.7299 0.7307 0.7278 0.7240 0.7163
1619.000000 0.6998 0.6837 0.6688 0.6532 0.6365
1624.000000 0.6210 0.6076 0.5993 0.5937 0.5870
1629.000000 0.5811 0.5740 0.5645 0.5466 0.5010
1634.000000 0.4632 0.4346 0.4105 0.3857 0.3598
1639.000000 0.3111 0.2366 0.1620 0.0872 0.0641
1644.000000 0.0005 -0.0036 -0.0036 -0.0036 -0.0036
1649.000000 -0.0036 -0.0036 -0.0036 -0.0036 -0.0036
1654.000000 -0.0036 -0.0016 0.0360 0.1207 0.2049
1659.000000 0.2894 0.3747 0.4585 0.5192 0.5407
1664.000000 0.5586 0.5717 0.5846 0.5973 0.6035
1669.000000 0.6058 0.6058 0.6059 0.6049 0.6032
1674.000000 0.6004 0.5967 0.5909 0.5857 0.5806
1679.000000 0.5610 0.5377 0.5144 0.4910 0.4677
1684.000000 0.4445 0.4252 0.4182 0.4154 0.4521
1689.000000 0.4925 0.5329 0.5733 0.6138 0.6484
1694.000000 0.6635 0.6719 0.6803 0.6892 0.6993
1699.000000 0.7063 0.7079 0.7093 0.7082 0.7070
1704.000000 0.7070 0.7083 0.7103 0.7137 0.7201
1709.000000 0.7282 0.7297 0.7294 0.7291 0.7276
1714.000000 0.7161 0.7064 0.7030 0.7012 0.7125
1719.000000 0.7236 0.7349 0.7460 0.7609 0.7704
1724.000000 0.7782 0.7851 0.7910 0.7926 0.7942
1729.000000 0.7956 0.7964 0.7971 0.7979 0.7987
1734.000000 0.7996 0.8005 0.8014 0.8025 0.8040
1739.000000 0.8056 0.8070 0.8076 0.8082 0.8087
1744.000000 0.8093 0.8095 0.8097 0.8099 0.8100
1749.000000 0.8102 0.8104 0.8107 0.8111 0.8115
1754.000000 0.8121 0.8142 0.8164 0.8185 0.8206
1759.000000 0.8213 0.8223 0.8225 0.8247 0.8260
1764.000000 0.8273 0.8284 0.8292 0.8301 0.8311
1769.000000 0.8319 0.8328 0.8336 0.8344 0.8353
1774.000000 0.8360 0.8368 0.8382 0.8399 0.8406
1779.000000 0.8414 0.8422 0.8425 0.8425 0.8425
1784.000000 0.8425 0.8424 0.8424 0.8424 0.8424
1789.000000 0.8423 0.8421 0.8419 0.8416 0.8414
1794.000000 0.8412 0.8410 0.8407 0.8404 0.8402
1799.000000 0.8397 0.8393 0.8388 0.8383 0.8378
1804.000000 0.8381 0.8385 0.8381 0.8377 0.8377
1809.000000 0.8390 0.8400 0.8403 0.8406 0.8409
1814.000000 0.8411 0.8412 0.8412 0.8412 0.8412
1819.000000 0.8412 0.8396 0.8397 0.8397 0.8396
1824.000000 0.8393 0.8391 0.8388 0.8384 0.8381
1829.000000 0.8378 0.8374 0.8373 0.8370 0.8367
1834.000000 0.8364 0.8362 0.8371 0.8374 0.8363
1839.000000 0.8352 0.8341 0.8330 0.8318 0.8304
1844.000000 0.8289 0.8276 0.8263 0.8248 0.8234
1849.000000 0.8224 0.8217 0.8211 0.8205 0.8198
1854.000000 0.8192 0.8187 0.8189 0.8191 0.8178
1859.000000 0.8176 0.8175 0.8181 0.8187 0.8194
1864.000000 0.8200 0.8207 0.8212 0.8218 0.8226
1869.000000 0.8232 0.8240 0.8248 0.8256 0.8263
1874.000000 0.8270 0.8277 0.8269 0.8283 0.8297
1879.000000 0.8311 0.8325 0.8340 0.8355 0.8366
1884.000000 0.8355 0.8347 0.8350 0.8344 0.8335
1889.000000 0.8326 0.8317 0.8318 0.8309 0.8291
1894.000000 0.8274 0.8258 0.8237 0.8213 0.8191
1899.000000 0.8168 0.8146 0.8124 0.8101 0.8079
1904.000000 0.8055 0.8034 0.8012 0.7986 0.7952
1909.000000 0.7927 0.7905 0.7881 0.7859 0.7836
1914.000000 0.7818 0.7802 0.7786 0.7773 0.7758
1919.000000 0.7743 0.7727 0.7720 0.7742 0.7773
1924.000000 0.7809 0.7845 0.7897 0.7952 0.8016
1929.000000 0.8087 0.8158 0.8215 0.8247 0.8265
1934.000000 0.8282 0.8300 0.8318 0.8326 0.8336
1939.000000 0.8344 0.8353 0.8358 0.8359 0.8359
1944.000000 0.8359 0.8361 0.8361 0.8359 0.8358
1949.000000 0.8355 0.8367 0.8366 0.8364 0.8361
1954.000000 0.8372 0.8399 0.8409 0.8425 0.8453
1959.000000 0.8480 0.8439 0.8347 0.8263 0.8243
1964.000000 0.8214 0.8205 0.8209 0.8202 0.8204
1969.000000 0.8206 0.8207 0.8208 0.8209 0.8211
1974.000000 0.8212 0.8213 0.8214 0.8214 0.8205
1979.000000 0.8210 0.8203 0.8195 0.8185 0.8177
1984.000000 0.8176 0.8191 0.8241 0.8300 0.8349
1989.000000 0.8372 0.8372 0.8372 0.8364 0.8356
1994.000000 0.8348 0.8337 0.8325 0.8311 0.8307
1999.000000 0.8294 0.8270 0.8238 0.8207 0.8187
2004.000000 0.8167 0.8132 0.8097 0.8017 0.7938
2009.000000 0.7790 0.7643 0.7496 0.7348 0.7200
2014.000000 0.7053 0.6905 0.6757 0.6596 0.6436
2019.000000 0.6424 0.6412 0.6408 0.6415 0.6496
2024.000000 0.6588 0.6853 0.7121 0.7402 0.7669
2029.000000 0.7915 0.8165 0.8237 0.8308 0.8337
2034.000000 0.8365 0.8390 0.8417 0.8436 0.8456
2039.000000 0.8467 0.8479 0.8491 0.8503 0.8509
2044.000000 0.8524 0.8516 0.8520 0.8521 0.8524
2049.000000 0.8527 0.8530 0.8517 0.8513 0.8515
2054.000000 0.8510 0.8505 0.8500 0.8482 0.8474
2059.000000 0.8468 0.8464 0.8459 0.8455 0.8450
2064.000000 0.8446 0.8440 0.8436 0.8431 0.8427
2069.000000 0.8422 0.8392 0.8415 0.8415 0.8413
2074.000000 0.8411 0.8408 0.8407 0.8406 0.8406
2079.000000 0.8410 0.8415 0.8423 0.8431 0.8440
2084.000000 0.8448 0.8464 0.8483 0.8503 0.8523
2089.000000 0.8540 0.8570 0.8558 0.8561 0.8560
2094.000000 0.8548 0.8559 0.8551 0.8533 0.8534
2099.000000 0.8541 0.8536 0.8521 0.8510 0.8496
2104.000000 0.8482 0.8464 0.8446 0.8419 0.8394
2109.000000 0.8368 0.8341 0.8318 0.8296 0.8298
2114.000000 0.8301 0.8302 0.8305 0.8312 0.8319
2119.000000 0.8335 0.8352 0.8376 0.8390 0.8430
2124.000000 0.8456 0.8491 0.8525 0.8571 0.8618
2129.000000 0.8624 0.8630 0.8633 0.8638 0.8637
2134.000000 0.8636 0.8634 0.8634 0.8633 0.8633
2139.000000 0.8631 0.8631 0.8628 0.8624 0.8620
2144.000000 0.8616 0.8610 0.8605 0.8601 0.8596
2149.000000 0.8591 0.8587 0.8582 0.8577 0.8571
2154.000000 0.8568 0.8563 0.8558 0.8553 0.8549
2159.000000 0.8543 0.8536 0.8530 0.8522 0.8517
2164.000000 0.8511 0.8504 0.8498 0.8493 0.8488
2169.000000 0.8497 0.8495 0.8489 0.8486 0.8482
2174.000000 0.8478 0.8474 0.8469 0.8464 0.8456
2179.000000 0.8440 0.8438 0.8438 0.8439 0.8447
2184.000000 0.8450 0.8442 0.8443 0.8444 0.8445
2189.000000 0.8447 0.8449 0.8452 0.8455 0.8472
2194.000000 0.8481 0.8473 0.8490 0.8495 0.8499
2199.000000 0.8503 0.8507 0.8506 0.8506 0.8500
2204.000000 0.8493 0.8485 0.8477 0.8465 0.8453
2209.000000 0.8433 0.8414 0.8384 0.8355 0.8323
2214.000000 0.8291 0.8258 0.8224 0.8203 0.8182
2219.000000 0.8186 0.8192 0.8217 0.8256 0.8291
2224.000000 0.8323 0.8349 0.8376 0.8400 0.8424
2229.000000 0.8443 0.8465 0.8473 0.8482 0.8487
2234.000000 0.8492 0.8494 0.8504 0.8502 0.8499
2239.000000 0.8479 0.8459 0.8433 0.8409 0.8378
2244.000000 0.8348 0.8328 0.8303 0.8273 0.8244
2249.000000 0.8245 0.8246 0.8261 0.8263 0.8263
2254.000000 0.8265 0.8285 0.8290 0.8299 0.8313
2259.000000 0.8360 0.8394 0.8431 0.8476 0.8500
2264.000000 0.8524 0.8533 0.8545 0.8545 0.8546
2269.000000 0.8556 0.8564 0.8564 0.8577 0.8582
2274.000000 0.8582 0.8582 0.8596 0.8599 0.8599
2279.000000 0.8615 0.8616 0.8616 0.8616 0.8616
2284.000000 0.8630 0.8629 0.8628 0.8627 0.8630
2289.000000 0.8642 0.8641 0.8639 0.8638 0.8635
2294.000000 0.8633 0.8630 0.8627 0.8624 0.8620
2299.000000 0.8606 0.8600 0.8599 0.8602 0.8603
2304.000000 0.8607 0.8609 0.8612 0.8614 0.8616
2309.000000 0.8620 0.8624 0.8636 0.8636 0.8637
2314.000000 0.8627 0.8613 0.8600 0.8588 0.8577
2319.000000 0.8571 0.8565 0.8560 0.8555 0.8548
2324.000000 0.8542 0.8528 0.8519 0.8507 0.8504
2329.000000 0.8504 0.8505 0.8490 0.8488 0.8488
2334.000000 0.8490 0.8481 0.8489 0.8513 0.8519
2339.000000 0.8514 0.8537 0.8549 0.8561 0.8571
2344.000000 0.8589 0.8611 0.8623 0.8628 0.8622
2349.000000 0.8624 0.8636 0.8658 0.8677 0.8687
2354.000000 0.8698 0.8708 0.8705 0.8696 0.8704
2359.000000 0.8682 0.8675 0.8647 0.8635 0.8623
2364.000000 0.8610 0.8596 0.8583 0.8570 0.8557
2369.000000 0.8548 0.8548 0.8535 0.8522 0.8509
2374.000000 0.8490 0.8469 0.8457 0.8436 0.8416
2379.000000 0.8395 0.8377 0.8365 0.8341 0.8322
2384.000000 0.8321 0.8292 0.8288 0.8287 0.8287
2389.000000 0.8292 0.8280 0.8297 0.8315 0.8336
2394.000000 0.8357 0.8379 0.8400 0.8422 0.8445
2399.000000 0.8468 0.8493 0.8516 0.8541 0.8556
2404.000000 0.8571 0.8578 0.8587 0.8581 0.8592
2409.000000 0.8590 0.8592 0.8596 0.8602 0.8605
2414.000000 0.8608 0.8610 0.8613 0.8616 0.8619
2419.000000 0.8621 0.8624 0.8624 0.8624 0.8624
2424.000000 0.8625 0.8625 0.8626 0.8626 0.8626
2429.000000 0.8626 0.8628 0.8628 0.8629 0.8629
2434.000000 0.8629 0.8629 0.8630 0.8630 0.8630
2439.000000 0.8630 0.8631 0.8631 0.8632 0.8632
2444.000000 0.8632 0.8632 0.8633 0.8633 0.8633
2449.000000 0.8630 0.8621 0.8634 0.8634 0.8628
