##TITLE=CYCLOPROPANECARBONITRILE
##JCAMP-DX=4.24
##DATA TYPE=INFRARED SPECTRUM
##CLASS=COBLENTZ III
##ORIGIN=STANDARD OIL OF OHIO
##OWNER=COBLENTZ SOCIETY
Collection (C) 2018 copyright by the U.S. Secretary of Commerce
on behalf of the United States of America. All rights reserved.
##DATE=1964/10/30
##NAMES=1-CYANOCYCLOPROPANE
##CAS REGISTRY NO=5500-21-0
##MOLFORM=C4 H5 N
##SOURCE REFERENCE=COBLENTZ NO. 10259
##$NIST SOURCE=COBLENTZ
##$NIST IMAGE=cob10259
##SPECTROMETER/DATA SYSTEM=PERKIN-ELMER 521 (GRATING)
##INSTRUMENT PARAMETERS=GRATING CHANGES AT 2000, 630 CM^-^1
##STATE=LIQUID (NEAT)
##PATH LENGTH=SMEAR
##SAMPLING PROCEDURE=TRANSMISSION
##RESOLUTION=4
##DATA PROCESSING=DIGITIZED BY NIST FROM HARD COPY (FROM TWO SEGMENTS)
##XUNITS=1/CM
##YUNITS=TRANSMITTANCE
##XFACTOR=1.000000
##YFACTOR=1
##DELTAX=0.948768
##FIRSTX=562.619
##LASTX=3902.28
##FIRSTY=0.355
##MAXX=3902.28
##MINX=562.619
##MAXY=0.981
##MINY=0.02
##NPOINTS=3521
##XYDATA=(X++(Y..Y))
562.619000 0.3550 0.3620 0.3680 0.3740 0.3790
567.362841 0.3840 0.3880 0.3980 0.4040 0.4080
572.106683 0.4130 0.4160 0.4190 0.4230 0.4290
576.850524 0.4330 0.4390 0.4440 0.4490 0.4520
581.594366 0.4560 0.4590 0.4640 0.4690 0.4750
586.338207 0.4810 0.4860 0.4920 0.5000 0.5050
591.082049 0.5100 0.5150 0.5170 0.5210 0.5260
595.825890 0.5300 0.5370 0.5430 0.5490 0.5550
600.569732 0.5610 0.5670 0.5720 0.5740 0.5790
605.313573 0.5830 0.5870 0.5920 0.5960 0.6020
610.057415 0.6080 0.6130 0.6190 0.6240 0.6260
614.801256 0.6280 0.6310 0.6340 0.6370 0.6380
619.545098 0.6400 0.6480 0.6540 0.6590 0.6670
624.288939 0.6710 0.6730 0.6770 0.6790 0.6830
629.032781 0.6850 0.6870 0.6900 0.6930 0.6960
633.776622 0.6990 0.7020 0.7060 0.7110 0.7130
638.520464 0.7170 0.7190 0.7220 0.7250 0.7280
643.264305 0.7290 0.7360 0.7450 0.7500 0.7570
648.008147 0.7620 0.7650 0.7680 0.7700 0.7710
652.751988 0.7730 0.7740 0.7760 0.7780 0.7820
657.495829 0.7860 0.7910 0.7950 0.7990 0.8000
662.239671 0.8010 0.8010 0.8010 0.8010 0.8020
666.983512 0.8070 0.8150 0.8190 0.8200 0.8200
671.727354 0.8200 0.8210 0.8220 0.8230 0.8250
676.471195 0.8260 0.8280 0.8290 0.8320 0.8340
681.215037 0.8350 0.8360 0.8360 0.8360 0.8360
685.958878 0.8360 0.8360 0.8360 0.8360 0.8360
690.702720 0.8360 0.8360 0.8380 0.8380 0.8390
695.446561 0.8400 0.8400 0.8400 0.8390 0.8390
700.190403 0.8380 0.8360 0.8350 0.8350 0.8350
704.934244 0.8340 0.8340 0.8330 0.8320 0.8290
709.678086 0.8260 0.8220 0.8200 0.8170 0.8140
714.421927 0.8100 0.8060 0.8000 0.7940 0.7870
719.165769 0.7780 0.7680 0.7550 0.7391 0.7161
723.909610 0.6910 0.6780 0.6650 0.6370 0.6081
728.653452 0.5791 0.5471 0.5022 0.4532 0.4053
733.397293 0.3550 0.3330 0.3090 0.2671 0.2600
738.141135 0.2600 0.2620 0.2769 0.2909 0.3069
742.884976 0.3380 0.3520 0.3640 0.3790 0.3910
747.628817 0.3990 0.4070 0.4130 0.4180 0.4240
752.372659 0.4300 0.4370 0.4450 0.4630 0.4780
757.116500 0.5049 0.5239 0.5648 0.5988 0.6298
761.860342 0.6790 0.6990 0.7170 0.7310 0.7440
766.604183 0.7550 0.7630 0.7710 0.7770 0.7840
771.348025 0.7860 0.7860 0.7860 0.7860 0.7860
776.091866 0.7860 0.7860 0.7860 0.7840 0.7830
780.835708 0.7810 0.7800 0.7770 0.7740 0.7700
785.579549 0.7680 0.7630 0.7570 0.7510 0.7430
790.323391 0.7340 0.7220 0.7100 0.6980 0.6840
795.067232 0.6690 0.6600 0.6520 0.6351 0.6081
799.811074 0.5750 0.5350 0.4940 0.4500 0.4101
804.554915 0.3731 0.3411 0.3221 0.3031 0.3020
809.298757 0.3010 0.2990 0.2990 0.2960 0.2900
814.042598 0.2750 0.2571 0.2391 0.2061 0.1543
818.786440 0.1380 0.1210 0.1060 0.1040 0.1040
823.530281 0.1050 0.1070 0.1249 0.1479 0.1719
828.274122 0.1960 0.2310 0.2710 0.3609 0.4059
833.017964 0.4489 0.4849 0.5169 0.5389 0.5669
837.761805 0.5930 0.6170 0.6390 0.6770 0.6950
842.505647 0.7090 0.7230 0.7360 0.7470 0.7569
847.249488 0.7650 0.7740 0.7800 0.7860 0.7910
851.993330 0.7960 0.8000 0.8030 0.8070 0.8090
856.737171 0.8120 0.8140 0.8150 0.8160 0.8170
861.481013 0.8170 0.8190 0.8190 0.8190 0.8190
866.224854 0.8190 0.8200 0.8200 0.8190 0.8190
870.968696 0.8190 0.8190 0.8190 0.8190 0.8190
875.712537 0.8200 0.8200 0.8210 0.8230 0.8250
880.456379 0.8270 0.8290 0.8300 0.8320 0.8320
885.200220 0.8320 0.8320 0.8320 0.8300 0.8300
889.944062 0.8290 0.8290 0.8280 0.8260 0.8230
894.687903 0.8200 0.8170 0.8160 0.8150 0.8130
899.431745 0.8100 0.8100 0.8080 0.8040 0.8000
904.175586 0.7960 0.7930 0.7890 0.7840 0.7800
908.919428 0.7740 0.7680 0.7600 0.7510 0.7420
913.663269 0.7300 0.7160 0.7000 0.6890 0.6760
918.407110 0.6610 0.6371 0.6061 0.5701 0.5272
923.150952 0.4729 0.4070 0.3580 0.3280 0.2971
927.894793 0.2341 0.1692 0.1082 0.0542 0.0212
932.638635 0.0200 0.0200 0.0210 0.0210 0.0230
937.382476 0.0270 0.0340 0.0738 0.1168 0.1608
942.126318 0.2081 0.2541 0.3480 0.3930 0.4369
946.870159 0.4779 0.5219 0.5599 0.5909 0.6169
951.614001 0.6390 0.6730 0.6850 0.6970 0.7080
956.357842 0.7180 0.7280 0.7360 0.7430 0.7500
961.101684 0.7560 0.7620 0.7680 0.7730 0.7780
965.845525 0.7830 0.7880 0.7910 0.7960 0.8000
970.589367 0.8030 0.8080 0.8120 0.8150 0.8190
975.333208 0.8220 0.8260 0.8280 0.8300 0.8330
980.077050 0.8360 0.8380 0.8380 0.8380 0.8390
984.820891 0.8390 0.8390 0.8390 0.8390 0.8390
989.564733 0.8390 0.8390 0.8390 0.8390 0.8390
994.308574 0.8380 0.8380 0.8380 0.8380 0.8360
999.052416 0.8350 0.8340 0.8330 0.8320 0.8300
1003.796257 0.8300 0.8290 0.8270 0.8250 0.8220
1008.540098 0.8190 0.8140 0.8100 0.8060 0.8010
1013.283940 0.7940 0.7870 0.7780 0.7690 0.7600
1018.027781 0.7480 0.7350 0.7210 0.7040 0.6870
1022.771623 0.6690 0.6580 0.6470 0.6251 0.6001
1027.515464 0.5740 0.5460 0.5160 0.4830 0.4460
1032.259306 0.4071 0.3681 0.3481 0.3281 0.2892
1037.003147 0.2510 0.2130 0.1790 0.1460 0.1210
1041.746989 0.1200 0.1200 0.1210 0.1260 0.1310
1046.490830 0.1410 0.1520 0.1660 0.1830 0.2000
1051.234672 0.2170 0.2300 0.2370 0.2609 0.2650
1055.978513 0.2650 0.2630 0.2620 0.2540 0.2410
1060.722355 0.2230 0.2030 0.1801 0.1581 0.1351
1065.466196 0.0990 0.0960 0.0960 0.0980 0.0990
1070.210038 0.1110 0.1250 0.1380 0.1579 0.1799
1074.953879 0.2030 0.2350 0.2600 0.3000 0.3559
1079.697721 0.3740 0.3880 0.3980 0.4050 0.4050
1084.441562 0.4060 0.4070 0.4070 0.4080 0.4100
1089.185404 0.4130 0.4190 0.4240 0.4330 0.4440
1093.929245 0.4600 0.4790 0.5020 0.5180 0.5470
1098.673086 0.5690 0.5880 0.6039 0.6150 0.6259
1103.416928 0.6350 0.6440 0.6520 0.6600 0.6610
1108.160769 0.6610 0.6600 0.6590 0.6570 0.6520
1112.904611 0.6470 0.6390 0.6280 0.6140 0.5950
1117.648452 0.5730 0.5441 0.5161 0.4941 0.4920
1122.392294 0.4940 0.5110 0.5460 0.5780 0.6070
1127.136135 0.6349 0.6849 0.7049 0.7219 0.7349
1131.879977 0.7430 0.7540 0.7620 0.7700 0.7770
1136.623818 0.7840 0.7900 0.7950 0.7990 0.8030
1141.367660 0.8060 0.8080 0.8090 0.8090 0.8090
1146.111501 0.8090 0.8100 0.8120 0.8120 0.8100
1150.855343 0.8100 0.8100 0.8100 0.8100 0.8090
1155.599184 0.8080 0.8080 0.8070 0.8070 0.8060
1160.343026 0.8060 0.8060 0.8040 0.8020 0.8020
1165.086867 0.8000 0.7960 0.7910 0.7860 0.7800
1169.830709 0.7710 0.7640 0.7550 0.7450 0.7340
1174.574550 0.7180 0.7020 0.6721 0.6650 0.6570
1179.318392 0.6510 0.6500 0.6510 0.6570 0.6740
1184.062233 0.6740 0.6730 0.6700 0.6660 0.6511
1188.806074 0.6130 0.5750 0.5470 0.5440 0.5460
1193.549916 0.5859 0.6219 0.6908 0.7219 0.7479
1198.293757 0.7710 0.7900 0.8030 0.8150 0.8230
1203.037599 0.8290 0.8350 0.8390 0.8430 0.8460
1207.781440 0.8510 0.8540 0.8590 0.8610 0.8640
1212.525282 0.8650 0.8660 0.8670 0.8680 0.8690
1217.269123 0.8710 0.8730 0.8740 0.8750 0.8770
1222.012965 0.8780 0.8780 0.8790 0.8790 0.8790
1226.756806 0.8800 0.8800 0.8800 0.8810 0.8810
1231.500648 0.8810 0.8810 0.8810 0.8810 0.8810
1236.244489 0.8810 0.8810 0.8810 0.8820 0.8820
1240.988331 0.8810 0.8810 0.8810 0.8800 0.8800
1245.732172 0.8800 0.8790 0.8790 0.8790 0.8780
1250.476014 0.8770 0.8750 0.8750 0.8740 0.8740
1255.219855 0.8730 0.8730 0.8720 0.8720 0.8710
1259.963697 0.8690 0.8690 0.8680 0.8680 0.8680
1264.707538 0.8680 0.8670 0.8670 0.8670 0.8670
1269.451379 0.8670 0.8680 0.8680 0.8680 0.8690
1274.195221 0.8690 0.8680 0.8680 0.8670 0.8660
1278.939062 0.8660 0.8670 0.8670 0.8680 0.8710
1283.682904 0.8720 0.8750 0.8780 0.8790 0.8790
1288.426745 0.8800 0.8800 0.8810 0.8810 0.8810
1293.170587 0.8810 0.8810 0.8810 0.8810 0.8810
1297.914428 0.8810 0.8810 0.8810 0.8810 0.8810
1302.658270 0.8810 0.8800 0.8800 0.8790 0.8780
1307.402111 0.8780 0.8780 0.8780 0.8780 0.8780
1312.145953 0.8770 0.8740 0.8730 0.8720 0.8710
1316.889794 0.8710 0.8690 0.8690 0.8680 0.8680
1321.633636 0.8670 0.8670 0.8660 0.8640 0.8620
1326.377477 0.8600 0.8540 0.8490 0.8450 0.8400
1331.121319 0.8360 0.8280 0.8190 0.8090 0.7970
1335.865160 0.7860 0.7730 0.7580 0.7441 0.7281
1340.609002 0.7090 0.6970 0.6790 0.6780 0.6790
1345.352843 0.6800 0.7020 0.7229 0.7429 0.7629
1350.096685 0.7800 0.7940 0.8020 0.8150 0.8250
1354.840526 0.8320 0.8380 0.8420 0.8460 0.8510
1359.584367 0.8540 0.8590 0.8620 0.8620 0.8620
1364.328209 0.8640 0.8660 0.8670 0.8680 0.8680
1369.072050 0.8680 0.8680 0.8680 0.8680 0.8680
1373.815892 0.8670 0.8660 0.8660 0.8660 0.8660
1378.559733 0.8650 0.8650 0.8650 0.8650 0.8650
1383.303575 0.8650 0.8640 0.8640 0.8640 0.8620
1388.047416 0.8600 0.8580 0.8550 0.8530 0.8510
1392.791258 0.8490 0.8480 0.8470 0.8460 0.8450
1397.535099 0.8450 0.8410 0.8380 0.8330 0.8300
1402.278941 0.8280 0.8280 0.8260 0.8230 0.8200
1407.022782 0.8160 0.8130 0.8070 0.8010 0.7970
1411.766624 0.7930 0.7880 0.7810 0.7710 0.7581
1416.510465 0.7450 0.7300 0.7130 0.6970 0.6800
1421.254307 0.6720 0.6640 0.6351 0.6001 0.5592
1425.998148 0.5049 0.4389 0.3690 0.3260 0.2810
1430.741990 0.2211 0.2190 0.2210 0.2599 0.3447
1435.485831 0.4031 0.4621 0.5070 0.5490 0.5810
1440.229673 0.6050 0.6220 0.6370 0.6480 0.6590
1444.973514 0.6600 0.6600 0.6590 0.6530 0.6470
1449.717355 0.6380 0.6091 0.5811 0.5591 0.5132
1454.461197 0.4860 0.4880 0.4890 0.4910 0.5070
1459.205038 0.5290 0.5490 0.5849 0.6219 0.6917
1463.948880 0.7190 0.7420 0.7600 0.7700 0.7830
1468.692721 0.7950 0.8070 0.8160 0.8270 0.8360
1473.436563 0.8360 0.8390 0.8410 0.8430 0.8450
1478.180404 0.8470 0.8510 0.8540 0.8590 0.8620
1482.924246 0.8650 0.8680 0.8720 0.8750 0.8780
1487.668087 0.8800 0.8810 0.8810 0.8810 0.8810
1492.411929 0.8840 0.8860 0.8880 0.8920 0.8930
1497.155770 0.8940 0.8950 0.8980 0.8980 0.9000
1501.899612 0.9000 0.9010 0.9040 0.9060 0.9100
1506.643453 0.9100 0.9100 0.9100 0.9080 0.9080
1511.387295 0.9080 0.9080 0.9100 0.9110 0.9130
1516.131136 0.9140 0.9160 0.9160 0.9170 0.9180
1520.874978 0.9170 0.9170 0.9170 0.9170 0.9180
1525.618819 0.9180 0.9180 0.9180 0.9180 0.9180
1530.362661 0.9180 0.9190 0.9190 0.9190 0.9190
1535.106502 0.9190 0.9200 0.9200 0.9200 0.9200
1539.850343 0.9190 0.9180 0.9180 0.9170 0.9160
1544.594185 0.9140 0.9130 0.9130 0.9130 0.9120
1549.338026 0.9120 0.9120 0.9110 0.9110 0.9100
1554.081868 0.9100 0.9070 0.9050 0.9030 0.9010
1558.825709 0.9000 0.8990 0.8990 0.8990 0.8990
1563.569551 0.8990 0.8990 0.8990 0.9000 0.9000
1568.313392 0.9010 0.9010 0.9030 0.9040 0.9050
1573.057234 0.9060 0.9060 0.9060 0.9080 0.9080
1577.801075 0.9080 0.9080 0.9080 0.9080 0.9080
1582.544917 0.9100 0.9100 0.9100 0.9110 0.9110
1587.288758 0.9110 0.9110 0.9110 0.9110 0.9110
1592.032600 0.9110 0.9110 0.9110 0.9110 0.9110
1596.776441 0.9110 0.9110 0.9100 0.9100 0.9080
1601.520283 0.9070 0.9050 0.9050 0.9040 0.9040
1606.264124 0.9040 0.9010 0.9010 0.9000 0.8990
1611.007966 0.8980 0.8970 0.8930 0.8920 0.8920
1615.751807 0.8910 0.8910 0.8900 0.8900 0.8880
1620.495648 0.8880 0.8870 0.8860 0.8860 0.8850
1625.239490 0.8840 0.8840 0.8840 0.8840 0.8840
1629.983331 0.8840 0.8840 0.8840 0.8840 0.8840
1634.727173 0.8840 0.8840 0.8840 0.8840 0.8850
1639.471014 0.8870 0.8870 0.8880 0.8910 0.8940
1644.214856 0.8950 0.8970 0.8980 0.8990 0.9000
1648.958697 0.9000 0.9040 0.9080 0.9110 0.9120
1653.702539 0.9120 0.9120 0.9120 0.9120 0.9120
1658.446380 0.9130 0.9140 0.9160 0.9160 0.9160
1663.190222 0.9160 0.9160 0.9160 0.9140 0.9140
1667.934063 0.9130 0.9130 0.9130 0.9120 0.9120
1672.677905 0.9120 0.9120 0.9110 0.9110 0.9100
1677.421746 0.9080 0.9080 0.9070 0.9050 0.9050
1682.165588 0.9040 0.9040 0.9040 0.9010 0.9000
1686.909429 0.8980 0.8980 0.8940 0.8900 0.8880
1691.653271 0.8880 0.8880 0.8880 0.8900 0.8900
1696.397112 0.8900 0.8910 0.8940 0.8970 0.8980
1701.140954 0.8980 0.8990 0.9000 0.9000 0.9030
1705.884795 0.9040 0.9050 0.9060 0.9070 0.9080
1710.628636 0.9080 0.9080 0.9080 0.9080 0.9080
1715.372478 0.9070 0.9050 0.9050 0.9050 0.9040
1720.116319 0.9030 0.9030 0.9010 0.9010 0.9010
1724.860161 0.9010 0.9010 0.9030 0.9030 0.9050
1729.604002 0.9060 0.9070 0.9070 0.9080 0.9070
1734.347844 0.9060 0.9050 0.9050 0.9040 0.9040
1739.091685 0.9040 0.9040 0.9040 0.9050 0.9060
1743.835527 0.9060 0.9070 0.9080 0.9080 0.9080
1748.579368 0.9080 0.9080 0.9080 0.9080 0.9080
1753.323210 0.9080 0.9100 0.9120 0.9130 0.9140
1758.067051 0.9160 0.9160 0.9180 0.9190 0.9200
1762.810893 0.9200 0.9200 0.9200 0.9210 0.9210
1767.554734 0.9210 0.9210 0.9200 0.9200 0.9190
1772.298576 0.9170 0.9140 0.9120 0.9100 0.9080
1777.042417 0.9080 0.9070 0.9050 0.9030 0.9010
1781.786259 0.9000 0.9000 0.8990 0.8990 0.9000
1786.530100 0.9000 0.9000 0.9000 0.9000 0.9000
1791.273942 0.8990 0.8980 0.8980 0.8980 0.8980
1796.017783 0.8970 0.8970 0.8950 0.8930 0.8920
1800.761624 0.8910 0.8900 0.8880 0.8860 0.8840
1805.505466 0.8810 0.8780 0.8730 0.8720 0.8720
1810.249307 0.8730 0.8730 0.8730 0.8750 0.8780
1814.993149 0.8800 0.8850 0.8880 0.8940 0.8980
1819.736990 0.9010 0.9030 0.9070 0.9100 0.9130
1824.480832 0.9140 0.9160 0.9160 0.9160 0.9170
1829.224673 0.9170 0.9170 0.9170 0.9170 0.9170
1833.968515 0.9170 0.9160 0.9160 0.9140 0.9140
1838.712356 0.9130 0.9110 0.9100 0.9080 0.9070
1843.456198 0.9050 0.9040 0.9010 0.8990 0.8970
1848.200039 0.8940 0.8910 0.8880 0.8850 0.8810
1852.943881 0.8770 0.8730 0.8680 0.8620 0.8560
1857.687722 0.8510 0.8430 0.8350 0.8280 0.8200
1862.431564 0.8100 0.8090 0.8100 0.8100 0.8190
1867.175405 0.8260 0.8320 0.8400 0.8480 0.8510
1871.919247 0.8540 0.8620 0.8680 0.8720 0.8750
1876.663088 0.8790 0.8810 0.8820 0.8850 0.8850
1881.406930 0.8850 0.8850 0.8840 0.8840 0.8820
1886.150771 0.8810 0.8810 0.8810 0.8800 0.8800
1890.894612 0.8790 0.8790 0.8790 0.8780 0.8780
1895.638454 0.8770 0.8750 0.8740 0.8720 0.8690
1900.382295 0.8670 0.8660 0.8640 0.8620 0.8610
1905.126137 0.8590 0.8580 0.8580 0.8560 0.8580
1909.869978 0.8580 0.8580 0.8590 0.8610 0.8640
1914.613820 0.8650 0.8680 0.8690 0.8730 0.8750
1919.357661 0.8790 0.8810 0.8840 0.8870 0.8910
1924.101503 0.8930 0.8980 0.8990 0.9010 0.9030
1928.845344 0.9040 0.9040 0.9040 0.9040 0.9040
1933.589186 0.9040 0.9040 0.9040 0.9030 0.9010
1938.333027 0.9000 0.8990 0.8970 0.8950 0.8950
1943.076869 0.8950 0.8940 0.8940 0.8940 0.8940
1947.820710 0.8940 0.8930 0.8920 0.8910 0.8900
1952.564552 0.8870 0.8850 0.8820 0.8810 0.8790
1957.308393 0.8770 0.8730 0.8710 0.8680 0.8670
1962.052235 0.8660 0.8640 0.8590 0.8550 0.8520
1966.796076 0.8490 0.8480 0.8460 0.8420 0.8390
1971.539918 0.8380 0.8380 0.8390 0.8390 0.8400
1976.283759 0.8430 0.8470 0.8510 0.8560 0.8620
1981.027600 0.8680 0.8740 0.8800 0.8860 0.8920
1985.771442 0.8970 0.8990 0.9010 0.9030 0.9040
1990.515283 0.9040 0.9040 0.9030 0.9010 0.8990
1995.259125 0.8980 0.8980 0.8990 0.9000 0.9030
2000.002966 0.9070 0.9085 0.9100 0.9115 0.9130
2004.746808 0.9145 0.9160 0.9180 0.9200 0.9225
2009.490649 0.9250 0.9275 0.9300 0.9320 0.9340
2014.234491 0.9364 0.9389 0.9405 0.9420 0.9430
2018.978332 0.9440 0.9445 0.9450 0.9455 0.9460
2023.722174 0.9465 0.9470 0.9470 0.9470 0.9480
2028.466015 0.9490 0.9490 0.9490 0.9490 0.9490
2033.209857 0.9480 0.9470 0.9465 0.9460 0.9460
2037.953698 0.9460 0.9455 0.9450 0.9445 0.9440
2042.697540 0.9435 0.9430 0.9425 0.9420 0.9410
2047.441381 0.9400 0.9395 0.9390 0.9390 0.9390
2052.185223 0.9385 0.9380 0.9375 0.9370 0.9365
2056.929064 0.9360 0.9360 0.9360 0.9350 0.9340
2061.672905 0.9335 0.9330 0.9325 0.9320 0.9310
2066.416747 0.9301 0.9295 0.9290 0.9281 0.9271
2071.160588 0.9251 0.9231 0.9207 0.9182 0.9171
2075.904430 0.9160 0.9146 0.9131 0.9116 0.9101
2080.648271 0.9072 0.9042 0.9026 0.9011 0.8991
2085.392113 0.8971 0.8942 0.8912 0.8887 0.8862
2090.135954 0.8837 0.8812 0.8778 0.8743 0.8684
2094.879796 0.8624 0.8587 0.8552 0.8541 0.8531
2099.623637 0.8525 0.8520 0.8525 0.8530 0.8535
2104.367479 0.8540 0.8545 0.8550 0.8555 0.8560
2109.111320 0.8569 0.8579 0.8585 0.8590 0.8595
2113.855162 0.8600 0.8600 0.8600 0.8609 0.8619
2118.599003 0.8620 0.8620 0.8620 0.8620 0.8629
2123.342845 0.8639 0.8640 0.8640 0.8645 0.8650
2128.086686 0.8650 0.8650 0.8655 0.8659 0.8660
2132.830528 0.8660 0.8660 0.8660 0.8660 0.8660
2137.574369 0.8655 0.8650 0.8650 0.8650 0.8636
2142.318211 0.8622 0.8611 0.8601 0.8591 0.8581
2147.062052 0.8562 0.8542 0.8536 0.8531 0.8530
2151.805893 0.8530 0.8535 0.8539 0.8540 0.8540
2156.549735 0.8549 0.8559 0.8569 0.8579 0.8584
2161.293576 0.8589 0.8594 0.8599 0.8600 0.8600
2166.037418 0.8596 0.8591 0.8586 0.8581 0.8567
2170.781259 0.8552 0.8546 0.8541 0.8531 0.8521
2175.525101 0.8489 0.8454 0.8371 0.8281 0.8126
2180.268942 0.7961 0.7888 0.7828 0.7811 0.7801
2185.012784 0.7804 0.7809 0.7931 0.8070 0.8181
2189.756625 0.8287 0.8344 0.8394 0.8404 0.8409
2194.500467 0.8410 0.8410 0.8406 0.8401 0.8353
2199.244308 0.8298 0.8230 0.8160 0.8073 0.7983
2203.988150 0.7898 0.7813 0.7728 0.7643 0.7481
2208.731991 0.7304 0.7181 0.7066 0.6960 0.6855
2213.475833 0.6767 0.6682 0.6598 0.6513 0.6249
2218.219674 0.5955 0.5491 0.4997 0.4271 0.3502
2222.963516 0.2964 0.2470 0.1976 0.1482 0.0903
2227.707357 0.0308 0.0216 0.0211 0.0210 0.0210
2232.451199 0.0210 0.0210 0.0214 0.0219 0.0224
2237.195040 0.0229 0.0259 0.0294 0.0379 0.0474
2241.938881 0.0573 0.0673 0.0801 0.0936 0.1246
2246.682723 0.1594 0.1943 0.2293 0.2955 0.3679
2251.426564 0.4095 0.4450 0.4696 0.4921 0.5298
2256.170406 0.5708 0.5887 0.6017 0.6040 0.6040
2260.914247 0.6032 0.6022 0.6012 0.6002 0.5849
2265.658089 0.5662 0.5482 0.5302 0.5167 0.5043
2270.401930 0.4910 0.4775 0.4636 0.4496 0.4364
2275.145772 0.4235 0.4210 0.4210 0.4262 0.4327
2279.889613 0.4569 0.4853 0.5058 0.5242 0.5943
2284.633455 0.6775 0.7158 0.7437 0.7652 0.7852
2289.377296 0.8003 0.8143 0.8238 0.8323 0.8376
2294.121138 0.8421 0.8466 0.8511 0.8548 0.8583
2298.864979 0.8618 0.8653 0.8688 0.8722 0.8758
2303.608821 0.8793 0.8824 0.8854 0.8888 0.8923
2308.352662 0.8954 0.8984 0.9026 0.9071 0.9127
2313.096504 0.9187 0.9255 0.9325 0.9375 0.9420
2317.840345 0.9457 0.9492 0.9512 0.9527 0.9546
2322.584187 0.9566 0.9574 0.9579 0.9580 0.9580
2327.328028 0.9580 0.9580 0.9584 0.9589 0.9590
2332.071869 0.9590 0.9590 0.9590 0.9590 0.9590
2336.815711 0.9590 0.9590 0.9590 0.9590 0.9590
2341.559552 0.9590 0.9590 0.9590 0.9586 0.9581
2346.303394 0.9576 0.9571 0.9566 0.9561 0.9556
2351.047235 0.9551 0.9550 0.9550 0.9542 0.9532
2355.791077 0.9530 0.9530 0.9530 0.9530 0.9522
2360.534918 0.9512 0.9510 0.9510 0.9506 0.9501
2365.278760 0.9500 0.9500 0.9496 0.9491 0.9490
2370.022601 0.9490 0.9483 0.9473 0.9459 0.9444
2374.766443 0.9433 0.9423 0.9409 0.9394 0.9386
2379.510284 0.9381 0.9380 0.9380 0.9380 0.9380
2384.254126 0.9380 0.9380 0.9384 0.9389 0.9401
2388.997967 0.9416 0.9424 0.9429 0.9459 0.9499
2393.741809 0.9528 0.9553 0.9567 0.9577 0.9584
2398.485650 0.9589 0.9594 0.9599 0.9607 0.9617
2403.229492 0.9620 0.9620 0.9620 0.9620 0.9620
2407.973333 0.9620 0.9620 0.9620 0.9620 0.9620
2412.717175 0.9620 0.9620 0.9620 0.9620 0.9620
2417.461016 0.9620 0.9620 0.9620 0.9613 0.9603
2422.204857 0.9600 0.9600 0.9600 0.9600 0.9600
2426.948699 0.9600 0.9596 0.9591 0.9586 0.9581
2431.692540 0.9576 0.9571 0.9570 0.9570 0.9566
2436.436382 0.9561 0.9549 0.9534 0.9516 0.9496
2441.180223 0.9472 0.9447 0.9426 0.9406 0.9393
2445.924065 0.9383 0.9359 0.9329 0.9292 0.9252
2450.667906 0.9212 0.9173 0.9143 0.9118 0.9089
2455.411748 0.9059 0.9046 0.9042 0.9043 0.9048
2460.155589 0.9050 0.9050 0.9057 0.9067 0.9080
2464.899431 0.9095 0.9120 0.9150 0.9177 0.9202
2469.643272 0.9254 0.9319 0.9353 0.9373 0.9380
2474.387114 0.9380 0.9380 0.9380 0.9380 0.9380
2479.130955 0.9380 0.9380 0.9377 0.9372 0.9367
2483.874797 0.9362 0.9350 0.9335 0.9310 0.9280
2488.618638 0.9260 0.9245 0.9230 0.9215 0.9207
