##TITLE=1,2-PROPANEDIOL, 2-METHYL-
##JCAMP-DX=4.24
##DATA TYPE=INFRARED SPECTRUM
##CLASS=COBLENTZ III
##ORIGIN=DOW CHEMICAL COMPANY
##OWNER=COBLENTZ SOCIETY
Collection (C) 2018 copyright by the U.S. Secretary of Commerce
on behalf of the United States of America. All rights reserved.
##DATE=1963/12/11
##NAMES=2-methyl-1,2-propanediol
ISOBUTYLENE GLYCOL
##CAS REGISTRY NO=558-43-0
##MOLFORM=C4 H10 O2
##SOURCE REFERENCE=COBLENTZ NO. 10153
##$NIST SOURCE=COBLENTZ
##$NIST IMAGE=cob10153
##SPECTROMETER/DATA SYSTEM=DOW KBr FOREPRISM-GRATING
##INSTRUMENT PARAMETERS=BLAZED AT 3.5, 12.0, 20.0 MICRON, CHANGED AT 5.0, 7.5, 14.9 MICRON
##STATE=LIQUID (NEAT)
##PATH LENGTH=CAPILLARY
$$SPECTRAL CONTAMINATION DUE TO H2O AROUND 1655 CM^-^1
##SAMPLING PROCEDURE=TRANSMISSION
##RESOLUTION=4
##DATA PROCESSING=DIGITIZED BY NIST FROM HARD COPY (FROM TWO SEGMENTS)
##XUNITS=1/CM
##YUNITS=TRANSMITTANCE
##XFACTOR=1.000000
##YFACTOR=1
##DELTAX=0.870070
##FIRSTX=390.371
##LASTX=3800.17
##FIRSTY=0.798
##MAXX=3800.17
##MINX=390.371
##MAXY=1.032
##MINY=0.047
##NPOINTS=3920
##XYDATA=(X++(Y..Y))
390.371000 0.7980 0.7980 0.7970 0.7970 0.7950
394.721349 0.7950 0.7940 0.7940 0.7930 0.7900
399.071697 0.7870 0.7850 0.7830 0.7820 0.7800
403.422046 0.7800 0.7790 0.7790 0.7780 0.7760
407.772395 0.7750 0.7740 0.7720 0.7700 0.7700
412.122743 0.7680 0.7680 0.7670 0.7670 0.7650
416.473092 0.7650 0.7640 0.7640 0.7630 0.7630
420.823441 0.7610 0.7610 0.7610 0.7610 0.7610
425.173789 0.7600 0.7590 0.7590 0.7570 0.7550
429.524138 0.7530 0.7510 0.7490 0.7480 0.7450
433.874486 0.7440 0.7420 0.7410 0.7400 0.7380
438.224835 0.7370 0.7360 0.7310 0.7290 0.7260
442.575184 0.7260 0.7250 0.7230 0.7220 0.7210
446.925532 0.7190 0.7180 0.7150 0.7110 0.7080
451.275881 0.7070 0.7040 0.7020 0.6990 0.6950
455.626230 0.6920 0.6890 0.6870 0.6840 0.6820
459.976578 0.6780 0.6770 0.6760 0.6760 0.6760
464.326927 0.6760 0.6770 0.6770 0.6780 0.6800
468.677276 0.6810 0.6820 0.6840 0.6850 0.6870
473.027624 0.6880 0.6890 0.6910 0.6920 0.6930
477.377973 0.6950 0.6960 0.6970 0.7000 0.7020
481.728322 0.7030 0.7040 0.7040 0.7060 0.7060
486.078670 0.7070 0.7070 0.7060 0.7060 0.7040
490.429019 0.7030 0.7020 0.7000 0.7000 0.6990
494.779368 0.6990 0.6970 0.6970 0.6960 0.6950
499.129716 0.6950 0.6930 0.6920 0.6890 0.6880
503.480065 0.6850 0.6840 0.6820 0.6800 0.6800
507.830414 0.6780 0.6770 0.6740 0.6730 0.6700
512.180762 0.6690 0.6680 0.6650 0.6630 0.6620
516.531111 0.6610 0.6610 0.6590 0.6570 0.6530
520.881459 0.6480 0.6460 0.6460 0.6390 0.6380
525.231808 0.6350 0.6320 0.6320 0.6290 0.6290
529.582157 0.6280 0.6280 0.6280 0.6290 0.6310
533.932505 0.6320 0.6340 0.6350 0.6360 0.6360
538.282854 0.6360 0.6380 0.6380 0.6360 0.6350
542.633203 0.6350 0.6340 0.6340 0.6320 0.6320
546.983551 0.6310 0.6310 0.6290 0.6280 0.6240
551.333900 0.6210 0.6190 0.6170 0.6140 0.6090
555.684249 0.6050 0.6000 0.5950 0.5910 0.5850
560.034597 0.5790 0.5710 0.5600 0.5560 0.5371
564.384946 0.5290 0.5230 0.5170 0.5140 0.5120
568.735295 0.5120 0.5150 0.5190 0.5250 0.5300
573.085643 0.5370 0.5380 0.5480 0.5490 0.5550
577.435992 0.5590 0.5610 0.5640 0.5700 0.5710
581.786341 0.5710 0.5740 0.5750 0.5760 0.5780
586.136689 0.5780 0.5780 0.5780 0.5780 0.5780
590.487038 0.5780 0.5760 0.5760 0.5760 0.5760
594.837386 0.5760 0.5760 0.5760 0.5760 0.5750
599.187735 0.5750 0.5750 0.5750 0.5750 0.5750
603.538084 0.5750 0.5750 0.5750 0.5750 0.5750
607.888432 0.5750 0.5740 0.5740 0.5740 0.5740
612.238781 0.5740 0.5740 0.5740 0.5740 0.5740
616.589130 0.5720 0.5720 0.5720 0.5720 0.5710
620.939478 0.5710 0.5710 0.5710 0.5710 0.5710
625.289827 0.5710 0.5700 0.5700 0.5700 0.5700
629.640176 0.5700 0.5700 0.5700 0.5700 0.5700
633.990524 0.5700 0.5710 0.5710 0.5710 0.5710
638.340873 0.5710 0.5710 0.5710 0.5710 0.5710
642.691222 0.5710 0.5720 0.5720 0.5720 0.5720
647.041570 0.5720 0.5740 0.5740 0.5740 0.5740
651.391919 0.5740 0.5740 0.5750 0.5750 0.5760
655.742268 0.5760 0.5780 0.5780 0.5780 0.5790
660.092616 0.5790 0.5800 0.5800 0.5830 0.5850
664.442965 0.5860 0.5870 0.5890 0.5890 0.5900
668.793314 0.5910 0.5930 0.5940 0.5950 0.5970
673.143662 0.5980 0.6000 0.6000 0.6010 0.6020
677.494011 0.6020 0.6040 0.6050 0.6050 0.6080
681.844359 0.6090 0.6090 0.6100 0.6120 0.6130
686.194708 0.6140 0.6160 0.6160 0.6170 0.6170
690.545057 0.6200 0.6210 0.6210 0.6230 0.6240
694.895405 0.6250 0.6290 0.6290 0.6310 0.6310
699.245754 0.6320 0.6320 0.6340 0.6350 0.6380
703.596103 0.6380 0.6390 0.6420 0.6430 0.6430
707.946451 0.6440 0.6460 0.6470 0.6480 0.6500
712.296800 0.6510 0.6530 0.6540 0.6570 0.6580
716.647149 0.6590 0.6590 0.6610 0.6620 0.6630
720.997497 0.6660 0.6690 0.6690 0.6720 0.6740
725.347846 0.6760 0.6760 0.6770 0.6780 0.6780
729.698195 0.6810 0.6850 0.6870 0.6870 0.6870
734.048543 0.6910 0.6910 0.6920 0.6920 0.6930
738.398892 0.6950 0.6960 0.6970 0.7000 0.7000
742.749241 0.7020 0.7020 0.7000 0.7000 0.6990
747.099589 0.6970 0.6970 0.6950 0.6930 0.6880
751.449938 0.6810 0.6760 0.6660 0.6590 0.6381
755.800286 0.6230 0.6100 0.6000 0.5900 0.5760
760.150635 0.5590 0.5361 0.5141 0.4911 0.4621
764.500984 0.4320 0.4280 0.4280 0.4310 0.4440
768.851332 0.4580 0.4949 0.5229 0.5489 0.5709
773.201681 0.5950 0.6240 0.6500 0.6680 0.6810
777.552030 0.6920 0.7040 0.7110 0.7170 0.7250
781.902378 0.7290 0.7300 0.7380 0.7410 0.7450
786.252727 0.7490 0.7530 0.7560 0.7590 0.7610
790.603076 0.7640 0.7670 0.7700 0.7720 0.7750
794.953424 0.7760 0.7790 0.7800 0.7830 0.7860
799.303773 0.7870 0.7900 0.7930 0.7950 0.7970
803.654122 0.7970 0.8010 0.8020 0.8050 0.8080
808.004470 0.8100 0.8120 0.8160 0.8170 0.8210
812.354819 0.8230 0.8240 0.8250 0.8280 0.8310
816.705168 0.8310 0.8320 0.8320 0.8340 0.8350
821.055516 0.8380 0.8380 0.8390 0.8400 0.8420
825.405865 0.8420 0.8430 0.8440 0.8440 0.8440
829.756214 0.8430 0.8420 0.8420 0.8420 0.8400
834.106562 0.8400 0.8400 0.8400 0.8420 0.8420
838.456911 0.8430 0.8460 0.8500 0.8530 0.8540
842.807259 0.8570 0.8590 0.8620 0.8630 0.8660
847.157608 0.8690 0.8720 0.8720 0.8730 0.8740
851.507957 0.8760 0.8760 0.8770 0.8780 0.8800
855.858305 0.8810 0.8810 0.8810 0.8820 0.8820
860.208654 0.8840 0.8840 0.8850 0.8850 0.8850
864.559003 0.8850 0.8870 0.8870 0.8850 0.8850
868.909351 0.8850 0.8840 0.8820 0.8810 0.8800
873.259700 0.8780 0.8760 0.8740 0.8720 0.8700
877.610049 0.8650 0.8590 0.8540 0.8440 0.8310
881.960397 0.8270 0.8130 0.7981 0.7910 0.7761
886.310746 0.7610 0.7460 0.7440 0.7360 0.7230
890.661095 0.7031 0.7000 0.6960 0.6890 0.6820
895.011443 0.6730 0.6620 0.6480 0.6290 0.6041
899.361792 0.5721 0.5341 0.4972 0.4443 0.4142
903.712141 0.3970 0.3790 0.3221 0.3060 0.3020
908.062489 0.2950 0.2920 0.2890 0.2910 0.3069
912.412838 0.3180 0.3380 0.3590 0.4039 0.4289
916.763186 0.4569 0.4879 0.5229 0.5598 0.6018
921.113535 0.6500 0.7029 0.7110 0.7150 0.7150
925.463884 0.7140 0.7120 0.7100 0.7070 0.7060
929.814232 0.7060 0.7060 0.7070 0.7080 0.7120
934.164581 0.7290 0.7509 0.7640 0.7760 0.7860
938.514930 0.7940 0.8060 0.8140 0.8210 0.8250
942.865278 0.8290 0.8340 0.8390 0.8440 0.8500
947.215627 0.8530 0.8540 0.8580 0.8620 0.8630
951.565976 0.8650 0.8660 0.8660 0.8660 0.8650
955.916324 0.8650 0.8630 0.8630 0.8610 0.8570
960.266673 0.8540 0.8480 0.8460 0.8400 0.8320
964.617022 0.8240 0.8140 0.8060 0.7950 0.7860
968.967370 0.7591 0.7271 0.7031 0.6871 0.6701
973.317719 0.6360 0.6020 0.5720 0.5461 0.5221
977.668068 0.5140 0.5140 0.5170 0.5230 0.5419
982.018416 0.5630 0.5830 0.6040 0.6160 0.6280
986.368765 0.6350 0.6470 0.6550 0.6759 0.6879
990.719114 0.7380 0.7530 0.7570 0.7640 0.7740
995.069462 0.7750 0.7780 0.7780 0.7760 0.7720
999.419811 0.7670 0.7550 0.7480 0.7380 0.7230
1003.770159 0.7070 0.7000 0.6930 0.6781 0.6651
1008.120508 0.6540 0.6500 0.6430 0.6420 0.6420
1012.470857 0.6430 0.6460 0.6510 0.6590 0.6630
1016.821205 0.6700 0.6740 0.6760 0.6760 0.6760
1021.171554 0.6740 0.6630 0.6610 0.6530 0.6440
1025.521903 0.6290 0.6130 0.5940 0.5750 0.5560
1029.872251 0.5311 0.5061 0.4771 0.4471 0.4191
1034.222600 0.4060 0.3930 0.3700 0.3510 0.3211
1038.572949 0.2961 0.2771 0.2571 0.2361 0.2091
1042.923297 0.1910 0.1750 0.1610 0.1490 0.1370
1047.273646 0.1270 0.1190 0.1120 0.1070 0.1030
1051.623995 0.0990 0.0990 0.0970 0.0970 0.0990
1055.974343 0.1000 0.1020 0.1030 0.1060 0.1080
1060.324692 0.1120 0.1180 0.1250 0.1360 0.1450
1064.675041 0.1550 0.1670 0.1819 0.1979 0.2199
1069.025389 0.2460 0.2760 0.3079 0.3509 0.4228
1073.375738 0.4419 0.4739 0.4969 0.5119 0.5408
1077.726086 0.5750 0.5910 0.6270 0.6540 0.6740
1082.076435 0.7019 0.7110 0.7170 0.7230 0.7290
1086.426784 0.7380 0.7440 0.7460 0.7570 0.7600
1090.777132 0.7670 0.7680 0.7710 0.7750 0.7780
1095.127481 0.7790 0.7820 0.7830 0.7860 0.7870
1099.477830 0.7890 0.7900 0.7900 0.7890 0.7870
1103.828178 0.7860 0.7850 0.7830 0.7800 0.7780
1108.178527 0.7760 0.7750 0.7670 0.7610 0.7600
1112.528876 0.7570 0.7520 0.7460 0.7410 0.7360
1116.879224 0.7310 0.7270 0.7210 0.7150 0.7070
1121.229573 0.7020 0.6960 0.6910 0.6810 0.6740
1125.579922 0.6630 0.6530 0.6440 0.6340 0.6201
1129.930270 0.6040 0.5890 0.5680 0.5600 0.5490
1134.280619 0.5360 0.5191 0.5080 0.5000 0.4891
1138.630968 0.4740 0.4570 0.4420 0.4250 0.4160
1142.981316 0.4060 0.3980 0.3900 0.3790 0.3710
1147.331665 0.3600 0.3550 0.3490 0.3400 0.3300
1151.682014 0.3220 0.3140 0.3080 0.3020 0.2950
1156.032362 0.2880 0.2820 0.2780 0.2720 0.2680
1160.382711 0.2630 0.2620 0.2590 0.2580 0.2570
1164.733059 0.2570 0.2570 0.2580 0.2590 0.2610
1169.083408 0.2620 0.2650 0.2720 0.2820 0.2850
1173.433757 0.2970 0.3060 0.3140 0.3220 0.3330
1177.784105 0.3450 0.3590 0.4008 0.4289 0.4469
1182.134454 0.4620 0.4770 0.4910 0.5040 0.5150
1186.484803 0.5329 0.5479 0.5590 0.5779 0.5939
1190.835151 0.6100 0.6240 0.6280 0.6320 0.6380
1195.185500 0.6440 0.6460 0.6480 0.6480 0.6510
1199.535849 0.6540 0.6570 0.6570 0.6580 0.6580
1203.886197 0.6580 0.6580 0.6580 0.6580 0.6550
1208.236546 0.6550 0.6540 0.6530 0.6510 0.6500
1212.586895 0.6480 0.6460 0.6440 0.6400 0.6380
1216.937243 0.6320 0.6270 0.6210 0.6160 0.6050
1221.287592 0.5980 0.5900 0.5820 0.5750 0.5640
1225.637941 0.5600 0.5510 0.5440 0.5380 0.5330
1229.988289 0.5260 0.5230 0.5190 0.5180 0.5170
1234.338638 0.5170 0.5170 0.5170 0.5170 0.5180
1238.688986 0.5180 0.5230 0.5230 0.5310 0.5340
1243.039335 0.5370 0.5420 0.5480 0.5520 0.5600
1247.389684 0.5630 0.5640 0.5680 0.5740 0.5750
1251.740032 0.5760 0.5760 0.5760 0.5780 0.5780
1256.090381 0.5790 0.5790 0.5790 0.5800 0.5800
1260.440730 0.5820 0.5820 0.5820 0.5830 0.5830
1264.791078 0.5870 0.5870 0.5870 0.5890 0.5900
1269.141427 0.5940 0.5970 0.6010 0.6050 0.6080
1273.491776 0.6120 0.6160 0.6190 0.6240 0.6290
1277.842124 0.6320 0.6400 0.6440 0.6530 0.6630
1282.192473 0.6680 0.6770 0.6820 0.6910 0.7059
1286.542822 0.7080 0.7140 0.7170 0.7230 0.7260
1290.893170 0.7310 0.7310 0.7330 0.7360 0.7360
1295.243519 0.7360 0.7360 0.7360 0.7340 0.7340
1299.593868 0.7330 0.7310 0.7310 0.7300 0.7290
1303.944216 0.7260 0.7260 0.7250 0.7230 0.7220
1308.294565 0.7190 0.7170 0.7140 0.7110 0.7100
1312.644914 0.7070 0.7060 0.7000 0.6990 0.6960
1316.995262 0.6920 0.6910 0.6890 0.6840 0.6800
1321.345611 0.6770 0.6740 0.6740 0.6720 0.6720
1325.695959 0.6700 0.6700 0.6690 0.6690 0.6680
1330.046308 0.6660 0.6660 0.6650 0.6650 0.6630
1334.396657 0.6620 0.6620 0.6610 0.6590 0.6580
1338.747005 0.6550 0.6530 0.6480 0.6460 0.6430
1343.097354 0.6390 0.6350 0.6310 0.6280 0.6200
1347.447703 0.6160 0.6140 0.6050 0.5950 0.5870
1351.798051 0.5760 0.5680 0.5600 0.5481 0.5371
1356.148400 0.5250 0.5140 0.4990 0.4800 0.4551
1360.498749 0.4311 0.4061 0.3980 0.3900 0.3801
1364.849097 0.3720 0.3710 0.3720 0.3790 0.3850
1369.199446 0.4059 0.4100 0.4100 0.4080 0.4060
1373.549795 0.4000 0.3970 0.3930 0.3830 0.3720
1377.900143 0.3640 0.3570 0.3510 0.3450 0.3440
1382.250492 0.3420 0.3420 0.3440 0.3450 0.3480
1386.600841 0.3530 0.3560 0.3610 0.3670 0.3720
1390.951189 0.3790 0.3900 0.4080 0.4210 0.4310
1395.301538 0.4400 0.4500 0.4570 0.4610 0.4650
1399.651886 0.4700 0.4770 0.4810 0.4850 0.4870
1404.002235 0.4880 0.4890 0.4920 0.4950 0.4990
1408.352584 0.5000 0.5020 0.5040 0.5080 0.5110
1412.702932 0.5120 0.5150 0.5180 0.5230 0.5250
1417.053281 0.5290 0.5330 0.5340 0.5400 0.5480
1421.403630 0.5560 0.5600 0.5610 0.5640 0.5740
1425.753978 0.5750 0.5790 0.5870 0.5890 0.5910
1430.104327 0.5970 0.6010 0.6050 0.6080 0.6100
1434.454676 0.6140 0.6140 0.6160 0.6170 0.6170
1438.805024 0.6170 0.6160 0.6160 0.6160 0.6140
1443.155373 0.6140 0.6140 0.6140 0.6140 0.6130
1447.505722 0.6120 0.6100 0.6080 0.6050 0.6000
1451.856070 0.5930 0.5900 0.5870 0.5800 0.5740
1456.206419 0.5630 0.5550 0.5490 0.5420 0.5340
1460.556768 0.5270 0.5250 0.5250 0.5230 0.5230
1464.907116 0.5220 0.5220 0.5190 0.5170 0.5140
1469.257465 0.5100 0.5040 0.5000 0.4970 0.4960
1473.607814 0.4960 0.4970 0.5000 0.5060 0.5120
1477.958162 0.5220 0.5300 0.5440 0.5680 0.5979
1482.308511 0.6199 0.6379 0.6649 0.6799 0.7099
1486.658859 0.7230 0.7380 0.7440 0.7600 0.7700
1491.009208 0.7830 0.7910 0.7940 0.8010 0.8119
1495.359557 0.8140 0.8200 0.8250 0.8290 0.8350
1499.709905 0.8390 0.8460 0.8500 0.8510 0.8530
1504.060254 0.8540 0.8580 0.8590 0.8620 0.8630
1508.410603 0.8660 0.8690 0.8700 0.8730 0.8740
1512.760951 0.8760 0.8770 0.8800 0.8810 0.8820
1517.111300 0.8840 0.8850 0.8890 0.8890 0.8910
1521.461649 0.8910 0.8920 0.8920 0.8930 0.8960
1525.811997 0.8970 0.8990 0.8990 0.9000 0.9000
1530.162346 0.9020 0.9030 0.9030 0.9040 0.9040
1534.512695 0.9060 0.9060 0.9070 0.9070 0.9080
1538.863043 0.9080 0.9100 0.9110 0.9110 0.9110
1543.213392 0.9120 0.9140 0.9140 0.9140 0.9150
1547.563741 0.9150 0.9170 0.9170 0.9180 0.9180
1551.914089 0.9190 0.9190 0.9190 0.9190 0.9190
1556.264438 0.9190 0.9210 0.9210 0.9220 0.9220
1560.614786 0.9220 0.9220 0.9220 0.9220 0.9230
1564.965135 0.9230 0.9230 0.9230 0.9230 0.9230
1569.315484 0.9220 0.9220 0.9220 0.9220 0.9220
1573.665832 0.9220 0.9220 0.9220 0.9210 0.9210
1578.016181 0.9210 0.9210 0.9210 0.9220 0.9210
1582.366530 0.9210 0.9210 0.9210 0.9190 0.9190
1586.716878 0.9190 0.9180 0.9180 0.9170 0.9150
1591.067227 0.9150 0.9150 0.9140 0.9140 0.9140
1595.417576 0.9120 0.9110 0.9110 0.9110 0.9110
1599.767924 0.9100 0.9100 0.9100 0.9100 0.9070
1604.118273 0.9060 0.9040 0.9030 0.9020 0.9000
1608.468622 0.8990 0.8970 0.8960 0.8950 0.8930
1612.818970 0.8920 0.8910 0.8910 0.8870 0.8840
1617.169319 0.8840 0.8820 0.8810 0.8780 0.8770
1621.519668 0.8740 0.8730 0.8720 0.8700 0.8690
1625.870016 0.8680 0.8660 0.8630 0.8630 0.8590
1630.220365 0.8580 0.8540 0.8540 0.8530 0.8510
1634.570714 0.8470 0.8460 0.8440 0.8440 0.8430
1638.921062 0.8420 0.8390 0.8380 0.8360 0.8350
1643.271411 0.8340 0.8340 0.8340 0.8320 0.8310
1647.621759 0.8310 0.8290 0.8290 0.8280 0.8270
1651.972108 0.8270 0.8270 0.8270 0.8250 0.8250
1656.322457 0.8250 0.8250 0.8250 0.8270 0.8270
1660.672805 0.8270 0.8280 0.8280 0.8290 0.8310
1665.023154 0.8320 0.8320 0.8340 0.8350 0.8360
1669.373503 0.8390 0.8390 0.8440 0.8440 0.8470
1673.723851 0.8500 0.8510 0.8540 0.8550 0.8580
1678.074200 0.8610 0.8630 0.8660 0.8700 0.8730
1682.424549 0.8740 0.8760 0.8780 0.8800 0.8810
1686.774897 0.8840 0.8870 0.8890 0.8920 0.8920
1691.125246 0.8950 0.8970 0.8970 0.8970 0.8990
1695.475595 0.9020 0.9030 0.9040 0.9040 0.9060
1699.825943 0.9110 0.9120 0.9120 0.9140 0.9140
1704.176292 0.9140 0.9150 0.9170 0.9180 0.9190
1708.526641 0.9210 0.9220 0.9250 0.9270 0.9270
1712.876989 0.9310 0.9310 0.9330 0.9340 0.9360
1717.227338 0.9370 0.9380 0.9400 0.9410 0.9420
1721.577686 0.9440 0.9450 0.9450 0.9450 0.9460
1725.928035 0.9460 0.9480 0.9490 0.9490 0.9490
1730.278384 0.9490 0.9490 0.9490 0.9510 0.9510
1734.628732 0.9520 0.9530 0.9550 0.9550 0.9550
1738.979081 0.9550 0.9550 0.9550 0.9560 0.9560
1743.329430 0.9560 0.9560 0.9560 0.9570 0.9570
1747.679778 0.9570 0.9570 0.9570 0.9590 0.9590
1752.030127 0.9600 0.9610 0.9610 0.9630 0.9630
1756.380476 0.9630 0.9640 0.9640 0.9640 0.9640
1760.730824 0.9640 0.9650 0.9650 0.9650 0.9650
1765.081173 0.9650 0.9650 0.9650 0.9650 0.9650
1769.431522 0.9650 0.9670 0.9670 0.9670 0.9670
1773.781870 0.9670 0.9680 0.9680 0.9680 0.9680
1778.132219 0.9680 0.9680 0.9680 0.9680 0.9680
1782.482568 0.9680 0.9680 0.9680 0.9680 0.9680
1786.832916 0.9670 0.9670 0.9650 0.9650 0.9650
1791.183265 0.9650 0.9650 0.9650 0.9650 0.9650
1795.533614 0.9650 0.9640 0.9640 0.9640 0.9630
1799.883962 0.9630 0.9630 0.9630 0.9630 0.9630
1804.234311 0.9630 0.9630 0.9630 0.9630 0.9610
1808.584659 0.9610 0.9610 0.9610 0.9600 0.9600
1812.935008 0.9600 0.9600 0.9600 0.9610 0.9610
1817.285357 0.9610 0.9610 0.9610 0.9610 0.9610
1821.635705 0.9630 0.9630 0.9630 0.9640 0.9640
1825.986054 0.9640 0.9640 0.9640 0.9640 0.9640
1830.336403 0.9650 0.9650 0.9650 0.9650 0.9650
1834.686751 0.9640 0.9640 0.9640 0.9640 0.9640
1839.037100 0.9640 0.9640 0.9650 0.9650 0.9650
1843.387449 0.9650 0.9650 0.9670 0.9670 0.9670
1847.737797 0.9670 0.9670 0.9680 0.9680 0.9680
1852.088146 0.9680 0.9680 0.9680 0.9680 0.9680
1856.438495 0.9680 0.9680 0.9680 0.9680 0.9680
1860.788843 0.9680 0.9680 0.9680 0.9680 0.9680
1865.139192 0.9680 0.9680 0.9680 0.9680 0.9680
1869.489541 0.9680 0.9680 0.9680 0.9680 0.9670
1873.839889 0.9670 0.9670 0.9670 0.9670 0.9670
1878.190238 0.9650 0.9650 0.9650 0.9650 0.9670
1882.540586 0.9670 0.9670 0.9670 0.9670 0.9670
1886.890935 0.9670 0.9670 0.9670 0.9670 0.9670
1891.241284 0.9670 0.9670 0.9670 0.9670 0.9670
1895.591632 0.9670 0.9670 0.9670 0.9670 0.9670
1899.941981 0.9680 0.9680 0.9670 0.9680 0.9680
1904.292330 0.9680 0.9680 0.9680 0.9680 0.9670
1908.642678 0.9670 0.9670 0.9670 0.9670 0.9670
1912.993027 0.9680 0.9680 0.9680 0.9670 0.9670
1917.343376 0.9680 0.9680 0.9670 0.9670 0.9670
1921.693724 0.9670 0.9670 0.9670 0.9670 0.9670
1926.044073 0.9670 0.9670 0.9670 0.9670 0.9670
1930.394422 0.9670 0.9670 0.9670 0.9670 0.9670
1934.744770 0.9670 0.9650 0.9650 0.9650 0.9650
1939.095119 0.9650 0.9650 0.9650 0.9650 0.9650
1943.445468 0.9650 0.9650 0.9650 0.9650 0.9650
1947.795816 0.9670 0.9670 0.9670 0.9670 0.9670
1952.146165 0.9670 0.9670 0.9670 0.9680 0.9680
1956.496514 0.9700 0.9710 0.9720 0.9740 0.9760
1960.846862 0.9720 0.9650 0.9640 0.9630 0.9610
1965.197211 0.9610 0.9610 0.9610 0.9610 0.9610
1969.547559 0.9600 0.9600 0.9610 0.9610 0.9610
1973.897908 0.9600 0.9600 0.9600 0.9600 0.9600
1978.248257 0.9600 0.9600 0.9590 0.9590 0.9570
1982.598605 0.9570 0.9570 0.9570 0.9570 0.9570
1986.948954 0.9570 0.9570 0.9570 0.9570 0.9570
1991.299303 0.9570 0.9570 0.9570 0.9570 0.9570
1995.649651 1.0318 1.0320 1.0320 1.0320 1.0320
2000.000000 1.0320 1.0315 1.0310 1.0310 1.0310
2004.350349 1.0310 1.0310 1.0310 1.0310 1.0310
2008.700697 1.0310 1.0300 1.0290 1.0290 1.0290
2013.051046 1.0290 1.0290 1.0290 1.0290 1.0285
2017.401395 1.0280 1.0275 1.0270 1.0270 1.0270
2021.751743 1.0260 1.0250 1.0250 1.0250 1.0250
2026.102092 1.0250 1.0250 1.0250 1.0245 1.0240
2030.452441 1.0240 1.0240 1.0235 1.0230 1.0230
2034.802789 1.0230 1.0220 1.0210 1.0205 1.0200
2039.153138 1.0200 1.0200 1.0195 1.0190 1.0190
2043.503486 1.0190 1.0190 1.0190 1.0190 1.0190
2047.853835 1.0190 1.0190 1.0190 1.0190 1.0190
2052.204184 1.0190 1.0180 1.0171 1.0170 1.0170
2056.554532 1.0165 1.0160 1.0151 1.0141 1.0140
2060.904881 1.0140 1.0140 1.0140 1.0135 1.0130
2065.255230 1.0130 1.0130 1.0130 1.0130 1.0125
2069.605578 1.0120 1.0120 1.0120 1.0111 1.0101
2073.955927 1.0100 1.0100 1.0095 1.0090 1.0090
2078.306276 1.0090 1.0090 1.0090 1.0090 1.0090
2082.656624 1.0086 1.0080 1.0080 1.0080 1.0071
2087.006973 1.0061 1.0060 1.0060 1.0055 1.0051
2091.357322 1.0046 1.0040 1.0040 1.0040 1.0040
2095.707670 1.0040 1.0040 1.0040 1.0040 1.0040
2100.058019 1.0040 1.0040 1.0031 1.0021 1.0020
2104.408368 1.0020 1.0020 1.0020 1.0020 1.0020
2108.758716 1.0020 1.0020 1.0016 1.0011 1.0010
2113.109065 1.0010 1.0010 1.0010 1.0010 1.0010
2117.459414 1.0010 1.0010 1.0010 1.0010 1.0010
2121.809762 1.0010 1.0010 1.0010 1.0010 1.0010
2126.160111 1.0010 1.0010 1.0010 1.0010 1.0010
2130.510459 1.0010 1.0010 1.0010 1.0010 1.0010
2134.860808 1.0010 1.0010 1.0010 1.0010 1.0010
2139.211157 1.0010 1.0010 1.0010 1.0010 1.0010
2143.561505 1.0014 1.0019 1.0020 1.0020 1.0020
2147.911854 1.0020 1.0020 1.0020 1.0028 1.0038
