##TITLE=PROPANE, 2-IODO-2-METHYL-
##JCAMP-DX=4.24
$$ By DXEDIT 1.05 (RS McDonald)
##DATA TYPE=INFRARED SPECTRUM
##CLASS=COBLENTZ III
##ORIGIN=DOW CHEMICAL COMPANY
##OWNER=COBLENTZ SOC.
Collection (C) 2018 copyright by the U.S. Secretary of Commerce
on behalf of the United States of America. All rights reserved.
##DATE=1962/03/08
##NAMES=2-iodo-2-methylpropane
##CAS REGISTRY NO=558-17-8
##MOLFORM=C4 H9 I
##SOURCE REFERENCE=COBLENTZ NO. 05665
##$NIST SOURCE=COBLENTZ
##$NIST IMAGE=cob5665
##SPECTROMETER/DATA SYSTEM=DOW KBr FOREPRISM-GRATING
$$SPECTRAL CONTAMINATION DUE TO CS2 AROUND 855 AND CCl4 AROUND 1550 CM^-^1
##INSTRUMENT PARAMETERS=BLAZED AT 3.5, 12.0, 20.0 MICRON AND CHANGED AT 5.0, 7.5, 14.9 MICRON
##STATE=SOLUTION (10% CCl4 FOR 3800-1340, 10% CS2 FOR 1340-450)
##PATH LENGTH=0.0112 CM, 0.0105 CM
##SAMPLING PROCEDURE=TRANSMISSION
##RESOLUTION=2
##DATA PROCESSING=DIGITIZED BY COBLENTZ SOCIETY (BATCH I) FROM HARD COPY
##XUNITS=1/CM
##YUNITS=TRANSMITTANCE
##XLABEL=Wavenumbers (cm-1)
##YLABEL=% Transmission
##XFACTOR=1
##YFACTOR=1
##DELTAX=1
##FIRSTX=3782
##LASTX=445
##FIRSTY=0.8806
##MAXX=3782
##MINX=445
##MAXY=0.9142
##MINY=0.0035
##NPOINTS=3338
##XYDATA=(X++(Y..Y))
3782.000000 0.8806 0.8806 0.8806 0.8806 0.8806
3777.000000 0.8806 0.8806 0.8806 0.8806 0.8805
3772.000000 0.8805 0.8805 0.8805 0.8805 0.8805
3767.000000 0.8805 0.8805 0.8805 0.8805 0.8805
3762.000000 0.8805 0.8805 0.8805 0.8804 0.8804
3757.000000 0.8804 0.8804 0.8804 0.8804 0.8804
3752.000000 0.8804 0.8804 0.8804 0.8804 0.8804
3747.000000 0.8804 0.8804 0.8803 0.8803 0.8803
3742.000000 0.8804 0.8804 0.8804 0.8804 0.8804
3737.000000 0.8804 0.8804 0.8804 0.8805 0.8805
3732.000000 0.8805 0.8805 0.8805 0.8805 0.8805
3727.000000 0.8805 0.8806 0.8806 0.8806 0.8806
3722.000000 0.8806 0.8806 0.8806 0.8806 0.8807
3717.000000 0.8807 0.8807 0.8807 0.8807 0.8807
3712.000000 0.8808 0.8808 0.8808 0.8809 0.8810
3707.000000 0.8814 0.8818 0.8823 0.8827 0.8831
3702.000000 0.8836 0.8840 0.8845 0.8847 0.8849
3697.000000 0.8849 0.8850 0.8851 0.8852 0.8853
3692.000000 0.8854 0.8855 0.8856 0.8856 0.8857
3687.000000 0.8858 0.8859 0.8860 0.8861 0.8862
3682.000000 0.8863 0.8863 0.8863 0.8863 0.8862
3677.000000 0.8860 0.8859 0.8858 0.8857 0.8855
3672.000000 0.8854 0.8853 0.8852 0.8850 0.8849
3667.000000 0.8848 0.8847 0.8845 0.8844 0.8843
3662.000000 0.8842 0.8840 0.8839 0.8837 0.8836
3657.000000 0.8835 0.8834 0.8832 0.8831 0.8830
3652.000000 0.8828 0.8827 0.8825 0.8825 0.8824
3647.000000 0.8823 0.8821 0.8821 0.8821 0.8821
3642.000000 0.8821 0.8821 0.8821 0.8821 0.8821
3637.000000 0.8820 0.8820 0.8820 0.8820 0.8820
3632.000000 0.8820 0.8818 0.8818 0.8818 0.8818
3627.000000 0.8818 0.8818 0.8818 0.8818 0.8818
3622.000000 0.8818 0.8818 0.8818 0.8818 0.8818
3617.000000 0.8817 0.8817 0.8817 0.8817 0.8817
3612.000000 0.8817 0.8817 0.8817 0.8816 0.8816
3607.000000 0.8816 0.8816 0.8816 0.8816 0.8815
3602.000000 0.8815 0.8815 0.8815 0.8814 0.8814
3597.000000 0.8813 0.8813 0.8812 0.8812 0.8811
3592.000000 0.8811 0.8810 0.8809 0.8808 0.8808
3587.000000 0.8807 0.8807 0.8806 0.8806 0.8805
3582.000000 0.8805 0.8804 0.8803 0.8802 0.8802
3577.000000 0.8801 0.8801 0.8800 0.8800 0.8799
3572.000000 0.8799 0.8798 0.8797 0.8796 0.8796
3567.000000 0.8795 0.8795 0.8794 0.8794 0.8793
3562.000000 0.8793 0.8792 0.8791 0.8790 0.8790
3557.000000 0.8789 0.8789 0.8788 0.8788 0.8787
3552.000000 0.8787 0.8786 0.8786 0.8786 0.8786
3547.000000 0.8786 0.8786 0.8786 0.8786 0.8786
3542.000000 0.8786 0.8786 0.8786 0.8786 0.8786
3537.000000 0.8786 0.8786 0.8786 0.8786 0.8786
3532.000000 0.8786 0.8786 0.8786 0.8786 0.8786
3527.000000 0.8786 0.8786 0.8786 0.8786 0.8786
3522.000000 0.8786 0.8786 0.8786 0.8786 0.8786
3517.000000 0.8786 0.8786 0.8786 0.8786 0.8786
3512.000000 0.8786 0.8786 0.8786 0.8786 0.8786
3507.000000 0.8786 0.8786 0.8786 0.8787 0.8787
3502.000000 0.8788 0.8789 0.8790 0.8791 0.8792
3497.000000 0.8792 0.8793 0.8794 0.8795 0.8795
3492.000000 0.8796 0.8797 0.8798 0.8798 0.8799
3487.000000 0.8800 0.8801 0.8801 0.8802 0.8803
3482.000000 0.8804 0.8804 0.8805 0.8806 0.8807
3477.000000 0.8807 0.8808 0.8809 0.8810 0.8811
3472.000000 0.8813 0.8814 0.8816 0.8817 0.8818
3467.000000 0.8818 0.8821 0.8821 0.8824 0.8825
3462.000000 0.8827 0.8828 0.8828 0.8830 0.8832
3457.000000 0.8833 0.8835 0.8836 0.8837 0.8838
3452.000000 0.8840 0.8841 0.8843 0.8846 0.8849
3447.000000 0.8853 0.8858 0.8862 0.8866 0.8870
3442.000000 0.8875 0.8878 0.8883 0.8887 0.8892
3437.000000 0.8896 0.8900 0.8904 0.8909 0.8913
3432.000000 0.8917 0.8920 0.8924 0.8925 0.8927
3427.000000 0.8928 0.8931 0.8932 0.8934 0.8935
3422.000000 0.8937 0.8938 0.8940 0.8942 0.8944
3417.000000 0.8945 0.8947 0.8947 0.8947 0.8947
3412.000000 0.8947 0.8947 0.8947 0.8946 0.8946
3407.000000 0.8946 0.8946 0.8946 0.8946 0.8946
3402.000000 0.8946 0.8946 0.8946 0.8946 0.8946
3397.000000 0.8943 0.8941 0.8937 0.8934 0.8930
3392.000000 0.8925 0.8921 0.8918 0.8914 0.8911
3387.000000 0.8907 0.8903 0.8899 0.8895 0.8891
3382.000000 0.8888 0.8884 0.8880 0.8875 0.8871
3377.000000 0.8871 0.8870 0.8868 0.8867 0.8866
3372.000000 0.8865 0.8864 0.8863 0.8861 0.8860
3367.000000 0.8859 0.8858 0.8857 0.8856 0.8855
3362.000000 0.8854 0.8852 0.8851 0.8850 0.8849
3357.000000 0.8848 0.8848 0.8847 0.8847 0.8847
3352.000000 0.8847 0.8846 0.8846 0.8846 0.8846
3347.000000 0.8845 0.8845 0.8845 0.8845 0.8844
3342.000000 0.8844 0.8844 0.8844 0.8843 0.8843
3337.000000 0.8843 0.8843 0.8842 0.8842 0.8842
3332.000000 0.8842 0.8841 0.8841 0.8841 0.8841
3327.000000 0.8840 0.8840 0.8840 0.8840 0.8839
3322.000000 0.8839 0.8839 0.8839 0.8838 0.8838
3317.000000 0.8837 0.8836 0.8835 0.8834 0.8833
3312.000000 0.8832 0.8831 0.8831 0.8830 0.8828
3307.000000 0.8828 0.8827 0.8825 0.8825 0.8824
3302.000000 0.8823 0.8821 0.8821 0.8820 0.8818
3297.000000 0.8816 0.8814 0.8811 0.8809 0.8806
3292.000000 0.8803 0.8800 0.8798 0.8795 0.8792
3287.000000 0.8789 0.8787 0.8784 0.8782 0.8778
3282.000000 0.8775 0.8771 0.8767 0.8763 0.8759
3277.000000 0.8755 0.8751 0.8747 0.8743 0.8739
3272.000000 0.8735 0.8731 0.8727 0.8723 0.8718
3267.000000 0.8715 0.8711 0.8707 0.8703 0.8698
3262.000000 0.8694 0.8690 0.8686 0.8682 0.8678
3257.000000 0.8674 0.8670 0.8666 0.8662 0.8657
3252.000000 0.8653 0.8649 0.8645 0.8641 0.8637
3247.000000 0.8633 0.8630 0.8627 0.8624 0.8621
3242.000000 0.8618 0.8615 0.8612 0.8609 0.8606
3237.000000 0.8602 0.8599 0.8596 0.8593 0.8590
3232.000000 0.8587 0.8584 0.8581 0.8578 0.8575
3227.000000 0.8571 0.8568 0.8567 0.8566 0.8566
3222.000000 0.8566 0.8566 0.8566 0.8566 0.8566
3217.000000 0.8566 0.8566 0.8566 0.8566 0.8565
3212.000000 0.8565 0.8565 0.8565 0.8565 0.8566
3207.000000 0.8566 0.8566 0.8566 0.8567 0.8567
3202.000000 0.8567 0.8567 0.8568 0.8573 0.8578
3197.000000 0.8583 0.8588 0.8593 0.8599 0.8604
3192.000000 0.8609 0.8614 0.8618 0.8624 0.8630
3187.000000 0.8633 0.8637 0.8637 0.8638 0.8638
3182.000000 0.8639 0.8639 0.8640 0.8640 0.8641
3177.000000 0.8641 0.8642 0.8641 0.8639 0.8636
3172.000000 0.8634 0.8632 0.8630 0.8628 0.8625
3167.000000 0.8623 0.8621 0.8618 0.8617 0.8614
3162.000000 0.8612 0.8610 0.8610 0.8610 0.8611
3157.000000 0.8612 0.8613 0.8613 0.8614 0.8615
3152.000000 0.8616 0.8617 0.8618 0.8618 0.8618
3147.000000 0.8620 0.8621 0.8621 0.8623 0.8623
3142.000000 0.8624 0.8624 0.8624 0.8624 0.8623
3137.000000 0.8621 0.8621 0.8620 0.8618 0.8618
3132.000000 0.8617 0.8616 0.8615 0.8613 0.8612
3127.000000 0.8611 0.8610 0.8609 0.8608 0.8607
3122.000000 0.8606 0.8605 0.8604 0.8603 0.8602
3117.000000 0.8601 0.8600 0.8599 0.8598 0.8597
3112.000000 0.8596 0.8595 0.8594 0.8594 0.8594
3107.000000 0.8593 0.8593 0.8593 0.8593 0.8592
3102.000000 0.8592 0.8592 0.8592 0.8591 0.8591
3097.000000 0.8591 0.8591 0.8591 0.8591 0.8590
3092.000000 0.8590 0.8590 0.8590 0.8589 0.8589
3087.000000 0.8588 0.8587 0.8586 0.8585 0.8584
3082.000000 0.8583 0.8582 0.8581 0.8580 0.8578
3077.000000 0.8577 0.8575 0.8575 0.8574 0.8573
3072.000000 0.8571 0.8571 0.8570 0.8567 0.8564
3067.000000 0.8561 0.8559 0.8556 0.8553 0.8550
3062.000000 0.8548 0.8545 0.8542 0.8539 0.8537
3057.000000 0.8534 0.8531 0.8528 0.8557 0.8521
3052.000000 0.8520 0.8517 0.8514 0.8511 0.8509
3047.000000 0.8506 0.8503 0.8500 0.8497 0.8494
3042.000000 0.8491 0.8488 0.8485 0.8482 0.8478
3037.000000 0.8475 0.8471 0.8467 0.8463 0.8456
3032.000000 0.8449 0.8441 0.8434 0.8427 0.8420
3027.000000 0.8413 0.8406 0.8397 0.8389 0.8375
3022.000000 0.8363 0.8350 0.8338 0.8325 0.8312
3017.000000 0.8299 0.8286 0.8273 0.8260 0.8235
3012.000000 0.8210 0.8175 0.8143 0.8108 0.8075
3007.000000 0.8025 0.7976 0.7915 0.7854 0.7758
3002.000000 0.7664 0.7490 0.7315 0.7067 0.6818
2997.000000 0.6100 0.5381 0.4662 0.3944 0.3225
2992.000000 0.2506 0.2484 0.2447 0.2460 0.2458
2987.000000 0.2534 0.2611 0.2824 0.3037 0.3250
2982.000000 0.3464 0.3677 0.3890 0.4077 0.4289
2977.000000 0.4271 0.4277 0.4284 0.4291 0.4096
2972.000000 0.3902 0.3632 0.3364 0.3126 0.2889
2967.000000 0.2889 0.2889 0.2889 0.2889 0.2994
2962.000000 0.3099 0.3310 0.3524 0.3736 0.3948
2957.000000 0.4160 0.4373 0.4585 0.4798 0.5010
2952.000000 0.5222 0.5434 0.5647 0.5859 0.6072
2947.000000 0.6118 0.6164 0.6167 0.6169 0.6073
2942.000000 0.5976 0.5747 0.5519 0.5290 0.5062
2937.000000 0.4834 0.4573 0.4586 0.4566 0.4631
2932.000000 0.4697 0.4893 0.5090 0.5286 0.5483
2927.000000 0.5680 0.5877 0.5948 0.6019 0.6016
2922.000000 0.6022 0.4257 0.2501 0.2500 0.2493
2917.000000 0.2584 0.2671 0.2862 0.3054 0.3245
2912.000000 0.3437 0.3628 0.3818 0.4009 0.4202
2907.000000 0.4393 0.4585 0.4776 0.4967 0.5158
2902.000000 0.5350 0.5475 0.5600 0.5592 0.5614
2897.000000 0.5300 0.5016 0.4731 0.2673 0.4162
2892.000000 0.3879 0.3595 0.3310 0.3027 0.2743
2887.000000 0.2746 0.2749 0.3131 0.3514 0.3897
2882.000000 0.4280 0.4657 0.5034 0.5036 0.5045
2877.000000 0.5031 0.5025 0.4981 0.4937 0.4892
2872.000000 0.4848 0.4803 0.4759 0.4715 0.4671
2867.000000 0.4653 0.4634 0.4644 0.4653 0.4762
2862.000000 0.4872 0.5020 0.5168 0.5316 0.5464
2857.000000 0.5527 0.5591 0.5602 0.5614 0.5631
2852.000000 0.5648 0.5680 0.5712 0.5789 0.5866
2847.000000 0.6064 0.6262 0.6458 0.6657 0.6855
2842.000000 0.7053 0.7165 0.7280 0.7318 0.7357
2837.000000 0.7395 0.7433 0.7474 0.7515 0.7558
2832.000000 0.7601 0.7644 0.7687 0.7730 0.7772
2827.000000 0.7828 0.7883 0.7915 0.7949 0.7967
2822.000000 0.7986 0.7994 0.8003 0.8011 0.8018
2817.000000 0.8026 0.8036 0.8044 0.8053 0.8064
2812.000000 0.8075 0.8088 0.8101 0.8115 0.8128
2807.000000 0.8142 0.8156 0.8168 0.8183 0.8201
2802.000000 0.8218 0.8241 0.8264 0.8285 0.8307
2797.000000 0.8328 0.8350 0.8371 0.8393 0.8400
2792.000000 0.8407 0.8411 0.8415 0.8418 0.8397
2787.000000 0.8421 0.8421 0.8411 0.8400 0.8375
2782.000000 0.8350 0.8318 0.8288 0.8231 0.8175
2777.000000 0.8105 0.8032 0.8036 0.8036 0.8038
2772.000000 0.8041 0.8092 0.8143 0.8215 0.8288
2767.000000 0.8332 0.8375 0.8405 0.8434 0.8449
2762.000000 0.8465 0.8475 0.8487 0.8496 0.8505
2757.000000 0.8509 0.8513 0.8503 0.8493 0.8481
2752.000000 0.8468 0.8462 0.8455 0.8450 0.8445
2747.000000 0.8446 0.8447 0.8449 0.8451 0.8458
2742.000000 0.8466 0.8473 0.8481 0.8483 0.8486
2737.000000 0.8486 0.8495 0.8482 0.8478 0.8473
2732.000000 0.8468 0.8464 0.8460 0.8444 0.8428
2727.000000 0.8395 0.8363 0.8194 0.8025 0.7858
2722.000000 0.7690 0.7642 0.7614 0.7614 0.7615
2717.000000 0.7693 0.7771 0.7849 0.7926 0.8005
2712.000000 0.8083 0.8161 0.8239 0.8309 0.8380
2707.000000 0.8393 0.8407 0.8418 0.8431 0.8437
2702.000000 0.8444 0.8451 0.8458 0.8463 0.8468
2697.000000 0.8474 0.8478 0.8484 0.8489 0.8490
2692.000000 0.8490 0.8490 0.8489 0.8488 0.8488
2687.000000 0.8484 0.8484 0.8473 0.8466 0.8458
2682.000000 0.8451 0.8444 0.8437 0.8418 0.8402
2677.000000 0.8385 0.8368 0.8359 0.8351 0.8353
2672.000000 0.8355 0.8359 0.8363 0.8366 0.8370
2667.000000 0.8375 0.8382 0.8397 0.8412 0.8427
2662.000000 0.8442 0.8447 0.8453 0.8458 0.8464
2657.000000 0.8468 0.8475 0.8480 0.8485 0.8486
2652.000000 0.8488 0.8490 0.8492 0.8493 0.8495
2647.000000 0.8496 0.8498 0.8499 0.8501 0.8502
2642.000000 0.8504 0.8505 0.8507 0.8508 0.8510
2637.000000 0.8511 0.8513 0.8515 0.8518 0.8520
2632.000000 0.8521 0.8524 0.8527 0.8528 0.8531
2627.000000 0.8533 0.8536 0.8537 0.8538 0.8539
2622.000000 0.8540 0.8540 0.8541 0.8525 0.8510
2617.000000 0.8493 0.8475 0.8462 0.8448 0.8450
2612.000000 0.8453 0.8455 0.8458 0.8461 0.8464
2607.000000 0.8466 0.8468 0.8470 0.8471 0.8474
2602.000000 0.8475 0.8478 0.8481 0.8483 0.8485
2597.000000 0.8487 0.8489 0.8491 0.8493 0.8494
2592.000000 0.8496 0.8497 0.8499 0.8500 0.8501
2587.000000 0.8502 0.8504 0.8505 0.8507 0.8508
2582.000000 0.8510 0.8511 0.8513 0.8514 0.8515
2577.000000 0.8516 0.8518 0.8518 0.8521 0.8521
2572.000000 0.8524 0.8525 0.8527 0.8528 0.8528
2567.000000 0.8530 0.8532 0.8533 0.8535 0.8536
2562.000000 0.8538 0.8539 0.8540 0.8541 0.8542
2557.000000 0.8543 0.8544 0.8545 0.8546 0.8547
2552.000000 0.8548 0.8549 0.8550 0.8551 0.8552
2547.000000 0.8553 0.8554 0.8555 0.8556 0.8557
2542.000000 0.8558 0.8559 0.8560 0.8561 0.8562
2537.000000 0.8563 0.8564 0.8565 0.8566 0.8567
2532.000000 0.8568 0.8568 0.8570 0.8571 0.8571
2527.000000 0.8573 0.8574 0.8575 0.8575 0.8577
2522.000000 0.8578 0.8578 0.8581 0.8582 0.8583
2517.000000 0.8584 0.8585 0.8586 0.8587 0.8588
2512.000000 0.8589 0.8590 0.8591 0.8592 0.8593
2507.000000 0.8594 0.8595 0.8596 0.8597 0.8598
2502.000000 0.8599 0.8600 0.8601 0.8602 0.8603
2497.000000 0.8604 0.8605 0.8606 0.8607 0.8608
2492.000000 0.8609 0.8609 0.8610 0.8610 0.8611
2487.000000 0.8611 0.8612 0.8612 0.8613 0.8613
2482.000000 0.8614 0.8614 0.8615 0.8615 0.8616
2477.000000 0.8616 0.8617 0.8617 0.8617 0.8616
2472.000000 0.8615 0.8613 0.8612 0.8610 0.8609
2467.000000 0.8607 0.8606 0.8604 0.8603 0.8601
2462.000000 0.8600 0.8599 0.8598 0.8597 0.8596
2457.000000 0.8595 0.8594 0.8593 0.8593 0.8592
2452.000000 0.8591 0.8590 0.8589 0.8588 0.8587
2447.000000 0.8586 0.8586 0.8585 0.8584 0.8583
2442.000000 0.8582 0.8580 0.8578 0.8577 0.8575
2437.000000 0.8574 0.8573 0.8571 0.8568 0.8567
2432.000000 0.8566 0.8564 0.8574 0.8561 0.8560
2427.000000 0.8558 0.8556 0.8554 0.8552 0.8550
2422.000000 0.8548 0.8546 0.8544 0.8542 0.8540
2417.000000 0.8538 0.8536 0.8534 0.8532 0.8530
2412.000000 0.8528 0.8525 0.8524 0.8521 0.8520
2407.000000 0.8517 0.8515 0.8512 0.8509 0.8506
2402.000000 0.8503 0.8500 0.8497 0.8493 0.8490
2397.000000 0.8486 0.8482 0.8478 0.8475 0.8471
2392.000000 0.8467 0.8461 0.8456 0.8450 0.8444
2387.000000 0.8438 0.8353 0.8424 0.8416 0.8415
2382.000000 0.8414 0.8421 0.8428 0.8435 0.8442
2377.000000 0.8449 0.8457 0.8464 0.8471 0.8478
2372.000000 0.8487 0.8494 0.8502 0.8509 0.8516
2367.000000 0.8521 0.8528 0.8535 0.8541 0.8547
2362.000000 0.8554 0.8558 0.8563 0.8563 0.8564
2357.000000 0.8564 0.8565 0.8566 0.8567 0.8567
2352.000000 0.8568 0.8568 0.8568 0.8568 0.8570
2347.000000 0.8570 0.8571 0.8571 0.8571 0.8568
2342.000000 0.8566 0.8558 0.8551 0.8544 0.8537
2337.000000 0.8530 0.8523 0.8518 0.8515 0.8511
2332.000000 0.8512 0.8512 0.8517 0.8524 0.8531
2327.000000 0.8538 0.8539 0.8540 0.8536 0.8531
2322.000000 0.8527 0.8521 0.8518 0.8513 0.8508
2317.000000 0.8502 0.8497 0.8492 0.8487 0.8481
2312.000000 0.8475 0.8470 0.8465 0.8460 0.8456
2307.000000 0.8451 0.8447 0.8442 0.8438 0.8433
2302.000000 0.8428 0.8424 0.8418 0.8414 0.8410
2297.000000 0.8405 0.8401 0.8396 0.8392 0.8387
2292.000000 0.8383 0.8378 0.8374 0.8368 0.8365
2287.000000 0.8360 0.8356 0.8357 0.8358 0.8363
2282.000000 0.8368 0.8368 0.8367 0.8382 0.8387
2277.000000 0.8387 0.8387 0.8387 0.8386 0.8385
2272.000000 0.8385 0.8384 0.8383 0.8382 0.8381
2267.000000 0.8380 0.8378 0.8378 0.8377 0.8385
2262.000000 0.8393 0.8401 0.8410 0.8418 0.8425
2257.000000 0.8434 0.8442 0.8449 0.8456 0.8463
2252.000000 0.8470 0.8477 0.8484 0.8491 0.8498
2247.000000 0.8505 0.8512 0.8518 0.8525 0.8533
2242.000000 0.8540 0.8547 0.8554 0.8558 0.8563
2237.000000 0.8566 0.8570 0.8573 0.8577 0.8580
2232.000000 0.8584 0.8587 0.8591 0.8594 0.8598
2227.000000 0.8601 0.8605 0.8607 0.8610 0.8612
2222.000000 0.8614 0.8616 0.8618 0.8620 0.8621
2217.000000 0.8624 0.8625 0.8628 0.8630 0.8632
2212.000000 0.8634 0.8636 0.8638 0.8640 0.8642
2207.000000 0.8644 0.8671 0.8648 0.8650 0.8652
2202.000000 0.8654 0.8655 0.8657 0.8658 0.8660
2197.000000 0.8661 0.8662 0.8663 0.8664 0.8665
2192.000000 0.8667 0.8668 0.8668 0.8668 0.8668
2187.000000 0.8666 0.8664 0.8662 0.8660 0.8658
2182.000000 0.8656 0.8654 0.8653 0.8650 0.8647
2177.000000 0.8643 0.8640 0.8627 0.8614 0.8602
2172.000000 0.8591 0.8581 0.8571 0.8561 0.8551
2167.000000 0.8540 0.8530 0.8518 0.8497 0.8509
2162.000000 0.8509 0.8511 0.8514 0.8518 0.8521
2157.000000 0.8525 0.8531 0.8536 0.8541 0.8545
2152.000000 0.8550 0.8555 0.8560 0.8564 0.8568
2147.000000 0.8571 0.8574 0.8577 0.8581 0.8584
2142.000000 0.8587 0.8590 0.8594 0.8597 0.8601
2137.000000 0.8604 0.8607 0.8610 0.8614 0.8616
2132.000000 0.8618 0.8620 0.8623 0.8625 0.8627
2127.000000 0.8628 0.8631 0.8633 0.8636 0.8638
2122.000000 0.8640 0.8642 0.8644 0.8646 0.8649
2117.000000 0.8651 0.8653 0.8655 0.8657 0.8659
2112.000000 0.8661 0.8662 0.8664 0.8665 0.8667
2107.000000 0.8668 0.8671 0.8671 0.8674 0.8675
2102.000000 0.8677 0.8678 0.8680 0.8681 0.8683
2097.000000 0.8684 0.8685 0.8686 0.8687 0.8687
2092.000000 0.8688 0.8689 0.8690 0.8691 0.8692
2087.000000 0.8693 0.8694 0.8695 0.8696 0.8697
2082.000000 0.8698 0.8699 0.8724 0.8701 0.8702
2077.000000 0.8702 0.8703 0.8704 0.8705 0.8705
2072.000000 0.8706 0.8706 0.8707 0.8707 0.8708
2067.000000 0.8708 0.8708 0.8708 0.8709 0.8709
2062.000000 0.8710 0.8710 0.8711 0.8711 0.8711
2057.000000 0.8711 0.8712 0.8712 0.8712 0.8712
2052.000000 0.8712 0.8712 0.8712 0.8712 0.8713
2047.000000 0.8713 0.8713 0.8713 0.8713 0.8713
2042.000000 0.8713 0.8713 0.8713 0.8713 0.8713
2037.000000 0.8713 0.8713 0.8712 0.8712 0.8712
2032.000000 0.8712 0.8711 0.8711 0.8711 0.8711
2027.000000 0.8711 0.8711 0.8710 0.8710 0.8710
2022.000000 0.8710 0.8709 0.8709 0.8709 0.8709
2017.000000 0.8708 0.8708 0.8708 0.8709 0.8709
2012.000000 0.8709 0.8709 0.8709 0.8709 0.8710
2007.000000 0.8710 0.8710 0.8710 0.8710 0.8710
2002.000000 0.8710 0.8710 0.8709 0.8708 0.8706
1997.000000 0.8705 0.8703 0.8697 0.8687 0.8677
1992.000000 0.8667 0.8642 0.8616 0.8596 0.8586
1987.000000 0.8575 0.8566 0.8555 0.8551 0.8549
1982.000000 0.8547 0.8545 0.8543 0.8542 0.8540
1977.000000 0.8539 0.8537 0.8536 0.8536 0.8536
1972.000000 0.8536 0.8536 0.8536 0.8535 0.8534
1967.000000 0.8534 0.8533 0.8534 0.8539 0.8567
1962.000000 0.8625 0.8682 0.8740 0.8797 0.8807
1957.000000 0.8802 0.8788 0.8728 0.8668 0.8607
1952.000000 0.8547 0.8511 0.8513 0.8514 0.8515
1947.000000 0.8516 0.8517 0.8518 0.8518 0.8520
1942.000000 0.8521 0.8521 0.8523 0.8524 0.8525
1937.000000 0.8525 0.8527 0.8528 0.8530 0.8530
1932.000000 0.8530 0.8530 0.8530 0.8530 0.8530
1927.000000 0.8528 0.8528 0.8528 0.8528 0.8528
1922.000000 0.8528 0.8528 0.8528 0.8528 0.8528
1917.000000 0.8528 0.8527 0.8525 0.8525 0.8525
1912.000000 0.8524 0.8523 0.8521 0.8521 0.8521
1907.000000 0.8520 0.8518 0.8518 0.8520 0.8520
1902.000000 0.8520 0.8521 0.8521 0.8521 0.8521
1897.000000 0.8523 0.8525 0.8525 0.8525 0.8525
1892.000000 0.8521 0.8518 0.8513 0.8509 0.8505
1887.000000 0.8501 0.8497 0.8498 0.8490 0.8486
1882.000000 0.8483 0.8482 0.8481 0.8483 0.8486
1877.000000 0.8488 0.8491 0.8493 0.8496 0.8499
1872.000000 0.8502 0.8504 0.8507 0.8509 0.8490
1867.000000 0.8471 0.8446 0.8417 0.8390 0.8373
1862.000000 0.8356 0.8343 0.8331 0.8309 0.8308
1857.000000 0.8308 0.8308 0.8312 0.8325 0.8343
1852.000000 0.8365 0.8387 0.8405 0.8421 0.8439
1847.000000 0.8455 0.8473 0.8481 0.8485 0.8488
1842.000000 0.8489 0.8489 0.8489 0.8490 0.8490
1837.000000 0.8491 0.8492 0.8493 0.8494 0.8495
1832.000000 0.8497 0.8498 0.8499 0.8500 0.8501
1827.000000 0.8503 0.8504 0.8518 0.8508 0.8510
1822.000000 0.8512 0.8514 0.8516 0.8517 0.8518
1817.000000 0.8521 0.8523 0.8524 0.8524 0.8524
1812.000000 0.8524 0.8524 0.8523 0.8523 0.8523
1807.000000 0.8523 0.8523 0.8523 0.8523 0.8524
1802.000000 0.8524 0.8525 0.8525 0.8527 0.8528
1797.000000 0.8528 0.8531 0.8532 0.8533 0.8534
1792.000000 0.8535 0.8536 0.8538 0.8539 0.8540
1787.000000 0.8541 0.8542 0.8544 0.8545 0.8546
