##TITLE=UREA
##JCAMP-DX=4.24
##DATA TYPE=INFRARED SPECTRUM
##CLASS=COBLENTZ III
##ORIGIN=DOW CHEMICAL COMPANY
##OWNER=COBLENTZ SOCIETY
Collection (C) 2018 copyright by the U.S. Secretary of Commerce
on behalf of the United States of America. All rights reserved.
##DATE=1963/11/27
##CAS REGISTRY NO=57-13-6
##MOLFORM=C H4 N2 O
##SOURCE REFERENCE=COBLENTZ NO. 10212
##$NIST SOURCE=COBLENTZ
##$NIST IMAGE=cob10212
##SPECTROMETER/DATA SYSTEM=DOW KBr FOREPRISM-GRATING
##INSTRUMENT PARAMETERS=BLAZED AT 3.5, 12.0, 20.0 MICRON, CHANGED AT 5.0, 7.5, 14.9 MICRON
##STATE=SOLID (SPLIT MULL, FLUOROLUBE FOR 3800-1333 AND NUJOL FOR 1333-450 CM ^-^1)
##SAMPLING PROCEDURE=TRANSMISSION
##RESOLUTION=4
##DATA PROCESSING=DIGITIZED BY NIST FROM HARD COPY (FROM TWO SEGMENTS)
##XUNITS=1/CM
##YUNITS=TRANSMITTANCE
##XFACTOR=1.000000
##YFACTOR=1
##DELTAX=0.852760
##FIRSTX=449.687
##LASTX=3801.88
##FIRSTY=0.122
##MAXX=3801.88
##MINX=449.687
##MAXY=1
##MINY=0.011
##NPOINTS=3932
##XYDATA=(X++(Y..Y))
449.687000 0.1220 0.1210 0.1190 0.1170 0.1170
453.950798 0.1140 0.1130 0.1100 0.1070 0.1060
458.214595 0.1050 0.1020 0.0990 0.0990 0.0980
462.478393 0.0970 0.0950 0.0950 0.0930 0.0900
466.742190 0.0890 0.0870 0.0860 0.0860 0.0830
471.005988 0.0810 0.0790 0.0780 0.0770 0.0770
475.269786 0.0770 0.0750 0.0740 0.0730 0.0710
479.533583 0.0710 0.0700 0.0690 0.0670 0.0660
483.797381 0.0650 0.0630 0.0620 0.0620 0.0610
488.061179 0.0610 0.0610 0.0590 0.0580 0.0580
492.324976 0.0580 0.0580 0.0580 0.0570 0.0550
496.588774 0.0550 0.0540 0.0540 0.0540 0.0530
500.852571 0.0530 0.0510 0.0510 0.0510 0.0510
505.116369 0.0500 0.0500 0.0500 0.0500 0.0490
509.380167 0.0490 0.0490 0.0470 0.0470 0.0470
513.643964 0.0470 0.0470 0.0460 0.0460 0.0460
517.907762 0.0460 0.0460 0.0460 0.0450 0.0430
522.171559 0.0430 0.0430 0.0420 0.0410 0.0410
526.435357 0.0410 0.0410 0.0410 0.0390 0.0390
530.699155 0.0390 0.0380 0.0380 0.0380 0.0380
534.962952 0.0380 0.0380 0.0370 0.0370 0.0340
539.226750 0.0330 0.0310 0.0300 0.0300 0.0290
543.490548 0.0290 0.0270 0.0270 0.0260 0.0250
547.754345 0.0230 0.0230 0.0210 0.0190 0.0180
552.018143 0.0170 0.0150 0.0140 0.0140 0.0130
556.281940 0.0130 0.0130 0.0110 0.0110 0.0110
560.545738 0.0110 0.0130 0.0130 0.0140 0.0170
564.809536 0.0190 0.0230 0.0300 0.0310 0.0340
569.073333 0.0370 0.0370 0.0330 0.0290 0.0270
573.337131 0.0260 0.0270 0.0290 0.0310 0.0380
577.600928 0.0410 0.0460 0.0470 0.0540 0.0610
581.864726 0.0650 0.0700 0.0770 0.0790 0.0860
586.128524 0.0910 0.1020 0.1030 0.1100 0.1150
590.392321 0.1230 0.1310 0.1340 0.1390 0.1460
594.656119 0.1500 0.1580 0.1600 0.1680 0.1680
598.919917 0.1790 0.1870 0.1940 0.1980 0.2020
603.183714 0.2040 0.2100 0.2140 0.2200 0.2260
607.447512 0.2300 0.2320 0.2380 0.2470 0.2520
611.711309 0.2570 0.2590 0.2630 0.2680 0.2720
615.975107 0.2800 0.2850 0.2910 0.2930 0.3000
620.238905 0.3050 0.3120 0.3190 0.3210 0.3240
624.502702 0.3310 0.3370 0.3410 0.3440 0.3480
628.766500 0.3510 0.3560 0.3630 0.3690 0.3750
633.030297 0.3770 0.3810 0.3860 0.3880 0.3960
637.294095 0.3970 0.4020 0.4060 0.4120 0.4170
641.557893 0.4200 0.4240 0.4260 0.4290 0.4330
645.821690 0.4330 0.4340 0.4370 0.4380 0.4420
650.085488 0.4450 0.4460 0.4460 0.4490 0.4540
654.349285 0.4560 0.4560 0.4570 0.4600 0.4610
658.613083 0.4650 0.4660 0.4690 0.4720 0.4720
662.876881 0.4760 0.4760 0.4800 0.4820 0.4850
667.140678 0.4850 0.4860 0.4880 0.4890 0.4920
671.404476 0.4960 0.4970 0.4980 0.4980 0.5000
675.668274 0.5000 0.5010 0.5010 0.5030 0.5030
679.932071 0.5030 0.5060 0.5070 0.5070 0.5090
684.195869 0.5090 0.5090 0.5090 0.5100 0.5100
688.459666 0.5100 0.5100 0.5090 0.5060 0.5030
692.723464 0.5010 0.5000 0.5000 0.4970 0.4960
696.987262 0.4930 0.4930 0.4890 0.4880 0.4820
701.251059 0.4780 0.4760 0.4690 0.4660 0.4650
705.514857 0.4570 0.4540 0.4540 0.4500 0.4450
709.778654 0.4380 0.4340 0.4300 0.4240 0.4170
714.042452 0.4140 0.4060 0.4010 0.4000 0.3970
718.306250 0.3880 0.3840 0.3820 0.3840 0.3850
722.570047 0.4000 0.4050 0.4100 0.4160 0.4220
726.833845 0.4250 0.4300 0.4380 0.4450 0.4520
731.097643 0.4570 0.4640 0.4680 0.4720 0.4770
735.361440 0.4860 0.4890 0.5000 0.5010 0.5100
739.625238 0.5130 0.5190 0.5260 0.5290 0.5350
743.889035 0.5390 0.5460 0.5490 0.5530 0.5580
748.152833 0.5610 0.5630 0.5690 0.5740 0.5740
752.416631 0.5770 0.5810 0.5860 0.5860 0.5890
756.680428 0.5930 0.5950 0.5990 0.5990 0.6010
760.944226 0.6020 0.6020 0.6030 0.6050 0.6060
765.208023 0.6070 0.6070 0.6090 0.6090 0.6100
769.471821 0.6110 0.6130 0.6130 0.6130 0.6130
773.735619 0.6130 0.6130 0.6100 0.6100 0.6030
777.999416 0.6010 0.5970 0.5860 0.5740 0.5611
782.263214 0.5490 0.5370 0.5230 0.5010 0.4651
786.527012 0.4201 0.4200 0.4648 0.4819 0.5019
790.790809 0.5740 0.5850 0.5970 0.6300 0.6420
795.054607 0.6430 0.6440 0.6480 0.6510 0.6550
799.318404 0.6580 0.6590 0.6590 0.6590 0.6590
803.582202 0.6600 0.6600 0.6620 0.6630 0.6630
807.846000 0.6630 0.6630 0.6630 0.6630 0.6630
812.109797 0.6630 0.6630 0.6620 0.6620 0.6620
816.373595 0.6620 0.6600 0.6600 0.6590 0.6580
820.637392 0.6580 0.6560 0.6560 0.6550 0.6540
824.901190 0.6540 0.6520 0.6500 0.6500 0.6500
829.164988 0.6480 0.6460 0.6440 0.6430 0.6430
833.428785 0.6430 0.6420 0.6420 0.6400 0.6390
837.692583 0.6380 0.6350 0.6310 0.6300 0.6280
841.956381 0.6280 0.6260 0.6260 0.6250 0.6250
846.220178 0.6230 0.6230 0.6220 0.6210 0.6180
850.483976 0.6170 0.6150 0.6140 0.6140 0.6140
854.747773 0.6130 0.6110 0.6100 0.6090 0.6070
859.011571 0.6060 0.6030 0.6020 0.6010 0.5990
863.275369 0.5990 0.5980 0.5980 0.5970 0.5950
867.539166 0.5940 0.5940 0.5900 0.5870 0.5870
871.802964 0.5860 0.5860 0.5860 0.5830 0.5820
876.066761 0.5810 0.5810 0.5790 0.5750 0.5730
880.330559 0.5730 0.5690 0.5670 0.5660 0.5630
884.594357 0.5610 0.5590 0.5590 0.5540 0.5530
888.858154 0.5510 0.5500 0.5470 0.5460 0.5460
893.121952 0.5450 0.5430 0.5420 0.5410 0.5410
897.385750 0.5390 0.5380 0.5370 0.5340 0.5300
901.649547 0.5290 0.5270 0.5260 0.5250 0.5230
905.913345 0.5230 0.5220 0.5210 0.5180 0.5130
910.177142 0.5110 0.5100 0.5100 0.5030 0.5020
914.440940 0.5010 0.5000 0.4980 0.4970 0.4960
918.704738 0.4940 0.4920 0.4890 0.4880 0.4860
922.968535 0.4840 0.4810 0.4780 0.4770 0.4760
927.232333 0.4740 0.4740 0.4700 0.4680 0.4660
931.496130 0.4640 0.4600 0.4580 0.4570 0.4560
935.759928 0.4540 0.4530 0.4500 0.4490 0.4460
940.023726 0.4440 0.4420 0.4400 0.4380 0.4360
944.287523 0.4340 0.4340 0.4330 0.4290 0.4290
948.551321 0.4280 0.4250 0.4220 0.4200 0.4160
952.815118 0.4140 0.4130 0.4130 0.4100 0.4080
957.078916 0.4050 0.4050 0.4020 0.4010 0.3980
961.342714 0.3970 0.3960 0.3930 0.3930 0.3900
965.606511 0.3880 0.3860 0.3860 0.3820 0.3810
969.870309 0.3780 0.3770 0.3730 0.3720 0.3720
974.134107 0.3710 0.3690 0.3680 0.3680 0.3640
978.397904 0.3630 0.3610 0.3600 0.3560 0.3560
982.661702 0.3530 0.3530 0.3520 0.3470 0.3450
986.925499 0.3440 0.3440 0.3410 0.3390 0.3360
991.189297 0.3310 0.3290 0.3280 0.3240 0.3210
995.453095 0.3150 0.3150 0.3110 0.3040 0.2990
999.716892 0.2960 0.2920 0.2910 0.2910 0.2920
1003.980690 0.3050 0.3230 0.3240 0.3330 0.3350
1008.244487 0.3360 0.3360 0.3350 0.3330 0.3310
1012.508285 0.3310 0.3290 0.3280 0.3280 0.3240
1016.772083 0.3230 0.3210 0.3200 0.3170 0.3160
1021.035880 0.3150 0.3150 0.3130 0.3120 0.3090
1025.299678 0.3090 0.3070 0.3050 0.3030 0.3010
1029.563476 0.3000 0.2990 0.2990 0.2970 0.2950
1033.827273 0.2950 0.2930 0.2920 0.2920 0.2890
1038.091071 0.2880 0.2880 0.2870 0.2850 0.2840
1042.354868 0.2830 0.2810 0.2800 0.2790 0.2790
1046.618666 0.2790 0.2770 0.2760 0.2760 0.2750
1050.882464 0.2730 0.2730 0.2720 0.2720 0.2710
1055.146261 0.2710 0.2690 0.2690 0.2690 0.2690
1059.410059 0.2690 0.2690 0.2710 0.2710 0.2710
1063.673856 0.2710 0.2720 0.2720 0.2730 0.2730
1067.937654 0.2750 0.2750 0.2750 0.2760 0.2760
1072.201452 0.2770 0.2770 0.2790 0.2800 0.2800
1076.465249 0.2800 0.2800 0.2810 0.2810 0.2810
1080.729047 0.2830 0.2830 0.2830 0.2840 0.2840
1084.992845 0.2840 0.2840 0.2840 0.2840 0.2840
1089.256642 0.2840 0.2840 0.2840 0.2830 0.2830
1093.520440 0.2830 0.2830 0.2810 0.2800 0.2800
1097.784237 0.2790 0.2790 0.2770 0.2750 0.2750
1102.048035 0.2750 0.2730 0.2720 0.2720 0.2690
1106.311833 0.2690 0.2680 0.2680 0.2670 0.2650
1110.575630 0.2610 0.2600 0.2600 0.2560 0.2550
1114.839428 0.2520 0.2520 0.2500 0.2460 0.2430
1119.103225 0.2420 0.2340 0.2310 0.2300 0.2270
1123.367023 0.2240 0.2200 0.2160 0.2120 0.2070
1127.630821 0.2060 0.2040 0.1960 0.1900 0.1860
1131.894618 0.1780 0.1750 0.1640 0.1630 0.1580
1136.158416 0.1510 0.1480 0.1430 0.1350 0.1280
1140.422214 0.1250 0.1180 0.1170 0.1110 0.1090
1144.686011 0.1030 0.1010 0.0990 0.0980 0.0970
1148.949809 0.0940 0.0930 0.0910 0.0910 0.0930
1153.213606 0.0940 0.0990 0.1010 0.1060 0.1090
1157.477404 0.1140 0.1180 0.1230 0.1280 0.1390
1161.741202 0.1470 0.1550 0.1600 0.1670 0.1740
1166.004999 0.1830 0.1900 0.1950 0.2000 0.2100
1170.268797 0.2220 0.2310 0.2390 0.2420 0.2500
1174.532594 0.2550 0.2610 0.2670 0.2730 0.2800
1178.796392 0.2840 0.2890 0.3000 0.3120 0.3160
1183.060190 0.3210 0.3290 0.3360 0.3440 0.3530
1187.323987 0.3550 0.3600 0.3630 0.3690 0.3720
1191.587785 0.3780 0.3780 0.3820 0.3860 0.3880
1195.851583 0.3960 0.3960 0.4000 0.4040 0.4060
1200.115380 0.4120 0.4130 0.4160 0.4170 0.4170
1204.379178 0.4200 0.4240 0.4260 0.4260 0.4300
1208.642975 0.4300 0.4330 0.4340 0.4370 0.4370
1212.906773 0.4400 0.4410 0.4440 0.4450 0.4450
1217.170571 0.4460 0.4460 0.4480 0.4490 0.4520
1221.434368 0.4540 0.4540 0.4560 0.4570 0.4570
1225.698166 0.4600 0.4600 0.4610 0.4610 0.4620
1229.961963 0.4640 0.4650 0.4660 0.4660 0.4660
1234.225761 0.4660 0.4660 0.4660 0.4660 0.4660
1238.489559 0.4660 0.4660 0.4660 0.4680 0.4680
1242.753356 0.4680 0.4680 0.4680 0.4680 0.4680
1247.017154 0.4680 0.4680 0.4690 0.4700 0.4700
1251.280952 0.4720 0.4720 0.4730 0.4730 0.4740
1255.544749 0.4740 0.4740 0.4760 0.4770 0.4770
1259.808547 0.4760 0.4760 0.4760 0.4760 0.4760
1264.072344 0.4760 0.4760 0.4760 0.4760 0.4760
1268.336142 0.4760 0.4770 0.4770 0.4760 0.4760
1272.599940 0.4760 0.4760 0.4760 0.4760 0.4760
1276.863737 0.4760 0.4760 0.4760 0.4760 0.4760
1281.127535 0.4740 0.4730 0.4730 0.4720 0.4720
1285.391332 0.4720 0.4700 0.4690 0.4680 0.4680
1289.655130 0.4680 0.4660 0.4660 0.4660 0.4660
1293.918928 0.4650 0.4620 0.4600 0.4570 0.4570
1298.182725 0.4560 0.4560 0.4540 0.4540 0.4530
1302.446523 0.4520 0.4520 0.4520 0.4500 0.4500
1306.710320 0.4490 0.4480 0.4480 0.4480 0.4480
1310.974118 0.4460 0.4460 0.4460 0.4460 0.4460
1315.237916 0.4460 0.4460 0.4460 0.4460 0.4460
1319.501713 0.4460 0.4460 0.4450 0.4450 0.4450
1323.765511 0.4440 0.4440 0.4420 0.4410 0.4410
1328.029309 0.4400 0.4400 0.4380 0.4380 0.4380
1332.293106 0.4370 0.4370 0.4360 0.4360 0.4360
1336.556904 0.4360 0.4360 0.4360 0.4360 0.4360
1340.820701 0.4360 0.4370 0.4370 0.4380 0.4400
1345.084499 0.4400 0.4400 0.4410 0.4410 0.4410
1349.348297 0.4420 0.4420 0.4450 0.4450 0.4460
1353.612094 0.4460 0.4480 0.4490 0.4490 0.4500
1357.875892 0.4520 0.4520 0.4530 0.4540 0.4540
1362.139689 0.4540 0.4560 0.4570 0.4570 0.4570
1366.403487 0.4570 0.4570 0.4560 0.4560 0.4540
1370.667285 0.4540 0.4530 0.4520 0.4500 0.4480
1374.931082 0.4480 0.4460 0.4460 0.4450 0.4450
1379.194880 0.4450 0.4420 0.4400 0.4380 0.4370
1383.458678 0.4360 0.4340 0.4330 0.4330 0.4330
1387.722475 0.4320 0.4300 0.4280 0.4260 0.4250
1391.986273 0.4220 0.4200 0.4170 0.4170 0.4160
1396.250070 0.4140 0.4140 0.4120 0.4090 0.4050
1400.513868 0.4020 0.4020 0.4000 0.3980 0.3970
1404.777666 0.3960 0.3960 0.3920 0.3900 0.3890
1409.041463 0.3890 0.3880 0.3860 0.3860 0.3840
1413.305261 0.3810 0.3800 0.3780 0.3770 0.3770
1417.569058 0.3750 0.3730 0.3730 0.3710 0.3690
1421.832856 0.3690 0.3650 0.3640 0.3630 0.3610
1426.096654 0.3610 0.3600 0.3560 0.3530 0.3520
1430.360451 0.3450 0.3440 0.3370 0.3330 0.3310
1434.624249 0.3290 0.3230 0.3170 0.3150 0.3080
1438.888047 0.3070 0.3040 0.3010 0.3000 0.2960
1443.151844 0.2950 0.2920 0.2880 0.2830 0.2800
1447.415642 0.2760 0.2730 0.2630 0.2570 0.2530
1451.679439 0.2510 0.2470 0.2430 0.2380 0.2340
1455.943237 0.2280 0.2260 0.2220 0.2180 0.2150
1460.207035 0.2150 0.2140 0.2140 0.2140 0.2150
1464.470832 0.2160 0.2200 0.2230 0.2270 0.2300
1468.734630 0.2380 0.2420 0.2460 0.2470 0.2610
1472.998427 0.2721 0.2950 0.3090 0.3230 0.3390
1477.262225 0.3630 0.3780 0.4020 0.4160 0.4320
1481.526023 0.4520 0.4580 0.4680 0.4780 0.4890
1485.789820 0.5000 0.5020 0.5060 0.5100 0.5100
1490.053618 0.5110 0.5110 0.5110 0.5110 0.5110
1494.317416 0.5130 0.5130 0.5110 0.5100 0.5090
1498.581213 0.5070 0.5020 0.5000 0.5000 0.4940
1502.845011 0.4900 0.4890 0.4880 0.4820 0.4780
1507.108808 0.4770 0.4720 0.4720 0.4660 0.4600
1511.372606 0.4580 0.4540 0.4520 0.4490 0.4460
1515.636404 0.4450 0.4380 0.4340 0.4300 0.4280
1519.900201 0.4250 0.4170 0.4160 0.4140 0.4090
1524.163999 0.4060 0.4050 0.4020 0.3980 0.3970
1528.427796 0.3920 0.3900 0.3860 0.3820 0.3800
1532.691594 0.3780 0.3770 0.3710 0.3640 0.3630
1536.955392 0.3610 0.3600 0.3530 0.3510 0.3470
1541.219189 0.3440 0.3400 0.3390 0.3360 0.3360
1545.482987 0.3310 0.3240 0.3230 0.3210 0.3200
1549.746785 0.3170 0.3160 0.3130 0.3080 0.3070
1554.010582 0.3050 0.3010 0.3000 0.2970 0.2950
1558.274380 0.2930 0.2880 0.2840 0.2770 0.2750
1562.538177 0.2730 0.2720 0.2690 0.2670 0.2630
1566.801975 0.2600 0.2570 0.2550 0.2520 0.2460
1571.065773 0.2400 0.2380 0.2360 0.2340 0.2310
1575.329570 0.2280 0.2260 0.2260 0.2240 0.2220
1579.593368 0.2200 0.2180 0.2140 0.2110 0.2080
1583.857165 0.2060 0.2040 0.2030 0.2020 0.2000
1588.120963 0.1990 0.1990 0.1980 0.1980 0.1980
1592.384761 0.1980 0.1980 0.1980 0.1980 0.1990
1596.648558 0.1990 0.1990 0.2000 0.2020 0.2030
1600.912356 0.2030 0.2040 0.2040 0.2060 0.2070
1605.176153 0.2080 0.2100 0.2110 0.2120 0.2140
1609.439951 0.2160 0.2160 0.2200 0.2200 0.2230
1613.703749 0.2230 0.2240 0.2240 0.2230 0.2230
1617.967546 0.2230 0.2220 0.2220 0.2200 0.2190
1622.231344 0.2180 0.2180 0.2160 0.2160 0.2150
1626.495142 0.2150 0.2150 0.2150 0.2160 0.2180
1630.758939 0.2200 0.2240 0.2260 0.2270 0.2320
1635.022737 0.2340 0.2350 0.2360 0.2380 0.2390
1639.286534 0.2420 0.2480 0.2510 0.2530 0.2590
1643.550332 0.2630 0.2710 0.2800 0.2880 0.2950
1647.814130 0.3000 0.3040 0.3080 0.3170 0.3360
1652.077927 0.3520 0.3520 0.3530 0.3530 0.3550
1656.341725 0.3550 0.3550 0.3560 0.3560 0.3570
1660.605522 0.3570 0.3550 0.3530 0.3450 0.3400
1664.869320 0.3370 0.3330 0.3290 0.3240 0.3210
1669.133118 0.3160 0.3050 0.2960 0.2910 0.2840
1673.396915 0.2810 0.2770 0.2640 0.2630 0.2610
1677.660713 0.2590 0.2560 0.2550 0.2530 0.2530
1681.924511 0.2520 0.2520 0.2510 0.2510 0.2510
1686.188308 0.2510 0.2520 0.2520 0.2530 0.2550
1690.452106 0.2560 0.2610 0.2650 0.2670 0.2690
1694.715903 0.2760 0.2800 0.2810 0.2850 0.2870
1698.979701 0.2920 0.2990 0.3010 0.3050 0.3110
1703.243499 0.3120 0.3160 0.3210 0.3230 0.3290
1707.507296 0.3320 0.3370 0.3410 0.3470 0.3530
1711.771094 0.3590 0.3670 0.3780 0.3810 0.3900
1716.034891 0.4050 0.4090 0.4170 0.4180 0.4240
1720.298689 0.4260 0.4360 0.4440 0.4480 0.4560
1724.562487 0.4610 0.4650 0.4690 0.4770 0.4880
1728.826284 0.4920 0.5010 0.5060 0.5190 0.5260
1733.090082 0.5350 0.5370 0.5390 0.5430 0.5490
1737.353880 0.5610 0.5630 0.5660 0.5740 0.5770
1741.617677 0.5870 0.5890 0.5930 0.6010 0.6020
1745.881475 0.6090 0.6170 0.6250 0.6280 0.6310
1750.145272 0.6350 0.6400 0.6460 0.6460 0.6500
1754.409070 0.6590 0.6600 0.6660 0.6740 0.6750
1758.672868 0.6790 0.6870 0.6920 0.7030 0.7040
1762.936665 0.7060 0.7070 0.7150 0.7190 0.7230
1767.200463 0.7280 0.7320 0.7390 0.7440 0.7480
1771.464260 0.7510 0.7520 0.7530 0.7570 0.7600
1775.728058 0.7640 0.7650 0.7720 0.7730 0.7760
1779.991856 0.7800 0.7840 0.7880 0.7920 0.7930
1784.255653 0.7950 0.7990 0.8030 0.8050 0.8130
1788.519451 0.8150 0.8200 0.8240 0.8290 0.8290
1792.783249 0.8320 0.8320 0.8350 0.8390 0.8440
1797.047046 0.8470 0.8480 0.8490 0.8510 0.8560
1801.310844 0.8590 0.8610 0.8630 0.8640 0.8650
1805.574641 0.8690 0.8710 0.8750 0.8760 0.8770
1809.838439 0.8800 0.8810 0.8840 0.8850 0.8890
1814.102237 0.8900 0.8900 0.8920 0.8930 0.8970
1818.366034 0.8980 0.9000 0.9020 0.9060 0.9100
1822.629832 0.9100 0.9120 0.9130 0.9130 0.9160
1826.893629 0.9180 0.9210 0.9220 0.9220 0.9220
1831.157427 0.9240 0.9250 0.9260 0.9280 0.9300
1835.421225 0.9320 0.9330 0.9330 0.9330 0.9340
1839.685022 0.9360 0.9380 0.9440 0.9440 0.9450
1843.948820 0.9460 0.9460 0.9460 0.9480 0.9490
1848.212618 0.9490 0.9490 0.9500 0.9520 0.9530
1852.476415 0.9530 0.9530 0.9540 0.9540 0.9540
1856.740213 0.9560 0.9570 0.9570 0.9580 0.9580
1861.004010 0.9600 0.9610 0.9620 0.9620 0.9620
1865.267808 0.9640 0.9660 0.9680 0.9690 0.9690
1869.531606 0.9690 0.9700 0.9700 0.9700 0.9700
1873.795403 0.9730 0.9730 0.9730 0.9730 0.9760
1878.059201 0.9760 0.9760 0.9760 0.9770 0.9780
1882.322998 0.9780 0.9780 0.9800 0.9810 0.9820
1886.586796 0.9820 0.9840 0.9850 0.9860 0.9860
1890.850594 0.9860 0.9860 0.9880 0.9890 0.9890
1895.114391 0.9890 0.9900 0.9900 0.9900 0.9900
1899.378189 0.9920 0.9920 0.9920 0.9930 0.9930
1903.641986 0.9930 0.9930 0.9940 0.9940 0.9940
1907.905784 0.9960 0.9960 0.9960 0.9960 0.9970
1912.169582 0.9970 0.9970 0.9970 0.9970 0.9970
1916.433379 0.9970 0.9980 0.9980 0.9980 0.9980
1920.697177 0.9980 0.9980 0.9980 1.0000 1.0000
1924.960975 1.0000 1.0000 1.0000 1.0000 1.0000
1929.224772 1.0000 1.0000 1.0000 1.0000 1.0000
1933.488570 1.0000 1.0000 1.0000 1.0000 1.0000
1937.752367 0.9980 0.9980 0.9980 0.9980 0.9980
1942.016165 0.9980 0.9980 0.9980 0.9980 0.9980
1946.279963 0.9980 0.9980 0.9980 0.9980 0.9980
1950.543760 0.9980 0.9970 0.9970 0.9970 0.9970
1954.807558 0.9970 0.9970 0.9970 0.9970 0.9970
1959.071355 0.9970 0.9970 0.9970 0.9970 0.9960
1963.335153 0.9960 0.9960 0.9960 0.9960 0.9960
1967.598951 0.9940 0.9940 0.9940 0.9940 0.9930
1971.862748 0.9930 0.9930 0.9930 0.9930 0.9930
1976.126546 0.9930 0.9920 0.9920 0.9900 0.9900
1980.390344 0.9900 0.9890 0.9880 0.9880 0.9880
1984.654141 0.9860 0.9860 0.9860 0.9860 0.9860
1988.917939 0.9850 0.9850 0.9840 0.9840 0.9810
1993.181736 0.9810 0.9800 0.9780 0.9770 0.9760
1997.445534 0.9760 0.9760 0.9740 0.9740 0.9735
2001.709332 0.9730 0.9730 0.9730 0.9725 0.9720
2005.973129 0.9720 0.9720 0.9720 0.9720 0.9720
2010.236927 0.9720 0.9710 0.9700 0.9700 0.9700
2014.500724 0.9700 0.9700 0.9700 0.9700 0.9695
2018.764522 0.9690 0.9690 0.9690 0.9690 0.9690
2023.028320 0.9690 0.9690 0.9695 0.9700 0.9700
2027.292117 0.9700 0.9700 0.9700 0.9695 0.9690
2031.555915 0.9690 0.9690 0.9685 0.9680 0.9680
2035.819713 0.9679 0.9669 0.9660 0.9655 0.9650
2040.083510 0.9645 0.9639 0.9629 0.9620 0.9615
2044.347308 0.9610 0.9605 0.9600 0.9600 0.9600
2048.611105 0.9600 0.9599 0.9584 0.9570 0.9570
2052.874903 0.9570 0.9565 0.9560 0.9560 0.9560
2057.138701 0.9560 0.9559 0.9549 0.9540 0.9535
2061.402498 0.9530 0.9530 0.9530 0.9525 0.9520
2065.666296 0.9520 0.9519 0.9509 0.9499 0.9489
2069.930093 0.9479 0.9469 0.9459 0.9454 0.9450
2074.193891 0.9450 0.9451 0.9456 0.9460 0.9460
2078.457689 0.9460 0.9460 0.9459 0.9454 0.9450
2082.721486 0.9450 0.9450 0.9450 0.9450 0.9450
2086.985284 0.9449 0.9444 0.9440 0.9440 0.9440
2091.249082 0.9440 0.9440 0.9440 0.9439 0.9429
2095.512879 0.9420 0.9420 0.9419 0.9414 0.9409
2099.776677 0.9404 0.9398 0.9388 0.9379 0.9374
2104.040474 0.9370 0.9370 0.9369 0.9364 0.9358
2108.304272 0.9348 0.9339 0.9334 0.9329 0.9324
2112.568070 0.9320 0.9320 0.9318 0.9308 0.9299
2116.831867 0.9294 0.9289 0.9284 0.9278 0.9268
2121.095665 0.9259 0.9254 0.9250 0.9250 0.9249
2125.359462 0.9244 0.9238 0.9228 0.9219 0.9214
2129.623260 0.9207 0.9192 0.9179 0.9174 0.9170
2133.887058 0.9170 0.9167 0.9152 0.9140 0.9140
2138.150855 0.9139 0.9134 0.9129 0.9124 0.9120
2142.414653 0.9120 0.9118 0.9108 0.9100 0.9100
2146.678451 0.9098 0.9088 0.9077 0.9062 0.9047
2150.942248 0.9032 0.9020 0.9020 0.9019 0.9014
2155.206046 0.9009 0.9004 0.8997 0.8987 0.8975
2159.469843 0.8955 0.8937 0.8927 0.8917 0.8907
2163.733641 0.8899 0.8894 0.8889 0.8884 0.8876
2167.997439 0.8861 0.8845 0.8825 0.8806 0.8791
2172.261236 0.8779 0.8774 0.8767 0.8757 0.8747
2176.525034 0.8737 0.8729 0.8724 0.8720 0.8720
2180.788831 0.8719 0.8714 0.8710 0.8710 0.8710
