##TITLE=Beta-PROPIOLACTONE
##JCAMP-DX=4.24
$$ By DXEDIT 1.05 (RS McDonald)
##DATA TYPE=INFRARED SPECTRUM
##CLASS=COBLENTZ III
##ORIGIN=DOW CHEMICAL COMPANY
##OWNER=COBLENTZ SOC.
Collection (C) 2018 copyright by the U.S. Secretary of Commerce
on behalf of the United States of America. All rights reserved.
##DATE=1951/10/19
##NAMES=2-oxetanone
##CAS REGISTRY NO=57-57-8
##MOLFORM=C3 H4 O2
##SOURCE REFERENCE=COBLENTZ NO. 05634
##$NIST SOURCE=COBLENTZ
##$NIST IMAGE=cob5634
##SPECTROMETER/DATA SYSTEM=BAIRD (PRISM)
##INSTRUMENT PARAMETERS=NaCl PRISM
##STATE=SOLUTION (10% CCl4 FOR 2-7.6, SATURATED-LESS THAN 10% -NaCl ADDED CS2 FOR 7.4-16)
##PATH LENGTH=0.0114 CM, 0.0112 CM
##SAMPLING PROCEDURE=TRANSMISSION
##RESOLUTION=2
##DATA PROCESSING=DIGITIZED BY COBLENTZ SOCIETY (BATCH I) FROM HARD COPY
##XUNITS=1/CM
##YUNITS=TRANSMITTANCE
##XLABEL=Wavenumbers (cm-1)
##YLABEL=% Transmission
##XFACTOR=1
##YFACTOR=1
##DELTAX=1
##FIRSTX=4000
##LASTX=630
##FIRSTY=0.8655
##MAXX=4000
##MINX=630
##MAXY=0.9071
##MINY=0.0199
##NPOINTS=3371
##XYDATA=(X++(Y..Y))
4000.000000 0.8655 0.8655 0.8655 0.8655 0.8655
3995.000000 0.8655 0.8655 0.8656 0.8656 0.8656
3990.000000 0.8656 0.8656 0.8656 0.8657 0.8657
3985.000000 0.8657 0.8657 0.8657 0.8657 0.8657
3980.000000 0.8658 0.8658 0.8658 0.8659 0.8659
3975.000000 0.8659 0.8660 0.8660 0.8660 0.8660
3970.000000 0.8660 0.8660 0.8661 0.8661 0.8661
3965.000000 0.8661 0.8661 0.8661 0.8661 0.8662
3960.000000 0.8662 0.8662 0.8662 0.8662 0.8662
3955.000000 0.8663 0.8663 0.8663 0.8663 0.8663
3950.000000 0.8663 0.8664 0.8664 0.8664 0.8664
3945.000000 0.8664 0.8664 0.8665 0.8665 0.8665
3940.000000 0.8666 0.8666 0.8666 0.8667 0.8667
3935.000000 0.8667 0.8667 0.8668 0.8668 0.8668
3930.000000 0.8668 0.8668 0.8668 0.8670 0.8670
3925.000000 0.8670 0.8671 0.8671 0.8671 0.8671
3920.000000 0.8671 0.8671 0.8673 0.8673 0.8673
3915.000000 0.8674 0.8674 0.8674 0.8675 0.8675
3910.000000 0.8675 0.8675 0.8675 0.8675 0.8677
3905.000000 0.8677 0.8677 0.8678 0.8678 0.8678
3900.000000 0.8678 0.8678 0.8678 0.8680 0.8680
3895.000000 0.8680 0.8681 0.8681 0.8681 0.8682
3890.000000 0.8682 0.8682 0.8683 0.8683 0.8683
3885.000000 0.8684 0.8684 0.8684 0.8684 0.8685
3880.000000 0.8685 0.8685 0.8686 0.8686 0.8686
3875.000000 0.8687 0.8687 0.8687 0.8687 0.8687
3870.000000 0.8687 0.8688 0.8688 0.8688 0.8689
3865.000000 0.8689 0.8689 0.8690 0.8690 0.8690
3860.000000 0.8690 0.8690 0.8691 0.8691 0.8691
3855.000000 0.8691 0.8691 0.8691 0.8692 0.8692
3850.000000 0.8692 0.8693 0.8693 0.8693 0.8694
3845.000000 0.8694 0.8694 0.8694 0.8694 0.8694
3840.000000 0.8695 0.8695 0.8695 0.8696 0.8696
3835.000000 0.8696 0.8697 0.8697 0.8697 0.8697
3830.000000 0.8697 0.8697 0.8698 0.8698 0.8698
3825.000000 0.8698 0.8698 0.8698 0.8698 0.8698
3820.000000 0.8698 0.8698 0.8698 0.8698 0.8699
3815.000000 0.8699 0.8699 0.8699 0.8699 0.8699
3810.000000 0.8699 0.8699 0.8699 0.8699 0.8699
3805.000000 0.8699 0.8699 0.8699 0.8699 0.8699
3800.000000 0.8699 0.8700 0.8700 0.8700 0.8700
3795.000000 0.8700 0.8700 0.8700 0.8700 0.8700
3790.000000 0.8700 0.8700 0.8700 0.8701 0.8701
3785.000000 0.8701 0.8701 0.8701 0.8701 0.8701
3780.000000 0.8701 0.8701 0.8701 0.8701 0.8701
3775.000000 0.8701 0.8701 0.8701 0.8701 0.8701
3770.000000 0.8701 0.8701 0.8701 0.8701 0.8701
3765.000000 0.8701 0.8701 0.8701 0.8701 0.8701
3760.000000 0.8701 0.8701 0.8701 0.8701 0.8701
3755.000000 0.8701 0.8701 0.8701 0.8701 0.8701
3750.000000 0.8701 0.8701 0.8701 0.8701 0.8701
3745.000000 0.8701 0.8701 0.8701 0.8700 0.8699
3740.000000 0.8698 0.8697 0.8696 0.8696 0.8695
3735.000000 0.8694 0.8693 0.8693 0.8692 0.8691
3730.000000 0.8691 0.8690 0.8690 0.8689 0.8689
3725.000000 0.8686 0.8682 0.8678 0.8675 0.8671
3720.000000 0.8668 0.8663 0.8657 0.8651 0.8646
3715.000000 0.8640 0.8635 0.8628 0.8623 0.8618
3710.000000 0.8612 0.8606 0.8600 0.8593 0.8587
3705.000000 0.8580 0.8573 0.8566 0.8558 0.8551
3700.000000 0.8543 0.8535 0.8528 0.8520 0.8512
3695.000000 0.8504 0.8496 0.8488 0.8480 0.8470
3690.000000 0.8461 0.8452 0.8443 0.8433 0.8421
3685.000000 0.8411 0.8400 0.8390 0.8378 0.8368
3680.000000 0.8357 0.8346 0.8335 0.8324 0.8315
3675.000000 0.8307 0.8298 0.8290 0.8282 0.8274
3670.000000 0.8266 0.8259 0.8251 0.8243 0.8236
3665.000000 0.8230 0.8225 0.8218 0.8214 0.8209
3660.000000 0.8204 0.8199 0.8194 0.8189 0.8184
3655.000000 0.8178 0.8174 0.8169 0.8165 0.8161
3650.000000 0.8156 0.8153 0.8150 0.8148 0.8145
3645.000000 0.8142 0.8140 0.8138 0.8136 0.8134
3640.000000 0.8132 0.8130 0.8128 0.8128 0.8126
3635.000000 0.8125 0.8124 0.8122 0.8121 0.8119
3630.000000 0.8118 0.8117 0.8115 0.8115 0.8112
3625.000000 0.8111 0.8111 0.8110 0.8110 0.8110
3620.000000 0.8111 0.8111 0.8111 0.8111 0.8112
3615.000000 0.8114 0.8115 0.8115 0.8117 0.8118
3610.000000 0.8121 0.8124 0.8125 0.8131 0.8139
3605.000000 0.8146 0.8154 0.8161 0.8168 0.8176
3600.000000 0.8184 0.8192 0.8200 0.8207 0.8216
3595.000000 0.8224 0.8232 0.8240 0.8248 0.8256
3590.000000 0.8264 0.8273 0.8281 0.8289 0.8296
3585.000000 0.8304 0.8311 0.8318 0.8325 0.8333
3580.000000 0.8339 0.8345 0.8351 0.8358 0.8364
3575.000000 0.8370 0.8377 0.8383 0.8390 0.8396
3570.000000 0.8402 0.8409 0.8415 0.8421 0.8427
3565.000000 0.8432 0.8436 0.8441 0.8445 0.8450
3560.000000 0.8454 0.8459 0.8463 0.8468 0.8471
3555.000000 0.8477 0.8481 0.8485 0.8490 0.8494
3550.000000 0.8499 0.8503 0.8508 0.8512 0.8517
3545.000000 0.8520 0.8523 0.8525 0.8530 0.8533
3540.000000 0.8535 0.8538 0.8540 0.8543 0.8546
3535.000000 0.8548 0.8551 0.8553 0.8556 0.8559
3530.000000 0.8561 0.8564 0.8567 0.8568 0.8571
3525.000000 0.8574 0.8577 0.8578 0.8581 0.8584
3520.000000 0.8586 0.8587 0.8589 0.8591 0.8593
3515.000000 0.8594 0.8596 0.8598 0.8599 0.8601
3510.000000 0.8603 0.8605 0.8606 0.8608 0.8610
3505.000000 0.8612 0.8613 0.8615 0.8617 0.8618
3500.000000 0.8620 0.8621 0.8624 0.8625 0.8627
3495.000000 0.8628 0.8631 0.8632 0.8634 0.8636
3490.000000 0.8637 0.8639 0.8641 0.8643 0.8645
3485.000000 0.8646 0.8647 0.8649 0.8650 0.8652
3480.000000 0.8653 0.8654 0.8655 0.8657 0.8658
3475.000000 0.8659 0.8660 0.8662 0.8663 0.8664
3470.000000 0.8665 0.8667 0.8668 0.8668 0.8668
3465.000000 0.8670 0.8671 0.8671 0.8671 0.8671
3460.000000 0.8671 0.8671 0.8671 0.8673 0.8673
3455.000000 0.8674 0.8674 0.8675 0.8675 0.8675
3450.000000 0.8675 0.8675 0.8675 0.8675 0.8675
3445.000000 0.8675 0.8675 0.8677 0.8677 0.8678
3440.000000 0.8678 0.8678 0.8678 0.8678 0.8678
3435.000000 0.8678 0.8680 0.8680 0.8680 0.8680
3430.000000 0.8680 0.8681 0.8681 0.8681 0.8681
3425.000000 0.8681 0.8682 0.8682 0.8682 0.8682
3420.000000 0.8682 0.8682 0.8682 0.8682 0.8682
3415.000000 0.8681 0.8680 0.8680 0.8678 0.8678
3410.000000 0.8677 0.8675 0.8674 0.8673 0.8671
3405.000000 0.8670 0.8668 0.8668 0.8666 0.8665
3400.000000 0.8664 0.8662 0.8661 0.8660 0.8659
3395.000000 0.8657 0.8656 0.8655 0.8653 0.8652
3390.000000 0.8651 0.8649 0.8648 0.8647 0.8645
3385.000000 0.8644 0.8643 0.8642 0.8640 0.8638
3380.000000 0.8636 0.8635 0.8633 0.8631 0.8630
3375.000000 0.8628 0.8627 0.8625 0.8623 0.8621
3370.000000 0.8620 0.8618 0.8617 0.8615 0.8613
3365.000000 0.8612 0.8611 0.8609 0.8608 0.8607
3360.000000 0.8605 0.8604 0.8603 0.8601 0.8600
3355.000000 0.8599 0.8597 0.8596 0.8595 0.8593
3350.000000 0.8592 0.8591 0.8589 0.8588 0.8587
3345.000000 0.8585 0.8584 0.8583 0.8581 0.8580
3340.000000 0.8578 0.8577 0.8575 0.8574 0.8573
3335.000000 0.8571 0.8570 0.8568 0.8568 0.8566
3330.000000 0.8565 0.8564 0.8563 0.8562 0.8562
3325.000000 0.8561 0.8560 0.8560 0.8560 0.8560
3320.000000 0.8559 0.8559 0.8559 0.8559 0.8559
3315.000000 0.8558 0.8558 0.8558 0.8558 0.8557
3310.000000 0.8557 0.8557 0.8557 0.8557 0.8556
3305.000000 0.8556 0.8556 0.8556 0.8555 0.8555
3300.000000 0.8555 0.8555 0.8555 0.8555 0.8555
3295.000000 0.8555 0.8555 0.8556 0.8556 0.8556
3290.000000 0.8556 0.8557 0.8557 0.8558 0.8558
3285.000000 0.8559 0.8559 0.8559 0.8560 0.8560
3280.000000 0.8561 0.8561 0.8562 0.8562 0.8563
3275.000000 0.8563 0.8563 0.8563 0.8564 0.8564
3270.000000 0.8565 0.8565 0.8565 0.8566 0.8566
3265.000000 0.8567 0.8567 0.8568 0.8568 0.8568
3260.000000 0.8568 0.8570 0.8570 0.8570 0.8570
3255.000000 0.8571 0.8571 0.8571 0.8571 0.8571
3250.000000 0.8573 0.8574 0.8575 0.8575 0.8575
3245.000000 0.8577 0.8577 0.8578 0.8578 0.8580
3240.000000 0.8580 0.8581 0.8582 0.8582 0.8583
3235.000000 0.8584 0.8585 0.8585 0.8586 0.8587
3230.000000 0.8587 0.8588 0.8589 0.8590 0.8590
3225.000000 0.8591 0.8592 0.8593 0.8593 0.8594
3220.000000 0.8595 0.8597 0.8598 0.8599 0.8601
3215.000000 0.8602 0.8604 0.8605 0.8606 0.8607
3210.000000 0.8609 0.8610 0.8611 0.8612 0.8613
3205.000000 0.8615 0.8616 0.8618 0.8618 0.8621
3200.000000 0.8621 0.8623 0.8624 0.8625 0.8627
3195.000000 0.8628 0.8630 0.8631 0.8632 0.8633
3190.000000 0.8634 0.8635 0.8636 0.8636 0.8637
3185.000000 0.8637 0.8638 0.8639 0.8640 0.8640
3180.000000 0.8641 0.8642 0.8642 0.8643 0.8644
3175.000000 0.8645 0.8645 0.8646 0.8647 0.8648
3170.000000 0.8648 0.8649 0.8650 0.8650 0.8651
3165.000000 0.8651 0.8652 0.8652 0.8653 0.8653
3160.000000 0.8654 0.8654 0.8655 0.8655 0.8656
3155.000000 0.8656 0.8657 0.8657 0.8658 0.8658
3150.000000 0.8658 0.8658 0.8659 0.8659 0.8660
3145.000000 0.8660 0.8661 0.8661 0.8661 0.8661
3140.000000 0.8662 0.8662 0.8662 0.8662 0.8661
3135.000000 0.8661 0.8661 0.8661 0.8660 0.8660
3130.000000 0.8660 0.8660 0.8659 0.8659 0.8659
3125.000000 0.8659 0.8658 0.8658 0.8658 0.8657
3120.000000 0.8657 0.8656 0.8655 0.8654 0.8654
3115.000000 0.8653 0.8652 0.8651 0.8650 0.8650
3110.000000 0.8649 0.8648 0.8647 0.8645 0.8644
3105.000000 0.8642 0.8640 0.8637 0.8635 0.8633
3100.000000 0.8630 0.8628 0.8625 0.8623 0.8621
3095.000000 0.8618 0.8616 0.8614 0.8611 0.8609
3090.000000 0.8606 0.8602 0.8598 0.8595 0.8591
3085.000000 0.8587 0.8584 0.8580 0.8575 0.8571
3080.000000 0.8568 0.8564 0.8560 0.8556 0.8552
3075.000000 0.8548 0.8540 0.8531 0.8523 0.8514
3070.000000 0.8506 0.8497 0.8489 0.8480 0.8471
3065.000000 0.8463 0.8455 0.8445 0.8435 0.8425
3060.000000 0.8415 0.8402 0.8390 0.8377 0.8364
3055.000000 0.8352 0.8339 0.8325 0.8309 0.8288
3050.000000 0.8267 0.8246 0.8218 0.8190 0.8161
3045.000000 0.8130 0.8068 0.8008 0.7947 0.7898
3040.000000 0.7869 0.7843 0.7815 0.7784 0.7749
3035.000000 0.7715 0.7680 0.7644 0.7608 0.7572
3030.000000 0.7538 0.7507 0.7476 0.7446 0.7404
3025.000000 0.7356 0.7308 0.7261 0.7212 0.7164
3020.000000 0.7115 0.7068 0.7019 0.6971 0.6924
3015.000000 0.6875 0.6826 0.6778 0.6730 0.6682
3010.000000 0.6634 0.6585 0.6537 0.6488 0.6440
3005.000000 0.6391 0.6342 0.6294 0.6245 0.6197
3000.000000 0.6148 0.6099 0.6050 0.6001 0.5952
2995.000000 0.5904 0.5855 0.5806 0.5757 0.5707
2990.000000 0.5658 0.5609 0.5560 0.5259 0.5462
2985.000000 0.5412 0.5362 0.5323 0.5306 0.5289
2980.000000 0.5272 0.5267 0.5266 0.5264 0.5264
2975.000000 0.5264 0.5265 0.5265 0.5268 0.5273
2970.000000 0.5278 0.5285 0.5315 0.5345 0.5375
2965.000000 0.5426 0.5492 0.5557 0.5623 0.5689
2960.000000 0.5756 0.5822 0.5888 0.5954 0.6020
2955.000000 0.6086 0.6152 0.6219 0.6285 0.6352
2950.000000 0.6418 0.6485 0.6551 0.6618 0.6685
2945.000000 0.6751 0.6818 0.6885 0.6951 0.7018
2940.000000 0.7085 0.7151 0.7218 0.7258 0.7288
2935.000000 0.7318 0.7339 0.7335 0.7332 0.7328
2930.000000 0.7296 0.7258 0.7218 0.7181 0.7143
2925.000000 0.7104 0.7065 0.7026 0.6988 0.6949
2920.000000 0.6911 0.6871 0.6833 0.6797 0.6778
2915.000000 0.6758 0.6738 0.6734 0.6735 0.6735
2910.000000 0.6740 0.6754 0.6767 0.6780 0.6828
2905.000000 0.6875 0.6924 0.6972 0.7021 0.7068
2900.000000 0.7118 0.7165 0.7215 0.7262 0.7311
2895.000000 0.7360 0.7408 0.7458 0.7506 0.7555
2890.000000 0.7604 0.7653 0.7701 0.7751 0.7800
2885.000000 0.7849 0.7898 0.7947 0.7996 0.8045
2880.000000 0.8095 0.8144 0.8193 0.8242 0.8291
2875.000000 0.8341 0.8390 0.8439 0.8489 0.8538
2870.000000 0.8580 0.8600 0.8620 0.8640 0.8642
2865.000000 0.8643 0.8644 0.8645 0.8646 0.8647
2860.000000 0.8648 0.8649 0.8650 0.8651 0.8652
2855.000000 0.8653 0.8654 0.8656 0.8657 0.8659
2850.000000 0.8660 0.8662 0.8664 0.8665 0.8667
2845.000000 0.8668 0.8670 0.8671 0.8673 0.8674
2840.000000 0.8675 0.8677 0.8678 0.8681 0.8682
2835.000000 0.8684 0.8685 0.8686 0.8688 0.8689
2830.000000 0.8691 0.8693 0.8695 0.8696 0.8698
2825.000000 0.8699 0.8701 0.8703 0.8705 0.8707
2820.000000 0.8709 0.8711 0.8712 0.8714 0.8716
2815.000000 0.8718 0.8720 0.8721 0.8724 0.8725
2810.000000 0.8727 0.8728 0.8730 0.8732 0.8734
2805.000000 0.8736 0.8738 0.8740 0.8742 0.8743
2800.000000 0.8745 0.8747 0.8748 0.8750 0.8752
2795.000000 0.8754 0.8755 0.8757 0.8761 0.8764
2790.000000 0.8767 0.8770 0.8774 0.8777 0.8781
2785.000000 0.8786 0.8790 0.8795 0.8801 0.8806
2780.000000 0.8811 0.8816 0.8821 0.8827 0.8832
2775.000000 0.8837 0.8843 0.8850 0.8857 0.8864
2770.000000 0.8871 0.8880 0.8887 0.8894 0.8901
2765.000000 0.8908 0.8915 0.8921 0.8930 0.8937
2760.000000 0.8944 0.8950 0.8953 0.8957 0.8960
2755.000000 0.8960 0.8960 0.8959 0.8959 0.8959
2750.000000 0.8958 0.8958 0.8957 0.8955 0.8952
2745.000000 0.8948 0.8943 0.8939 0.8934 0.8928
2740.000000 0.8925 0.8920 0.8916 0.8912 0.8908
2735.000000 0.8906 0.8906 0.8906 0.8906 0.8906
2730.000000 0.8906 0.8906 0.8907 0.8908 0.8909
2725.000000 0.8911 0.8912 0.8914 0.8916 0.8917
2720.000000 0.8918 0.8921 0.8921 0.8924 0.8925
2715.000000 0.8927 0.8928 0.8928 0.8928 0.8928
2710.000000 0.8930 0.8930 0.8930 0.8928 0.8928
2705.000000 0.8928 0.8927 0.8925 0.8925 0.8925
2700.000000 0.8924 0.8923 0.8921 0.8921 0.8921
2695.000000 0.8920 0.8918 0.8918 0.8917 0.8916
2690.000000 0.8915 0.8914 0.8913 0.8913 0.8913
2685.000000 0.8913 0.8913 0.8914 0.8915 0.8915
2680.000000 0.8915 0.8916 0.8916 0.8916 0.8917
2675.000000 0.8917 0.8917 0.8918 0.8918 0.8918
2670.000000 0.8920 0.8920 0.8920 0.8920 0.8920
2665.000000 0.8920 0.8920 0.8920 0.8920 0.8920
2660.000000 0.8920 0.8920 0.8920 0.8920 0.8920
2655.000000 0.8920 0.8920 0.8920 0.8920 0.8920
2650.000000 0.8920 0.8920 0.8920 0.8920 0.8920
2645.000000 0.8920 0.8920 0.8920 0.8920 0.8920
2640.000000 0.8920 0.8920 0.8920 0.8920 0.8920
2635.000000 0.8920 0.8920 0.8920 0.8920 0.8920
2630.000000 0.8920 0.8920 0.8918 0.8918 0.8917
2625.000000 0.8917 0.8916 0.8915 0.8915 0.8914
2620.000000 0.8913 0.8913 0.8913 0.8910 0.8907
2615.000000 0.8903 0.8900 0.8897 0.8894 0.8891
2610.000000 0.8887 0.8880 0.8870 0.8861 0.8851
2605.000000 0.8841 0.8828 0.8808 0.8788 0.8767
2600.000000 0.8745 0.8723 0.8701 0.8680 0.8659
2595.000000 0.8643 0.8627 0.8613 0.8602 0.8590
2590.000000 0.8580 0.8571 0.8563 0.8557 0.8552
2585.000000 0.8548 0.8545 0.8542 0.8541 0.8540
2580.000000 0.8540 0.8538 0.8537 0.8536 0.8536
2575.000000 0.8536 0.8536 0.8540 0.8544 0.8550
2570.000000 0.8556 0.8564 0.8573 0.8582 0.8591
2565.000000 0.8601 0.8610 0.8620 0.8630 0.8639
2560.000000 0.8649 0.8658 0.8667 0.8677 0.8686
2555.000000 0.8695 0.8704 0.8714 0.8723 0.8733
2550.000000 0.8742 0.8751 0.8761 0.8770 0.8780
2545.000000 0.8790 0.8800 0.8809 0.8818 0.8827
2540.000000 0.8835 0.8843 0.8851 0.8858 0.8866
2535.000000 0.8873 0.8880 0.8887 0.8894 0.8901
2530.000000 0.8908 0.8915 0.8921 0.8927 0.8932
2525.000000 0.8936 0.8940 0.8944 0.8948 0.8952
2520.000000 0.8956 0.8956 0.8956 0.8955 0.8950
2515.000000 0.8946 0.8941 0.8937 0.8931 0.8925
2510.000000 0.8920 0.8916 0.8911 0.8907 0.8905
2505.000000 0.8902 0.8900 0.8898 0.8898 0.8898
2500.000000 0.8899 0.8899 0.8900 0.8901 0.8901
2495.000000 0.8902 0.8902 0.8903 0.8905 0.8907
2490.000000 0.8910 0.8912 0.8915 0.8918 0.8920
2485.000000 0.8921 0.8921 0.8921 0.8921 0.8921
2480.000000 0.8920 0.8920 0.8920 0.8920 0.8920
2475.000000 0.8918 0.8918 0.8918 0.8918 0.8918
2470.000000 0.8917 0.8916 0.8916 0.8915 0.8914
2465.000000 0.8913 0.8912 0.8911 0.8911 0.8911
2460.000000 0.8910 0.8909 0.8908 0.8907 0.8907
2455.000000 0.8906 0.8905 0.8904 0.8904 0.8904
2450.000000 0.8903 0.8902 0.8901 0.8900 0.8899
2445.000000 0.8899 0.8899 0.8898 0.8897 0.8896
2440.000000 0.8895 0.8893 0.8892 0.8891 0.8888
2435.000000 0.8884 0.8878 0.8871 0.8864 0.8850
2430.000000 0.8834 0.8815 0.8792 0.8768 0.8738
2425.000000 0.8708 0.8693 0.8681 0.8670 0.8659
2420.000000 0.8650 0.8644 0.8639 0.8633 0.8628
2415.000000 0.8625 0.8621 0.8620 0.8618 0.8600
2410.000000 0.8614 0.8614 0.8613 0.8615 0.8618
2405.000000 0.8624 0.8628 0.8639 0.8651 0.8663
2400.000000 0.8675 0.8687 0.8700 0.8713 0.8725
2395.000000 0.8739 0.8752 0.8765 0.8778 0.8791
2390.000000 0.8804 0.8817 0.8830 0.8842 0.8855
2385.000000 0.8868 0.8880 0.8892 0.8902 0.8912
2380.000000 0.8921 0.8931 0.8941 0.8951 0.8960
2375.000000 0.8968 0.8975 0.8977 0.8978 0.8980
2370.000000 0.8981 0.8982 0.8983 0.8984 0.8985
2365.000000 0.8987 0.8988 0.8988 0.8990 0.8991
2360.000000 0.8992 0.8993 0.8994 0.8994 0.8995
2355.000000 0.8995 0.8996 0.8996 0.8996 0.8997
2350.000000 0.8998 0.8999 0.9000 0.9000 0.9000
2345.000000 0.9001 0.9001 0.9002 0.9002 0.9002
2340.000000 0.9003 0.9003 0.9004 0.9004 0.9004
2335.000000 0.9004 0.9003 0.9003 0.9002 0.8997
2330.000000 0.8993 0.8987 0.8982 0.8975 0.8968
2325.000000 0.8961 0.8954 0.8946 0.8939 0.8932
2320.000000 0.8925 0.8918 0.8910 0.8903 0.8895
2315.000000 0.8888 0.8880 0.8873 0.8865 0.8858
2310.000000 0.8850 0.8843 0.8836 0.8830 0.8824
2305.000000 0.8820 0.8816 0.8812 0.8807 0.8803
2300.000000 0.8799 0.8794 0.8789 0.8785 0.8781
2295.000000 0.8777 0.8774 0.8771 0.8768 0.8765
2290.000000 0.8763 0.8760 0.8758 0.8755 0.8752
2285.000000 0.8749 0.8748 0.8746 0.8745 0.8744
2280.000000 0.8744 0.8743 0.8742 0.8742 0.8741
2275.000000 0.8740 0.8740 0.8740 0.8740 0.8740
2270.000000 0.8740 0.8740 0.8740 0.8740 0.8740
2265.000000 0.8740 0.8740 0.8740 0.8739 0.8739
2260.000000 0.8738 0.8737 0.8736 0.8736 0.8735
2255.000000 0.8734 0.8733 0.8732 0.8731 0.8731
2250.000000 0.8730 0.8728 0.8728 0.8727 0.8725
2245.000000 0.8725 0.8724 0.8724 0.8723 0.8721
2240.000000 0.8721 0.8715 0.8708 0.8701 0.8692
2235.000000 0.8675 0.8659 0.8643 0.8627 0.8610
2230.000000 0.8593 0.8573 0.8553 0.8534 0.8515
2225.000000 0.8496 0.8477 0.8457 0.8437 0.8414
2220.000000 0.8391 0.8366 0.8342 0.8317 0.8292
2215.000000 0.8267 0.8242 0.8216 0.8191 0.8165
2210.000000 0.8141 0.8117 0.8095 0.8072 0.8050
2205.000000 0.8028 0.8006 0.7986 0.7965 0.7945
2200.000000 0.7924 0.7903 0.7884 0.7865 0.7849
2195.000000 0.7832 0.7825 0.7821 0.7817 0.7815
2190.000000 0.7815 0.7815 0.7815 0.7815 0.7818
2185.000000 0.7824 0.7839 0.7855 0.7871 0.7894
2180.000000 0.7921 0.7949 0.7975 0.8005 0.8035
2175.000000 0.8065 0.8095 0.8125 0.8155 0.8184
2170.000000 0.8213 0.8241 0.8268 0.8296 0.8324
2165.000000 0.8351 0.8378 0.8406 0.8434 0.8461
2160.000000 0.8485 0.8508 0.8531 0.8553 0.8575
2155.000000 0.8599 0.8621 0.8643 0.8662 0.8681
2150.000000 0.8700 0.8718 0.8738 0.8755 0.8771
2145.000000 0.8787 0.8802 0.8818 0.8834 0.8853
2140.000000 0.8871 0.8889 0.8901 0.8909 0.8918
2135.000000 0.8927 0.8930 0.8932 0.8933 0.8934
2130.000000 0.8934 0.8935 0.8936 0.8937 0.8937
2125.000000 0.8937 0.8937 0.8937 0.8937 0.8937
2120.000000 0.8937 0.8937 0.8937 0.8937 0.8937
2115.000000 0.8938 0.8938 0.8939 0.8939 0.8940
2110.000000 0.8940 0.8941 0.8942 0.8943 0.8944
2105.000000 0.8944 0.8943 0.8942 0.8941 0.8940
2100.000000 0.8939 0.8937 0.8931 0.8924 0.8917
2095.000000 0.8909 0.8901 0.8895 0.8890 0.8886
2090.000000 0.8881 0.8877 0.8875 0.8873 0.8873
2085.000000 0.8873 0.8873 0.8874 0.8874 0.8875
2080.000000 0.8875 0.8875 0.8877 0.8878 0.8880
2075.000000 0.8885 0.8891 0.8897 0.8899 0.8899
2070.000000 0.8898 0.8896 0.8893 0.8890 0.8887
2065.000000 0.8885 0.8882 0.8878 0.8875 0.8871
2060.000000 0.8868 0.8865 0.8862 0.8858 0.8855
2055.000000 0.8852 0.8850 0.8850 0.8850 0.8850
2050.000000 0.8850 0.8850 0.8850 0.8850 0.8850
2045.000000 0.8850 0.8852 0.8852 0.8853 0.8854
2040.000000 0.8855 0.8857 0.8857 0.8857 0.8857
2035.000000 0.8857 0.8857 0.8857 0.8855 0.8852
2030.000000 0.8849 0.8844 0.8832 0.8818 0.8806
2025.000000 0.8784 0.8761 0.8735 0.8707 0.8678
2020.000000 0.8650 0.8607 0.8542 0.8493 0.8448
2015.000000 0.8402 0.8356 0.8311 0.8265 0.8218
2010.000000 0.8174 0.8128 0.8082 0.8036 0.7990
2005.000000 0.7945 0.7899 0.7853 0.7807 0.7761
2000.000000 0.7715 0.7668 0.7621 0.7575 0.7528
1995.000000 0.7483 0.7436 0.7390 0.7344 0.7297
1990.000000 0.7251 0.7204 0.7087 0.6982 0.6932
