##TITLE=2-Butene, cis-
##JCAMP-DX=4.24
##DATA TYPE=INFRARED SPECTRUM
##CLASS=COBLENTZ
##ORIGIN=DOW CHEMICAL COMPANY
##OWNER=Copyright (C) 1987 by the Coblentz Society
Collection (C) 2018 copyright by the U.S. Secretary of Commerce
on behalf of the United States of America. All rights reserved.
##DATE=1964
##NAMES=(2Z)-2-butene
##CAS REGISTRY NO=590-18-1
##MOLFORM=C4 H8
##SOURCE REFERENCE=COBLENTZ NO. 8864
##$NIST SOURCE=COBLENTZ
##$NIST IMAGE=cob8864
##SPECTROMETER/DATA SYSTEM=DOW KBr FOREPRISM-GRATING
##INSTRUMENT PARAMETERS=GRATING CHANGED AT 5.0, 7.5, 15.0 MICRON
##STATE=GAS (150 mmHg, N2 ADDED, TOTAL PRESSURE 600 mmHg)
##PATH LENGTH=5 CM
##SAMPLING PROCEDURE=TRANSMISSION
##RESOLUTION=2
##DATA PROCESSING=DIGITIZED BY COBLENTZ SOCIETY (BATCH II) FROM HARD COPY
##XUNITS=1/CM
##YUNITS=TRANSMITTANCE
##XFACTOR=1.0
##YFACTOR=1
##FIRSTX=460
##LASTX=3798
##FIRSTY=0.8958
##MAXX=3798
##MINX=460
##MAXY=0.9224
##MINY=0.0134
##NPOINTS=3339
##XYDATA=(X++(Y..Y))
460.000000 0.8958 0.8962 0.8966 0.8970 0.8974
465.000000 0.8979 0.8984 0.8990 0.8996 0.9001
470.000000 0.9009 0.9021 0.9034 0.9046 0.9058
475.000000 0.9071 0.9085 0.9099 0.9113 0.9126
480.000000 0.9137 0.9145 0.9153 0.9160 0.9168
485.000000 0.9175 0.9179 0.9183 0.9186 0.9189
490.000000 0.9192 0.9196 0.9199 0.9202 0.9205
495.000000 0.9207 0.9209 0.9210 0.9212 0.9214
500.000000 0.9216 0.9218 0.9219 0.9221 0.9223
505.000000 0.9224 0.9220 0.9221 0.9220 0.9219
510.000000 0.9218 0.9217 0.9215 0.9214 0.9213
515.000000 0.9212 0.9211 0.9209 0.9207 0.9205
520.000000 0.9202 0.9200 0.9198 0.9195 0.9193
525.000000 0.9191 0.9188 0.9183 0.9174 0.9165
530.000000 0.9156 0.9147 0.9136 0.9121 0.9107
535.000000 0.9092 0.9078 0.9064 0.9049 0.9035
540.000000 0.9020 0.9003 0.8978 0.8953 0.8929
545.000000 0.8904 0.8879 0.8854 0.8808 0.8757
550.000000 0.8705 0.8654 0.8587 0.8516 0.8444
555.000000 0.8361 0.8269 0.8176 0.8061 0.7932
560.000000 0.7802 0.7632 0.7444 0.7254 0.7151
565.000000 0.7115 0.7100 0.7095 0.7091 0.7080
570.000000 0.6792 0.6764 0.6776 0.6796 0.6832
575.000000 0.6917 0.6989 0.6917 0.6688 0.6517
580.000000 0.6497 0.6487 0.6493 0.6486 0.6508
585.000000 0.6525 0.6544 0.6569 0.6598 0.6634
590.000000 0.6682 0.6762 0.6987 0.7212 0.7437
595.000000 0.7663 0.7888 0.8211 0.8374 0.8482
600.000000 0.8572 0.8648 0.8714 0.8774 0.8815
605.000000 0.8849 0.8869 0.8885 0.8898 0.8877
610.000000 0.8912 0.8912 0.8905 0.8894 0.8875
615.000000 0.8848 0.8810 0.8770 0.8733 0.8696
620.000000 0.8648 0.8594 0.8517 0.8435 0.8352
625.000000 0.8268 0.8124 0.7991 0.7843 0.7655
630.000000 0.7401 0.7174 0.6902 0.6610 0.6319
635.000000 0.6027 0.5736 0.5444 0.5153 0.4861
640.000000 0.4662 0.4441 0.4222 0.3999 0.3726
645.000000 0.3581 0.3459 0.3330 0.3174 0.3018
650.000000 0.2816 0.2605 0.2433 0.2324 0.2215
655.000000 0.2081 0.1937 0.1792 0.1642 0.1487
660.000000 0.1338 0.1191 0.1034 0.0943 0.0858
665.000000 0.0767 0.0674 0.0585 0.0499 0.0415
670.000000 0.0351 0.0304 0.0302 0.0358 0.0364
675.000000 0.0421 0.0501 0.0521 0.0535 0.0628
680.000000 0.0830 0.0970 0.0860 0.0711 0.0571
685.000000 0.1306 0.1353 0.1398 0.1442 0.1486
690.000000 0.1533 0.1591 0.1656 0.1749 0.1914
695.000000 0.2080 0.2218 0.2372 0.2557 0.2630
700.000000 0.2817 0.3105 0.3393 0.3681 0.3969
705.000000 0.4257 0.4545 0.4834 0.5122 0.5410
710.000000 0.5698 0.5986 0.6274 0.6562 0.6850
715.000000 0.7064 0.7147 0.7269 0.7419 0.7574
720.000000 0.7697 0.7864 0.8095 0.8424 0.8516
725.000000 0.8580 0.8623 0.8658 0.8692 0.8717
730.000000 0.8736 0.8751 0.8763 0.8775 0.8787
735.000000 0.8795 0.8803 0.8810 0.8817 0.8818
740.000000 0.8819 0.8821 0.8819 0.8817 0.8815
745.000000 0.8811 0.8804 0.8798 0.8791 0.8785
750.000000 0.8779 0.8773 0.8767 0.8764 0.8764
755.000000 0.8764 0.8762 0.8760 0.8757 0.8754
760.000000 0.8750 0.8746 0.8742 0.8739 0.8738
765.000000 0.8739 0.8740 0.8740 0.8741 0.8742
770.000000 0.8743 0.8743 0.8765 0.8745 0.8745
775.000000 0.8746 0.8748 0.8750 0.8753 0.8756
780.000000 0.8759 0.8762 0.8766 0.8770 0.8775
785.000000 0.8780 0.8786 0.8791 0.8797 0.8800
790.000000 0.8803 0.8806 0.8808 0.8811 0.8814
795.000000 0.8816 0.8818 0.8820 0.8822 0.8824
800.000000 0.8827 0.8829 0.8831 0.8833 0.8835
805.000000 0.8837 0.8839 0.8841 0.8843 0.8845
810.000000 0.8847 0.8849 0.8851 0.8853 0.8854
815.000000 0.8856 0.8857 0.8858 0.8859 0.8860
820.000000 0.8861 0.8858 0.8855 0.8851 0.8848
825.000000 0.8845 0.8841 0.8838 0.8834 0.8831
830.000000 0.8827 0.8819 0.8810 0.8802 0.8793
835.000000 0.8785 0.8776 0.8768 0.8760 0.8751
840.000000 0.8739 0.8727 0.8715 0.8703 0.8690
845.000000 0.8678 0.8666 0.8654 0.8638 0.8622
850.000000 0.8605 0.8588 0.8571 0.8555 0.8538
855.000000 0.8521 0.8504 0.8487 0.8465 0.8443
860.000000 0.8421 0.8402 0.8388 0.8373 0.8361
865.000000 0.8352 0.8343 0.8335 0.8330 0.8326
870.000000 0.8321 0.8316 0.8314 0.8311 0.8308
875.000000 0.8306 0.8304 0.8302 0.8302 0.8305
880.000000 0.8308 0.8312 0.8324 0.8337 0.8350
885.000000 0.8365 0.8380 0.8396 0.8412 0.8426
890.000000 0.8439 0.8452 0.8465 0.8478 0.8489
895.000000 0.8499 0.8510 0.8520 0.8528 0.8531
900.000000 0.8533 0.8536 0.8538 0.8520 0.8538
905.000000 0.8536 0.8533 0.8526 0.8516 0.8335
910.000000 0.8072 0.7994 0.8196 0.8429 0.8479
915.000000 0.8481 0.8476 0.8465 0.8448 0.8435
920.000000 0.8419 0.8401 0.8381 0.8362 0.8347
925.000000 0.8332 0.8318 0.8303 0.8285 0.8267
930.000000 0.8248 0.8230 0.8208 0.8186 0.8164
935.000000 0.8138 0.8112 0.8086 0.8060 0.8026
940.000000 0.7991 0.7956 0.7912 0.7867 0.7815
945.000000 0.7755 0.7694 0.7617 0.7536 0.7400
950.000000 0.7265 0.7122 0.6756 0.6560 0.6418
955.000000 0.6188 0.5919 0.5650 0.5381 0.5112
960.000000 0.4843 0.4574 0.4305 0.4121 0.3915
965.000000 0.3859 0.3867 0.3881 0.3971 0.4065
970.000000 0.4159 0.4219 0.4219 0.3909 0.3447
975.000000 0.3399 0.3409 0.3605 0.3739 0.3874
980.000000 0.3938 0.3934 0.3792 0.3690 0.3588
985.000000 0.3529 0.3535 0.3525 0.3696 0.3797
990.000000 0.4082 0.4367 0.4652 0.4937 0.5222
995.000000 0.5507 0.5792 0.6037 0.6389 0.6786
1000.000000 0.6888 0.6989 0.7091 0.7194 0.7272
1005.000000 0.7318 0.7365 0.7386 0.7400 0.7398
1010.000000 0.7421 0.7388 0.7363 0.7337 0.7304
1015.000000 0.7256 0.7219 0.7203 0.7189 0.7177
1020.000000 0.7165 0.7154 0.7143 0.7132 0.7134
1025.000000 0.7142 0.7151 0.7111 0.7051 0.6982
1030.000000 0.6902 0.6836 0.6777 0.6719 0.6659
1035.000000 0.6598 0.6527 0.6422 0.6290 0.6158
1040.000000 0.6153 0.6526 0.7117 0.7136 0.7155
1045.000000 0.7172 0.7189 0.7209 0.7231 0.7255
1050.000000 0.7280 0.7305 0.7336 0.7367 0.7399
1055.000000 0.7433 0.7468 0.7503 0.7546 0.7598
1060.000000 0.7650 0.7699 0.7743 0.7786 0.7830
1065.000000 0.7872 0.7907 0.7942 0.7977 0.8012
1070.000000 0.8045 0.8076 0.8107 0.8138 0.8169
1075.000000 0.8195 0.8220 0.8246 0.8271 0.8298
1080.000000 0.8335 0.8371 0.8408 0.8451 0.8494
1085.000000 0.8537 0.8573 0.8606 0.8639 0.8665
1090.000000 0.8687 0.8704 0.8714 0.8723 0.8728
1095.000000 0.8731 0.8733 0.8735 0.8735 0.8735
1100.000000 0.8735 0.8735 0.8735 0.8735 0.8733
1105.000000 0.8729 0.8724 0.8720 0.8715 0.8710
1110.000000 0.8703 0.8695 0.8688 0.8681 0.8668
1115.000000 0.8652 0.8636 0.8620 0.8604 0.8588
1120.000000 0.8563 0.8534 0.8515 0.8511 0.8507
1125.000000 0.8503 0.8503 0.8505 0.8508 0.8514
1130.000000 0.8520 0.8526 0.8533 0.8552 0.8543
1135.000000 0.8538 0.8533 0.8526 0.8520 0.8525
1140.000000 0.8534 0.8545 0.8562 0.8579 0.8597
1145.000000 0.8616 0.8635 0.8654 0.8674 0.8691
1150.000000 0.8706 0.8721 0.8736 0.8751 0.8766
1155.000000 0.8781 0.8794 0.8806 0.8819 0.8832
1160.000000 0.8844 0.8857 0.8867 0.8877 0.8886
1165.000000 0.8896 0.8906 0.8914 0.8913 0.8912
1170.000000 0.8912 0.8911 0.8911 0.8908 0.8899
1175.000000 0.8890 0.8882 0.8873 0.8862 0.8848
1180.000000 0.8840 0.8852 0.8865 0.8885 0.8910
1185.000000 0.8928 0.8939 0.8944 0.8946 0.8949
1190.000000 0.8951 0.8952 0.8953 0.8955 0.8956
1195.000000 0.8957 0.8959 0.8960 0.8961 0.8962
1200.000000 0.8964 0.8965 0.8966 0.8968 0.8969
1205.000000 0.8971 0.8973 0.8975 0.8977 0.8978
1210.000000 0.8980 0.8982 0.8984 0.8985 0.8987
1215.000000 0.8989 0.8994 0.8990 0.8990 0.8990
1220.000000 0.8989 0.8989 0.8988 0.8988 0.8988
1225.000000 0.8987 0.8985 0.8982 0.8980 0.8977
1230.000000 0.8975 0.8973 0.8970 0.8967 0.8963
1235.000000 0.8958 0.8954 0.8949 0.8936 0.8924
1240.000000 0.8911 0.8898 0.8885 0.8871 0.8867
1245.000000 0.8864 0.8861 0.8858 0.8855 0.8852
1250.000000 0.8850 0.8849 0.8849 0.8848 0.8847
1255.000000 0.8846 0.8846 0.8845 0.8844 0.8843
1260.000000 0.8842 0.8841 0.8840 0.8839 0.8837
1265.000000 0.8836 0.8833 0.8831 0.8828 0.8825
1270.000000 0.8822 0.8819 0.8817 0.8815 0.8814
1275.000000 0.8813 0.8812 0.8810 0.8806 0.8801
1280.000000 0.8797 0.8792 0.8786 0.8780 0.8773
1285.000000 0.8767 0.8758 0.8748 0.8738 0.8728
1290.000000 0.8721 0.8714 0.8706 0.8696 0.8685
1295.000000 0.8675 0.8665 0.8655 0.8645 0.8635
1300.000000 0.8625 0.8615 0.8601 0.8587 0.8574
1305.000000 0.8560 0.8547 0.8532 0.8517 0.8501
1310.000000 0.8486 0.8471 0.8456 0.8441 0.8425
1315.000000 0.8410 0.8392 0.8372 0.8352 0.8332
1320.000000 0.8312 0.8292 0.8272 0.8252 0.8213
1325.000000 0.8173 0.8132 0.8092 0.8052 0.8012
1330.000000 0.7972 0.7933 0.7893 0.7853 0.7810
1335.000000 0.7761 0.7712 0.7663 0.7613 0.7560
1340.000000 0.7484 0.7409 0.7338 0.7266 0.7194
1345.000000 0.7122 0.7047 0.6970 0.6878 0.6780
1350.000000 0.6701 0.6623 0.6569 0.6515 0.6462
1355.000000 0.6419 0.6380 0.6341 0.6280 0.6167
1360.000000 0.6047 0.5959 0.5976 0.6018 0.6022
1365.000000 0.5964 0.5860 0.5755 0.5651 0.5546
1370.000000 0.5441 0.5337 0.5232 0.5128 0.5027
1375.000000 0.4974 0.4923 0.4866 0.4807 0.4748
1380.000000 0.4692 0.4644 0.4595 0.4547 0.4499
1385.000000 0.4457 0.4416 0.4374 0.4340 0.4185
1390.000000 0.3901 0.3678 0.3528 0.3410 0.3271
1395.000000 0.3069 0.2867 0.2746 0.2729 0.2711
1400.000000 0.2722 0.2738 0.2871 0.3042 0.3212
1405.000000 0.3278 0.3283 0.3267 0.3271 0.3219
1410.000000 0.2715 0.2152 0.2379 0.3746 0.3728
1415.000000 0.3644 0.3496 0.3348 0.3200 0.3158
1420.000000 0.3166 0.3125 0.3198 0.3227 0.3269
1425.000000 0.3358 0.3541 0.3723 0.3906 0.4101
1430.000000 0.4436 0.4517 0.4554 0.4573 0.4592
1435.000000 0.4583 0.4580 0.4575 0.4560 0.4540
1440.000000 0.4516 0.4484 0.4432 0.4327 0.4162
1445.000000 0.3998 0.3833 0.3668 0.3588 0.3579
1450.000000 0.3580 0.3556 0.3589 0.3607 0.3701
1455.000000 0.3908 0.4125 0.4342 0.4493 0.4614
1460.000000 0.4717 0.4780 0.4833 0.4875 0.4913
1465.000000 0.4945 0.4965 0.4977 0.4979 0.4980
1470.000000 0.4987 0.5001 0.5033 0.5078 0.5141
1475.000000 0.5205 0.5270 0.5341 0.5420 0.5516
1480.000000 0.5612 0.5708 0.5804 0.5900 0.5996
1485.000000 0.6082 0.6179 0.6278 0.6366 0.6445
1490.000000 0.6512 0.6572 0.6622 0.6658 0.6694
1495.000000 0.6732 0.6771 0.6811 0.6840 0.6862
1500.000000 0.6884 0.6897 0.6906 0.6916 0.6920
1505.000000 0.6930 0.6937 0.6930 0.6914 0.6890
1510.000000 0.6864 0.6838 0.6813 0.6787 0.6762
1515.000000 0.6740 0.6718 0.6696 0.6674 0.6650
1520.000000 0.6626 0.6602 0.6578 0.6557 0.6538
1525.000000 0.6519 0.6499 0.6480 0.6461 0.6443
1530.000000 0.6424 0.6409 0.6406 0.6355 0.6402
1535.000000 0.6404 0.6408 0.6425 0.6455 0.6484
1540.000000 0.6512 0.6562 0.6593 0.6600 0.6604
1545.000000 0.6609 0.6614 0.6621 0.6629 0.6664
1550.000000 0.6704 0.6750 0.6811 0.6871 0.6922
1555.000000 0.6972 0.7022 0.7071 0.7118 0.7166
1560.000000 0.7214 0.7256 0.7298 0.7340 0.7375
1565.000000 0.7408 0.7453 0.7514 0.7586 0.7657
1570.000000 0.7730 0.7803 0.7867 0.7911 0.7955
1575.000000 0.7997 0.8034 0.8070 0.8104 0.8136
1580.000000 0.8168 0.8200 0.8222 0.8244 0.8265
1585.000000 0.8286 0.8304 0.8321 0.8338 0.8355
1590.000000 0.8364 0.8371 0.8354 0.8376 0.8375
1595.000000 0.8374 0.8362 0.8348 0.8335 0.8317
1600.000000 0.8297 0.8261 0.8221 0.8188 0.8136
1605.000000 0.8083 0.8029 0.7976 0.7923 0.7869
1610.000000 0.7816 0.7763 0.7709 0.7656 0.7603
1615.000000 0.7549 0.7496 0.7443 0.7389 0.7336
1620.000000 0.7283 0.7229 0.7176 0.7123 0.7069
1625.000000 0.7016 0.6963 0.6909 0.6856 0.6803
1630.000000 0.6749 0.6696 0.6643 0.6590 0.6569
1635.000000 0.6555 0.6549 0.6529 0.6470 0.6406
1640.000000 0.6311 0.6232 0.6159 0.6093 0.6028
1645.000000 0.5970 0.5919 0.5868 0.5826 0.5787
1650.000000 0.5775 0.5763 0.5752 0.5745 0.5738
1655.000000 0.5731 0.5729 0.5728 0.5733 0.5738
1660.000000 0.5780 0.5821 0.5909 0.5994 0.6040
1665.000000 0.6062 0.6069 0.6068 0.6076 0.6070
1670.000000 0.6052 0.5922 0.5774 0.5730 0.5740
1675.000000 0.5758 0.5779 0.5801 0.5842 0.5937
1680.000000 0.6214 0.6490 0.6751 0.6793 0.6823
1685.000000 0.6853 0.6900 0.6961 0.7037 0.7119
1690.000000 0.7229 0.7334 0.7435 0.7495 0.7551
1695.000000 0.7606 0.7652 0.7697 0.7776 0.7802
1700.000000 0.7814 0.7825 0.7835 0.7845 0.7854
1705.000000 0.7861 0.7866 0.7872 0.7877 0.7898
1710.000000 0.7952 0.8005 0.8053 0.8095 0.8124
1715.000000 0.8145 0.8159 0.8173 0.8187 0.8204
1720.000000 0.8221 0.8244 0.8268 0.8295 0.8325
1725.000000 0.8362 0.8402 0.8442 0.8486 0.8530
1730.000000 0.8574 0.8617 0.8655 0.8694 0.8709
1735.000000 0.8716 0.8723 0.8728 0.8733 0.8738
1740.000000 0.8743 0.8748 0.8753 0.8758 0.8763
1745.000000 0.8766 0.8764 0.8762 0.8760 0.8752
1750.000000 0.8744 0.8744 0.8744 0.8744 0.8744
1755.000000 0.8743 0.8741 0.8739 0.8737 0.8742
1760.000000 0.8746 0.8751 0.8755 0.8760 0.8765
1765.000000 0.8770 0.8776 0.8782 0.8790 0.8796
1770.000000 0.8825 0.8820 0.8812 0.8791 0.8773
1775.000000 0.8773 0.8773 0.8772 0.8771 0.8771
1780.000000 0.8770 0.8770 0.8770 0.8770 0.8770
1785.000000 0.8772 0.8773 0.8773 0.8772 0.8771
1790.000000 0.8769 0.8768 0.8767 0.8767 0.8768
1795.000000 0.8769 0.8770 0.8770 0.8766 0.8757
1800.000000 0.8748 0.8740 0.8731 0.8722 0.8717
1805.000000 0.8712 0.8707 0.8702 0.8698 0.8693
1810.000000 0.8688 0.8683 0.8681 0.8679 0.8676
1815.000000 0.8674 0.8672 0.8670 0.8668 0.8665
1820.000000 0.8663 0.8660 0.8657 0.8654 0.8651
1825.000000 0.8648 0.8645 0.8642 0.8641 0.8640
1830.000000 0.8639 0.8638 0.8637 0.8636 0.8635
1835.000000 0.8635 0.8639 0.8644 0.8675 0.8700
1840.000000 0.8723 0.8737 0.8736 0.8725 0.8714
1845.000000 0.8703 0.8697 0.8695 0.8699 0.8702
1850.000000 0.8705 0.8707 0.8709 0.8713 0.8718
1855.000000 0.8723 0.8728 0.8734 0.8740 0.8746
1860.000000 0.8752 0.8757 0.8763 0.8769 0.8775
1865.000000 0.8781 0.8789 0.8797 0.8803 0.8800
1870.000000 0.8797 0.8793 0.8785 0.8778 0.8772
1875.000000 0.8767 0.8763 0.8759 0.8754 0.8750
1880.000000 0.8748 0.8746 0.8743 0.8741 0.8739
1885.000000 0.8738 0.8737 0.8737 0.8736 0.8736
1890.000000 0.8734 0.8731 0.8727 0.8723 0.8719
1895.000000 0.8716 0.8712 0.8708 0.8701 0.8694
1900.000000 0.8688 0.8681 0.8674 0.8672 0.8675
1905.000000 0.8678 0.8681 0.8683 0.8684 0.8685
1910.000000 0.8686 0.8678 0.8669 0.8660 0.8650
1915.000000 0.8636 0.8622 0.8609 0.8595 0.8587
1920.000000 0.8580 0.8572 0.8565 0.8558 0.8550
1925.000000 0.8543 0.8536 0.8529 0.8522 0.8515
1930.000000 0.8508 0.8502 0.8498 0.8494 0.8491
1935.000000 0.8487 0.8483 0.8480 0.8476 0.8472
1940.000000 0.8468 0.8465 0.8464 0.8464 0.8463
1945.000000 0.8462 0.8462 0.8461 0.8461 0.8460
1950.000000 0.8459 0.8459 0.8458 0.8458 0.8457
1955.000000 0.8457 0.8456 0.8456 0.8455 0.8454
1960.000000 0.8447 0.8440 0.8433 0.8425 0.8413
1965.000000 0.8400 0.8386 0.8372 0.8359 0.8345
1970.000000 0.8332 0.8318 0.8305 0.8291 0.8277
1975.000000 0.8264 0.8245 0.8223 0.8201 0.8178
1980.000000 0.8154 0.8128 0.8103 0.8077 0.8052
1985.000000 0.8033 0.8015 0.7997 0.7983 0.7976
1990.000000 0.7968 0.7961 0.7953 0.7946 0.7940
1995.000000 0.7939 0.7938 0.7952 0.7937 0.7940
2000.000000 0.7944 0.7939 0.7935 0.7929 0.7923
2005.000000 0.7913 0.7903 0.7902 0.7902 0.7920
2010.000000 0.7938 0.7964 0.7991 0.8016 0.8042
2015.000000 0.8069 0.8096 0.8118 0.8141 0.8159
2020.000000 0.8178 0.8197 0.8216 0.8241 0.8266
2025.000000 0.8291 0.8317 0.8337 0.8358 0.8376
2030.000000 0.8395 0.8414 0.8433 0.8445 0.8458
2035.000000 0.8468 0.8478 0.8483 0.8488 0.8491
2040.000000 0.8495 0.8498 0.8501 0.8504 0.8507
2045.000000 0.8509 0.8511 0.8512 0.8514 0.8515
2050.000000 0.8517 0.8518 0.8519 0.8519 0.8520
2055.000000 0.8520 0.8521 0.8521 0.8522 0.8522
2060.000000 0.8522 0.8522 0.8523 0.8523 0.8523
2065.000000 0.8523 0.8524 0.8524 0.8524 0.8524
2070.000000 0.8525 0.8525 0.8525 0.8525 0.8526
2075.000000 0.8526 0.8526 0.8526 0.8527 0.8527
2080.000000 0.8528 0.8528 0.8529 0.8529 0.8530
2085.000000 0.8530 0.8531 0.8531 0.8532 0.8532
2090.000000 0.8533 0.8533 0.8534 0.8534 0.8535
2095.000000 0.8535 0.8535 0.8535 0.8536 0.8536
2100.000000 0.8536 0.8536 0.8537 0.8537 0.8537
2105.000000 0.8537 0.8538 0.8538 0.8539 0.8539
2110.000000 0.8540 0.8540 0.8541 0.8542 0.8543
2115.000000 0.8543 0.8544 0.8545 0.8546 0.8546
2120.000000 0.8547 0.8548 0.8549 0.8549 0.8550
2125.000000 0.8550 0.8551 0.8551 0.8552 0.8552
2130.000000 0.8553 0.8553 0.8554 0.8554 0.8554
2135.000000 0.8554 0.8555 0.8555 0.8556 0.8556
2140.000000 0.8557 0.8557 0.8557 0.8557 0.8558
2145.000000 0.8558 0.8559 0.8559 0.8559 0.8559
2150.000000 0.8560 0.8560 0.8561 0.8561 0.8562
2155.000000 0.8562 0.8562 0.8562 0.8563 0.8563
2160.000000 0.8564 0.8564 0.8564 0.8564 0.8565
2165.000000 0.8565 0.8566 0.8566 0.8567 0.8567
2170.000000 0.8567 0.8567 0.8568 0.8568 0.8569
2175.000000 0.8569 0.8569 0.8569 0.8570 0.8570
2180.000000 0.8571 0.8571 0.8572 0.8572 0.8572
2185.000000 0.8572 0.8572 0.8571 0.8570 0.8569
2190.000000 0.8569 0.8569 0.8569 0.8569 0.8569
2195.000000 0.8569 0.8569 0.8569 0.8569 0.8567
2200.000000 0.8565 0.8562 0.8559 0.8555 0.8552
2205.000000 0.8549 0.8546 0.8543 0.8540 0.8537
2210.000000 0.8534 0.8531 0.8528 0.8524 0.8521
2215.000000 0.8518 0.8515 0.8511 0.8508 0.8505
2220.000000 0.8502 0.8498 0.8495 0.8492 0.8489
2225.000000 0.8486 0.8484 0.8482 0.8480 0.8478
2230.000000 0.8477 0.8475 0.8474 0.8472 0.8470
2235.000000 0.8469 0.8469 0.8468 0.8467 0.8467
2240.000000 0.8468 0.8469 0.8471 0.8473 0.8475
2245.000000 0.8476 0.8478 0.8480 0.8482 0.8483
2250.000000 0.8485 0.8494 0.8504 0.8514 0.8525
2255.000000 0.8527 0.8530 0.8533 0.8536 0.8534
2260.000000 0.8532 0.8529 0.8527 0.8525 0.8523
2265.000000 0.8521 0.8519 0.8518 0.8518 0.8519
2270.000000 0.8520 0.8520 0.8521 0.8521 0.8522
2275.000000 0.8523 0.8524 0.8525 0.8527 0.8528
2280.000000 0.8529 0.8530 0.8531 0.8532 0.8533
2285.000000 0.8534 0.8535 0.8536 0.8538 0.8539
2290.000000 0.8540 0.8541 0.8542 0.8543 0.8544
2295.000000 0.8545 0.8546 0.8547 0.8549 0.8550
2300.000000 0.8552 0.8553 0.8555 0.8556 0.8558
2305.000000 0.8559 0.8561 0.8562 0.8564 0.8565
2310.000000 0.8566 0.8567 0.8569 0.8570 0.8572
2315.000000 0.8573 0.8574 0.8575 0.8577 0.8578
2320.000000 0.8579 0.8580 0.8581 0.8582 0.8583
2325.000000 0.8584 0.8585 0.8585 0.8585 0.8585
2330.000000 0.8586 0.8586 0.8586 0.8586 0.8586
2335.000000 0.8583 0.8581 0.8577 0.8574 0.8571
2340.000000 0.8568 0.8564 0.8560 0.8551 0.8542
2345.000000 0.8533 0.8525 0.8516 0.8507 0.8504
2350.000000 0.8502 0.8508 0.8514 0.8521 0.8528
2355.000000 0.8533 0.8539 0.8542 0.8546 0.8547
2360.000000 0.8549 0.8550 0.8551 0.8550 0.8549
2365.000000 0.8547 0.8545 0.8543 0.8541 0.8533
2370.000000 0.8526 0.8517 0.8509 0.8501 0.8493
2375.000000 0.8484 0.8476 0.8466 0.8457 0.8447
2380.000000 0.8438 0.8433 0.8428 0.8423 0.8419
2385.000000 0.8414 0.8409 0.8406 0.8403 0.8403
2390.000000 0.8404 0.8404 0.8405 0.8406 0.8407
2395.000000 0.8408 0.8409 0.8410 0.8412 0.8413
2400.000000 0.8414 0.8415 0.8417 0.8418 0.8420
2405.000000 0.8421 0.8423 0.8425 0.8427 0.8428
2410.000000 0.8430 0.8432 0.8434 0.8435 0.8437
2415.000000 0.8438 0.8440 0.8441 0.8443 0.8444
2420.000000 0.8446 0.8447 0.8449 0.8450 0.8452
2425.000000 0.8453 0.8454 0.8454 0.8455 0.8455
2430.000000 0.8455 0.8455 0.8456 0.8456 0.8456
2435.000000 0.8456 0.8457 0.8457 0.8457 0.8457
2440.000000 0.8458 0.8458 0.8458 0.8457 0.8457
2445.000000 0.8455 0.8453 0.8451 0.8449 0.8447
2450.000000 0.8445 0.8443 0.8441 0.8439 0.8437
2455.000000 0.8435 0.8433 0.8431 0.8430 0.8428
2460.000000 0.8426 0.8423 0.8421 0.8418 0.8416
2465.000000 0.8413 0.8410 0.8407 0.8405 0.8402
2470.000000 0.8400 0.8397 0.8395 0.8393 0.8392
2475.000000 0.8390 0.8388 0.8386 0.8384 0.8382
2480.000000 0.8380 0.8378 0.8376 0.8374 0.8372
2485.000000 0.8370 0.8369 0.8368 0.8368 0.8368
2490.000000 0.8368 0.8368 0.8369 0.8369 0.8370
