##TITLE=Propene, 1-chloro- (ABOUT 83% CIS)
$$ ABOUT 83% CIS ISOMER
##JCAMP-DX=4.24
$$ By DXEDIT 1.05 (RS McDonald)
##DATA TYPE=INFRARED SPECTRUM
##CLASS=COBLENTZ III
##ORIGIN=DOW CHEMICAL COMPANY
##OWNER=COPYRIGHT (C) 1988 by COBLENTZ SOCIETY INC.
Collection (C) 2018 copyright by the U.S. Secretary of Commerce
on behalf of the United States of America. All rights reserved.
##DATE=1958/10/27
##NAMES=(1Z)-1-chloro-1-propene
##CAS REGISTRY NO=590-21-6
##MOLFORM=C3 H5 Cl
##SOURCE REFERENCE=COBLENTZ NO. 5693
##$NIST SOURCE=COBLENTZ
##$NIST IMAGE=cob5693
##SPECTROMETER/DATA SYSTEM=DOW KBr FOREPRISM-GRATING
##INSTRUMENT PARAMETERS=BLAZED AT 3.5, 12.0, 20.0 MICRON AND CHANGED AT 5.0, 7.5, 14.9 MICRON
##STATE=SOLUTION (10% CCl4 FOR 2.6-7.5, 10% CS2 FOR 7.5-22 MICRON)
##PATH LENGTH=0.011 CM, 0.011 CM
$$SPECTRAL CONTAMINATION DUE TO CS2 AROUND 850 AND CCl4 AROUND 1550 CM^-^1 HAVE BEEN SUBTRACTED
##SAMPLING PROCEDURE=TRANSMISSION
##RESOLUTION=2
##DATA PROCESSING=DIGITIZED BY COBLENTZ SOCIETY (BATCH I) FROM HARD COPY
##XUNITS=1/CM
##YUNITS=TRANSMITTANCE
##XFACTOR=1
##YFACTOR=1
##DELTAX=1
##FIRSTX=3820
##LASTX=450
##FIRSTY=0.929
##MAXX=3820
##MINX=450
##MAXY=0.9629
##MINY=0.0149
##NPOINTS=3371
##XYDATA=(X++(Y..Y))
3820.000000 0.9290 0.9290 0.9291 0.9291 0.9291
3815.000000 0.9291 0.9284 0.9277 0.9277 0.9287
3810.000000 0.9293 0.9283 0.9278 0.9290 0.9294
3805.000000 0.9294 0.9294 0.9294 0.9281 0.9280
3800.000000 0.9281 0.9281 0.9281 0.9284 0.9294
3795.000000 0.9286 0.9298 0.9298 0.9298 0.9299
3790.000000 0.9300 0.9300 0.9301 0.9302 0.9303
3785.000000 0.9304 0.9296 0.9291 0.9292 0.9303
3780.000000 0.9308 0.9297 0.9308 0.9310 0.9311
3775.000000 0.9297 0.9312 0.9312 0.9313 0.9313
3770.000000 0.9314 0.9314 0.9315 0.9316 0.9317
3765.000000 0.9317 0.9318 0.9318 0.9319 0.9319
3760.000000 0.9328 0.9327 0.9321 0.9321 0.9322
3755.000000 0.9322 0.9324 0.9324 0.9325 0.9325
3750.000000 0.9326 0.9326 0.9327 0.9327 0.9328
3745.000000 0.9328 0.9329 0.9329 0.9329 0.9329
3740.000000 0.9331 0.9335 0.9346 0.9346 0.9346
3735.000000 0.9346 0.9339 0.9332 0.9340 0.9345
3730.000000 0.9345 0.9343 0.9343 0.9343 0.9342
3725.000000 0.9341 0.9341 0.9340 0.9340 0.9339
3720.000000 0.9339 0.9323 0.9324 0.9337 0.9337
3715.000000 0.9335 0.9335 0.9334 0.9339 0.9343
3710.000000 0.9339 0.9347 0.9347 0.9346 0.9346
3705.000000 0.9345 0.9344 0.9343 0.9343 0.9341
3700.000000 0.9341 0.9340 0.9340 0.9339 0.9327
3695.000000 0.9324 0.9323 0.9321 0.9319 0.9318
3690.000000 0.9317 0.9316 0.9315 0.9311 0.9299
3685.000000 0.9297 0.9296 0.9295 0.9294 0.9293
3680.000000 0.9292 0.9290 0.9289 0.9288 0.9286
3675.000000 0.9286 0.9286 0.9285 0.9283 0.9283
3670.000000 0.9295 0.9283 0.9282 0.9280 0.9280
3665.000000 0.9278 0.9278 0.9278 0.9277 0.9275
3660.000000 0.9275 0.9275 0.9275 0.9274 0.9274
3655.000000 0.9273 0.9272 0.9271 0.9271 0.9270
3650.000000 0.9270 0.9269 0.9269 0.9268 0.9267
3645.000000 0.9266 0.9264 0.9263 0.9262 0.9261
3640.000000 0.9260 0.9259 0.9258 0.9257 0.9256
3635.000000 0.9255 0.9254 0.9256 0.9266 0.9265
3630.000000 0.9260 0.9249 0.9253 0.9261 0.9260
3625.000000 0.9259 0.9258 0.9257 0.9256 0.9255
3620.000000 0.9254 0.9252 0.9252 0.9251 0.9250
3615.000000 0.9250 0.9250 0.9249 0.9249 0.9249
3610.000000 0.9249 0.9249 0.9238 0.9253 0.9256
3605.000000 0.9260 0.9263 0.9262 0.9259 0.9271
3600.000000 0.9268 0.9263 0.9273 0.9284 0.9287
3595.000000 0.9292 0.9298 0.9306 0.9314 0.9322
3590.000000 0.9331 0.9338 0.9346 0.9350 0.9355
3585.000000 0.9359 0.9363 0.9366 0.9370 0.9373
3580.000000 0.9378 0.9381 0.9384 0.9386 0.9385
3575.000000 0.9382 0.9395 0.9396 0.9394 0.9386
3570.000000 0.9389 0.9389 0.9391 0.9392 0.9394
3565.000000 0.9395 0.9396 0.9397 0.9398 0.9399
3560.000000 0.9400 0.9401 0.9402 0.9402 0.9404
3555.000000 0.9418 0.9405 0.9408 0.9421 0.9422
3550.000000 0.9420 0.9414 0.9425 0.9425 0.9425
3545.000000 0.9419 0.9416 0.9421 0.9419 0.9416
3540.000000 0.9404 0.9404 0.9396 0.9399 0.9400
3535.000000 0.9396 0.9395 0.9392 0.9392 0.9391
3530.000000 0.9393 0.9380 0.9381 0.9384 0.9385
3525.000000 0.9387 0.9388 0.9391 0.9394 0.9396
3520.000000 0.9399 0.9401 0.9403 0.9405 0.9408
3515.000000 0.9410 0.9413 0.9415 0.9417 0.9420
3510.000000 0.9423 0.9424 0.9426 0.9427 0.9429
3505.000000 0.9430 0.9432 0.9433 0.9435 0.9436
3500.000000 0.9437 0.9439 0.9440 0.9442 0.9444
3495.000000 0.9445 0.9448 0.9449 0.9451 0.9452
3490.000000 0.9454 0.9455 0.9457 0.9459 0.9462
3485.000000 0.9464 0.9466 0.9468 0.9470 0.9472
3480.000000 0.9476 0.9478 0.9480 0.9482 0.9484
3475.000000 0.9485 0.9489 0.9491 0.9492 0.9495
3470.000000 0.9498 0.9500 0.9503 0.9505 0.9507
3465.000000 0.9509 0.9512 0.9515 0.9518 0.9521
3460.000000 0.9524 0.9528 0.9532 0.9534 0.9537
3455.000000 0.9541 0.9544 0.9547 0.9550 0.9554
3450.000000 0.9557 0.9560 0.9563 0.9566 0.9569
3445.000000 0.9572 0.9575 0.9579 0.9582 0.9585
3440.000000 0.9589 0.9589 0.9591 0.9592 0.9593
3435.000000 0.9595 0.9596 0.9596 0.9598 0.9599
3430.000000 0.9601 0.9602 0.9603 0.9604 0.9607
3425.000000 0.9595 0.9607 0.9610 0.9611 0.9612
3420.000000 0.9614 0.9615 0.9616 0.9617 0.9618
3415.000000 0.9619 0.9620 0.9620 0.9620 0.9620
3410.000000 0.9620 0.9620 0.9621 0.9629 0.9628
3405.000000 0.9621 0.9621 0.9621 0.9621 0.9621
3400.000000 0.9622 0.9622 0.9622 0.9620 0.9618
3395.000000 0.9616 0.9613 0.9611 0.9609 0.9607
3390.000000 0.9605 0.9602 0.9600 0.9598 0.9596
3385.000000 0.9590 0.9585 0.9579 0.9572 0.9565
3380.000000 0.9559 0.9553 0.9546 0.9540 0.9533
3375.000000 0.9527 0.9521 0.9516 0.9512 0.9507
3370.000000 0.9517 0.9501 0.9496 0.9491 0.9488
3365.000000 0.9483 0.9483 0.9483 0.9483 0.9483
3360.000000 0.9485 0.9486 0.9487 0.9487 0.9487
3355.000000 0.9487 0.9489 0.9491 0.9490 0.9490
3350.000000 0.9493 0.9494 0.9495 0.9495 0.9496
3345.000000 0.9508 0.9511 0.9499 0.9511 0.9498
3340.000000 0.9498 0.9498 0.9514 0.9513 0.9513
3335.000000 0.9500 0.9501 0.9501 0.9502 0.9502
3330.000000 0.9503 0.9503 0.9503 0.9503 0.9504
3325.000000 0.9504 0.9505 0.9505 0.9506 0.9506
3320.000000 0.9507 0.9507 0.9507 0.9507 0.9507
3315.000000 0.9507 0.9507 0.9506 0.9520 0.9520
3310.000000 0.9520 0.9520 0.9518 0.9509 0.9520
3305.000000 0.9520 0.9516 0.9504 0.9504 0.9503
3300.000000 0.9502 0.9501 0.9500 0.9499 0.9498
3295.000000 0.9496 0.9495 0.9494 0.9493 0.9492
3290.000000 0.9490 0.9489 0.9486 0.9481 0.9477
3285.000000 0.9472 0.9468 0.9478 0.9472 0.9455
3280.000000 0.9455 0.9462 0.9454 0.9437 0.9438
3275.000000 0.9441 0.9438 0.9433 0.9429 0.9427
3270.000000 0.9425 0.9423 0.9420 0.9418 0.9417
3265.000000 0.9415 0.9413 0.9411 0.9409 0.9414
3260.000000 0.9419 0.9427 0.9434 0.9440 0.9434
3255.000000 0.9448 0.9448 0.9448 0.9451 0.9451
3250.000000 0.9452 0.9452 0.9454 0.9454 0.9455
3245.000000 0.9447 0.9449 0.9456 0.9457 0.9457
3240.000000 0.9458 0.9458 0.9459 0.9459 0.9460
3235.000000 0.9460 0.9460 0.9460 0.9459 0.9457
3230.000000 0.9455 0.9454 0.9453 0.9449 0.9436
3225.000000 0.9439 0.9448 0.9448 0.9447 0.9444
3220.000000 0.9444 0.9443 0.9441 0.9441 0.9440
3215.000000 0.9437 0.9436 0.9434 0.9433 0.9432
3210.000000 0.9431 0.9429 0.9415 0.9411 0.9410
3205.000000 0.9408 0.9407 0.9406 0.9405 0.9403
3200.000000 0.9404 0.9412 0.9402 0.9407 0.9400
3195.000000 0.9409 0.9408 0.9406 0.9405 0.9403
3190.000000 0.9394 0.9392 0.9397 0.9395 0.9385
3185.000000 0.9376 0.9375 0.9373 0.9371 0.9369
3180.000000 0.9367 0.9365 0.9363 0.9361 0.9358
3175.000000 0.9356 0.9354 0.9352 0.9350 0.9348
3170.000000 0.9346 0.9343 0.9340 0.9336 0.9333
3165.000000 0.9328 0.9333 0.9337 0.9326 0.9324
3160.000000 0.9327 0.9324 0.9310 0.9312 0.9302
3155.000000 0.9295 0.9343 0.9303 0.9299 0.9293
3150.000000 0.9290 0.9282 0.9263 0.9257 0.9251
3145.000000 0.9245 0.9239 0.9233 0.9226 0.9226
3140.000000 0.9229 0.9223 0.9218 0.9211 0.9205
3135.000000 0.9199 0.9192 0.9185 0.9180 0.9173
3130.000000 0.9166 0.9160 0.9154 0.9146 0.9139
3125.000000 0.9131 0.9123 0.9115 0.9107 0.9099
3120.000000 0.9092 0.9080 0.9069 0.9053 0.9038
3115.000000 0.9023 0.9007 0.8990 0.8973 0.8951
3110.000000 0.8929 0.8907 0.8885 0.8864 0.8841
3105.000000 0.8810 0.8780 0.8697 0.8614 0.8503
3100.000000 0.8405 0.8280 0.8153 0.8039 0.7925
3095.000000 0.7811 0.7685 0.7557 0.7247 0.7237
3090.000000 0.7235 0.7223 0.7214 0.7243 0.7272
3085.000000 0.7367 0.7469 0.7575 0.7684 0.7791
3080.000000 0.7898 0.7993 0.8151 0.8120 0.8137
3075.000000 0.8139 0.8151 0.8094 0.8023 0.7961
3070.000000 0.7901 0.7831 0.7752 0.7772 0.7770
3065.000000 0.7823 0.7876 0.7918 0.7971 0.8024
3060.000000 0.8082 0.8143 0.8197 0.8209 0.8219
3055.000000 0.8232 0.8240 0.8217 0.8203 0.8123
3050.000000 0.8040 0.7952 0.7864 0.7775 0.7696
3045.000000 0.7611 0.7533 0.7454 0.7379 0.7302
3040.000000 0.7224 0.7135 0.7046 0.6956 0.6856
3035.000000 0.6758 0.6666 0.6629 0.6593 0.6684
3030.000000 0.6770 0.6858 0.6956 0.7047 0.7138
3025.000000 0.7217 0.7295 0.7309 0.7324 0.7332
3020.000000 0.7339 0.7356 0.7366 0.7393 0.7411
3015.000000 0.7451 0.7493 0.7536 0.7578 0.7614
3010.000000 0.7651 0.7699 0.7746 0.7756 0.7779
3005.000000 0.7798 0.7807 0.7806 0.7799 0.7800
3000.000000 0.7806 0.7750 0.7690 0.7621 0.7554
2995.000000 0.7499 0.7443 0.7399 0.7352 0.7302
2990.000000 0.7252 0.7181 0.7108 0.7108 0.7109
2985.000000 0.7109 0.7111 0.7111 0.7112 0.7112
2980.000000 0.7115 0.7123 0.7121 0.7110 0.7112
2975.000000 0.7103 0.7095 0.7085 0.7076 0.7063
2970.000000 0.7053 0.7047 0.7040 0.7011 0.6985
2965.000000 0.6944 0.6903 0.6849 0.6795 0.6714
2960.000000 0.6633 0.6562 0.6480 0.6390 0.6310
2955.000000 0.6229 0.6149 0.6075 0.5995 0.5925
2950.000000 0.5855 0.5857 0.5863 0.5890 0.5923
2945.000000 0.5967 0.6018 0.6062 0.6109 0.6150
2940.000000 0.6200 0.6247 0.6292 0.6337 0.6448
2935.000000 0.6384 0.6394 0.6386 0.6379 0.6167
2930.000000 0.5956 0.5703 0.5451 0.5199 0.4947
2925.000000 0.4694 0.4442 0.4358 0.4248 0.4265
2920.000000 0.4263 0.4590 0.4918 0.5433 0.5949
2915.000000 0.6389 0.6828 0.6949 0.7070 0.7168
2910.000000 0.7269 0.7343 0.7428 0.7495 0.7551
2905.000000 0.7608 0.7666 0.7712 0.7759 0.7805
2900.000000 0.7851 0.7896 0.7941 0.7967 0.7995
2895.000000 0.8015 0.8036 0.8048 0.8060 0.8072
2890.000000 0.8072 0.8088 0.8087 0.8086 0.8081
2885.000000 0.8051 0.8019 0.7990 0.7959 0.7945
2880.000000 0.7934 0.7938 0.7945 0.7948 0.7977
2875.000000 0.7993 0.8008 0.8022 0.8036 0.8039
2870.000000 0.8043 0.8035 0.8027 0.8011 0.7996
2865.000000 0.7923 0.7851 0.7628 0.7405 0.7182
2860.000000 0.6958 0.6823 0.6650 0.6686 0.6683
2855.000000 0.6679 0.6667 0.6943 0.7221 0.7546
2850.000000 0.7873 0.8071 0.8268 0.8323 0.8384
2845.000000 0.8430 0.8471 0.8513 0.8568 0.8615
2840.000000 0.8655 0.8689 0.8732 0.8764 0.8788
2835.000000 0.8804 0.8826 0.8838 0.8854 0.8869
2830.000000 0.8883 0.8908 0.8914 0.8935 0.8949
2825.000000 0.8946 0.8957 0.8982 0.8981 0.9004
2820.000000 0.9016 0.9024 0.9024 0.9032 0.9041
2815.000000 0.9048 0.9057 0.9066 0.9074 0.9082
2810.000000 0.9091 0.9097 0.9112 0.9122 0.9128
2805.000000 0.9132 0.9138 0.9142 0.9147 0.9152
2800.000000 0.9157 0.9162 0.9167 0.9171 0.9177
2795.000000 0.9182 0.9187 0.9191 0.9193 0.9188
2790.000000 0.9201 0.9194 0.9200 0.9204 0.9208
2785.000000 0.9217 0.9230 0.9226 0.9239 0.9233
2780.000000 0.9243 0.9247 0.9250 0.9253 0.9256
2775.000000 0.9259 0.9262 0.9264 0.9267 0.9271
2770.000000 0.9274 0.9276 0.9279 0.9279 0.9279
2765.000000 0.9281 0.9282 0.9282 0.9283 0.9283
2760.000000 0.9284 0.9284 0.9284 0.9283 0.9282
2755.000000 0.9281 0.9279 0.9257 0.9234 0.9207
2750.000000 0.9182 0.9158 0.9135 0.9116 0.9097
2745.000000 0.9081 0.9065 0.9055 0.9043 0.9044
2740.000000 0.9020 0.9053 0.9061 0.9074 0.9087
2735.000000 0.9101 0.9113 0.9129 0.9144 0.9159
2730.000000 0.9173 0.9182 0.9191 0.9200 0.9208
2725.000000 0.9215 0.9223 0.9232 0.9240 0.9248
2720.000000 0.9256 0.9263 0.9268 0.9271 0.9275
2715.000000 0.9278 0.9283 0.9287 0.9291 0.9293
2710.000000 0.9295 0.9295 0.9295 0.9295 0.9296
2705.000000 0.9296 0.9296 0.9296 0.9296 0.9296
2700.000000 0.9296 0.9296 0.9297 0.9297 0.9297
2695.000000 0.9298 0.9299 0.9300 0.9301 0.9302
2690.000000 0.9303 0.9304 0.9305 0.9306 0.9307
2685.000000 0.9308 0.9309 0.9310 0.9311 0.9312
2680.000000 0.9315 0.9316 0.9318 0.9319 0.9320
2675.000000 0.9322 0.9323 0.9325 0.9327 0.9329
2670.000000 0.9330 0.9332 0.9334 0.9335 0.9353
2665.000000 0.9338 0.9340 0.9340 0.9341 0.9342
2660.000000 0.9343 0.9343 0.9345 0.9359 0.9360
2655.000000 0.9361 0.9362 0.9363 0.9364 0.9360
2650.000000 0.9352 0.9352 0.9359 0.9365 0.9362
2645.000000 0.9347 0.9336 0.9329 0.9331 0.9317
2640.000000 0.9306 0.9301 0.9298 0.9298 0.9299
2635.000000 0.9299 0.9314 0.9314 0.9314 0.9300
2630.000000 0.9303 0.9316 0.9316 0.9316 0.9317
2625.000000 0.9317 0.9317 0.9317 0.9318 0.9318
2620.000000 0.9319 0.9319 0.9320 0.9320 0.9321
2615.000000 0.9321 0.9322 0.9322 0.9323 0.9323
2610.000000 0.9324 0.9324 0.9325 0.9325 0.9326
2605.000000 0.9326 0.9327 0.9327 0.9328 0.9328
2600.000000 0.9329 0.9329 0.9330 0.9330 0.9331
2595.000000 0.9331 0.9332 0.9332 0.9332 0.9332
2590.000000 0.9333 0.9333 0.9333 0.9333 0.9333
2585.000000 0.9333 0.9335 0.9335 0.9336 0.9336
2580.000000 0.9336 0.9336 0.9336 0.9336 0.9338
2575.000000 0.9338 0.9338 0.9338 0.9339 0.9339
2570.000000 0.9340 0.9340 0.9340 0.9340 0.9340
2565.000000 0.9340 0.9342 0.9342 0.9342 0.9340
2560.000000 0.9340 0.9340 0.9340 0.9340 0.9340
2555.000000 0.9340 0.9340 0.9340 0.9340 0.9339
2550.000000 0.9339 0.9339 0.9339 0.9338 0.9338
2545.000000 0.9338 0.9338 0.9338 0.9338 0.9336
2540.000000 0.9336 0.9336 0.9336 0.9336 0.9335
2535.000000 0.9335 0.9335 0.9334 0.9334 0.9334
2530.000000 0.9334 0.9334 0.9334 0.9332 0.9332
2525.000000 0.9332 0.9332 0.9332 0.9332 0.9332
2520.000000 0.9332 0.9331 0.9331 0.9331 0.9331
2515.000000 0.9330 0.9330 0.9330 0.9330 0.9329
2510.000000 0.9329 0.9329 0.9329 0.9329 0.9329
2505.000000 0.9329 0.9329 0.9329 0.9329 0.9329
2500.000000 0.9329 0.9329 0.9329 0.9329 0.9329
2495.000000 0.9329 0.9329 0.9329 0.9329 0.9329
2490.000000 0.9330 0.9330 0.9330 0.9330 0.9330
2485.000000 0.9330 0.9330 0.9330 0.9329 0.9339
2480.000000 0.9344 0.9344 0.9344 0.9343 0.9343
2475.000000 0.9343 0.9343 0.9342 0.9342 0.9342
2470.000000 0.9342 0.9341 0.9341 0.9341 0.9341
2465.000000 0.9340 0.9340 0.9340 0.9340 0.9340
2460.000000 0.9340 0.9338 0.9332 0.9331 0.9331
2455.000000 0.9323 0.9323 0.9332 0.9337 0.9337
2450.000000 0.9326 0.9334 0.9337 0.9337 0.9337
2445.000000 0.9336 0.9336 0.9336 0.9336 0.9336
2440.000000 0.9336 0.9336 0.9336 0.9336 0.9336
2435.000000 0.9335 0.9335 0.9334 0.9334 0.9334
2430.000000 0.9334 0.9333 0.9333 0.9332 0.9332
2425.000000 0.9332 0.9332 0.9331 0.9331 0.9330
2420.000000 0.9328 0.9327 0.9326 0.9324 0.9323
2415.000000 0.9322 0.9321 0.9319 0.9318 0.9317
2410.000000 0.9316 0.9318 0.9323 0.9315 0.9323
2405.000000 0.9320 0.9317 0.9316 0.9314 0.9314
2400.000000 0.9313 0.9312 0.9312 0.9310 0.9310
2395.000000 0.9309 0.9307 0.9307 0.9307 0.9306
2390.000000 0.9305 0.9318 0.9318 0.9317 0.9317
2385.000000 0.9318 0.9331 0.9329 0.9333 0.9344
2380.000000 0.9344 0.9351 0.9361 0.9368 0.9379
2375.000000 0.9380 0.9388 0.9396 0.9397 0.9400
2370.000000 0.9402 0.9391 0.9390 0.9390 0.9392
2365.000000 0.9393 0.9395 0.9396 0.9399 0.9400
2360.000000 0.9415 0.9418 0.9432 0.9436 0.9453
2355.000000 0.9465 0.9466 0.9469 0.9473 0.9470
2350.000000 0.9465 0.9469 0.9481 0.9499 0.9509
2345.000000 0.9510 0.9503 0.9499 0.9502 0.9502
2340.000000 0.9506 0.9495 0.9508 0.9510 0.9495
2335.000000 0.9494 0.9505 0.9501 0.9497 0.9494
2330.000000 0.9503 0.9497 0.9491 0.9484 0.9484
2325.000000 0.9476 0.9476 0.9464 0.9453 0.9443
2320.000000 0.9432 0.9421 0.9410 0.9401 0.9391
2315.000000 0.9382 0.9375 0.9367 0.9360 0.9354
2310.000000 0.9350 0.9349 0.9348 0.9348 0.9348
2305.000000 0.9348 0.9349 0.9349 0.9350 0.9350
2300.000000 0.9351 0.9357 0.9368 0.9368 0.9369
2295.000000 0.9369 0.9370 0.9371 0.9372 0.9372
2290.000000 0.9373 0.9373 0.9363 0.9359 0.9359
2285.000000 0.9359 0.9359 0.9346 0.9345 0.9349
2280.000000 0.9354 0.9362 0.9358 0.9359 0.9358
2275.000000 0.9348 0.9350 0.9353 0.9350 0.9341
2270.000000 0.9343 0.9339 0.9333 0.9334 0.9336
2265.000000 0.9330 0.9326 0.9327 0.9329 0.9320
2260.000000 0.9318 0.9319 0.9309 0.9308 0.9310
2255.000000 0.9312 0.9299 0.9301 0.9303 0.9302
2250.000000 0.9292 0.9292 0.9295 0.9298 0.9301
2245.000000 0.9300 0.9294 0.9297 0.9301 0.9304
2240.000000 0.9309 0.9312 0.9316 0.9319 0.9324
2235.000000 0.9319 0.9318 0.9322 0.9328 0.9332
2230.000000 0.9337 0.9340 0.9345 0.9349 0.9353
2225.000000 0.9356 0.9359 0.9360 0.9362 0.9350
2220.000000 0.9350 0.9350 0.9352 0.9352 0.9353
2215.000000 0.9353 0.9353 0.9353 0.9355 0.9355
2210.000000 0.9356 0.9358 0.9361 0.9364 0.9368
2205.000000 0.9370 0.9373 0.9376 0.9379 0.9381
2200.000000 0.9384 0.9386 0.9390 0.9390 0.9389
2195.000000 0.9379 0.9393 0.9390 0.9380 0.9380
2190.000000 0.9382 0.9383 0.9383 0.9385 0.9386
2185.000000 0.9387 0.9396 0.9395 0.9391 0.9391
2180.000000 0.9391 0.9390 0.9402 0.9405 0.9405
2175.000000 0.9405 0.9405 0.9405 0.9407 0.9407
2170.000000 0.9407 0.9405 0.9392 0.9392 0.9393
2165.000000 0.9394 0.9396 0.9396 0.9397 0.9398
2160.000000 0.9399 0.9400 0.9401 0.9401 0.9402
2155.000000 0.9403 0.9404 0.9405 0.9406 0.9406
2150.000000 0.9407 0.9407 0.9408 0.9408 0.9409
2145.000000 0.9409 0.9410 0.9410 0.9411 0.9411
2140.000000 0.9412 0.9412 0.9413 0.9413 0.9414
2135.000000 0.9414 0.9415 0.9415 0.9416 0.9416
2130.000000 0.9417 0.9417 0.9418 0.9418 0.9419
2125.000000 0.9419 0.9420 0.9420 0.9409 0.9419
2120.000000 0.9421 0.9421 0.9421 0.9421 0.9421
2115.000000 0.9421 0.9421 0.9420 0.9420 0.9420
2110.000000 0.9420 0.9420 0.9420 0.9420 0.9420
2105.000000 0.9420 0.9420 0.9420 0.9420 0.9419
2100.000000 0.9419 0.9419 0.9408 0.9404 0.9416
2095.000000 0.9418 0.9405 0.9416 0.9418 0.9417
2090.000000 0.9417 0.9417 0.9417 0.9415 0.9415
2085.000000 0.9415 0.9415 0.9414 0.9414 0.9414
2080.000000 0.9414 0.9413 0.9413 0.9412 0.9412
2075.000000 0.9411 0.9410 0.9409 0.9409 0.9408
2070.000000 0.9407 0.9406 0.9405 0.9404 0.9404
2065.000000 0.9403 0.9401 0.9400 0.9400 0.9399
2060.000000 0.9398 0.9397 0.9397 0.9400 0.9410
2055.000000 0.9409 0.9409 0.9408 0.9400 0.9398
2050.000000 0.9403 0.9396 0.9388 0.9385 0.9385
2045.000000 0.9385 0.9384 0.9383 0.9381 0.9381
2040.000000 0.9381 0.9380 0.9378 0.9378 0.9378
2035.000000 0.9377 0.9376 0.9375 0.9374 0.9374
2030.000000 0.9374 0.9373 0.9377 0.9381 0.9372
2025.000000 0.9378 0.9386 0.9385 0.9385 0.9383
2020.000000 0.9382 0.9380 0.9379 0.9378 0.9377
2015.000000 0.9374 0.9373 0.9371 0.9370 0.9367
2010.000000 0.9365 0.9362 0.9359 0.9355 0.9352
2005.000000 0.9347 0.9345 0.9339 0.9334 0.9313
2000.000000 0.9293 0.9086 0.8801 0.8806 0.8810
1995.000000 0.8887 0.8966 0.9046 0.9125 0.9205
1990.000000 0.9272 0.9275 0.9277 0.9280 0.9267
1985.000000 0.9267 0.9268 0.9270 0.9271 0.9271
1980.000000 0.9271 0.9270 0.9257 0.9254 0.9250
1975.000000 0.9249 0.9246 0.9243 0.9243 0.9242
1970.000000 0.9241 0.9240 0.9236 0.9231 0.9237
1965.000000 0.9229 0.9222 0.9230 0.9231 0.9228
1960.000000 0.9225 0.9221 0.9215 0.9208 0.9205
1955.000000 0.9201 0.9182 0.9178 0.9175 0.9170
1950.000000 0.9164 0.9148 0.9141 0.9134 0.9129
1945.000000 0.9122 0.9114 0.9112 0.9111 0.9108
1940.000000 0.9109 0.9109 0.9119 0.9130 0.9141
1935.000000 0.9153 0.9165 0.9178 0.9188 0.9196
1930.000000 0.9203 0.9210 0.9217 0.9222 0.9226
1925.000000 0.9231 0.9235 0.9242 0.9246 0.9251
1920.000000 0.9254 0.9255 0.9256 0.9257 0.9258
1915.000000 0.9259 0.9260 0.9261 0.9262 0.9262
1910.000000 0.9263 0.9263 0.9264 0.9275 0.9280
1905.000000 0.9280 0.9280 0.9281 0.9281 0.9282
1900.000000 0.9282 0.9282 0.9281 0.9280 0.9280
1895.000000 0.9279 0.9278 0.9278 0.9276 0.9266
1890.000000 0.9252 0.9246 0.9241 0.9235 0.9231
1885.000000 0.9225 0.9229 0.9229 0.9224 0.9219
1880.000000 0.9214 0.9209 0.9206 0.9203 0.9200
1875.000000 0.9210 0.9207 0.9204 0.9202 0.9198
1870.000000 0.9195 0.9194 0.9194 0.9194 0.9194
1865.000000 0.9193 0.9193 0.9193 0.9193 0.9192
1860.000000 0.9192 0.9191 0.9190 0.9198 0.9194
1855.000000 0.9189 0.9189 0.9190 0.9192 0.9194
1850.000000 0.9196 0.9198 0.9200 0.9202 0.9203
1845.000000 0.9206 0.9210 0.9211 0.9214 0.9217
1840.000000 0.9219 0.9220 0.9221 0.9222 0.9218
1835.000000 0.9210 0.9212 0.9213 0.9214 0.9215
1830.000000 0.9216 0.9217 0.9217 0.9217 0.9204
