##TITLE=ETHYLDIMETHYLSILANOL
##JCAMP-DX=4.24
##DATA TYPE=INFRARED SPECTRUM
##CLASS=COBLENTZ III
##ORIGIN=DOW CORNING CORP.
##OWNER=COBLENTZ SOCIETY
Collection (C) 2018 copyright by the U.S. Secretary of Commerce
on behalf of the United States of America. All rights reserved.
##DATE=1964/10/09
##NAMES=ethyl(dimethyl)silanol
##CAS REGISTRY NO=5906-73-0
##MOLFORM=C4 H12 O Si
##SOURCE REFERENCE=COBLENTZ NO. 5534
##$NIST SOURCE=COBLENTZ
##$NIST IMAGE=cob5534
##SPECTROMETER/DATA SYSTEM=PERKIN-ELMER 521 (GRATING)
##INSTRUMENT PARAMETERS=FILTERS AT 3150, 2500, 2000, 1150, 700, 410. GRATING CHANGES: 2000, 630 CM^-^1
##STATE=SOLUTION (5% IN CCl4 FOR 3800-1300, 3% IN CS2 FOR 1300-635, AND 5% IN CCl4 FOR 635-250 CM^-^1)
$$ 90% PURE BY GLC
$$SPECTRAL CONTAMINATION DUE TO H2O AROUND 1620 CM^-^1
##PATH LENGTH=0.011 CM, 0.011 CM, AND 0.021 CM
##SAMPLING PROCEDURE=TRANSMISSION
##RESOLUTION=2
##DATA PROCESSING=DIGITIZED BY NIST FROM HARD COPY (FROM TWO SEGMENTS)
##XUNITS=1/CM
##YUNITS=TRANSMITTANCE
##XFACTOR=1.000000
##YFACTOR=1
##DELTAX=0.936770
##FIRSTX=252.927
##LASTX=3787.36
##FIRSTY=0.713
##MAXX=3787.36
##MINX=252.927
##MAXY=0.925
##MINY=0.118
##NPOINTS=3774
##XYDATA=(X++(Y..Y))
252.927000 0.7130 0.7100 0.7050 0.7130 0.7100
257.610848 0.7050 0.7030 0.7030 0.7030 0.7030
262.294696 0.7030 0.7060 0.7030 0.7020 0.7000
266.978544 0.6950 0.6930 0.6890 0.6870 0.6850
271.662393 0.6750 0.6660 0.6520 0.6480 0.6460
276.346241 0.6440 0.6430 0.6410 0.6301 0.6280
281.030089 0.6220 0.6170 0.6100 0.6010 0.5970
285.713937 0.5900 0.5850 0.5850 0.5820 0.5800
290.397785 0.5790 0.5790 0.5750 0.5740 0.5740
295.081633 0.5740 0.5750 0.5860 0.5930 0.5990
299.765481 0.6070 0.6090 0.6220 0.6280 0.6350
304.449329 0.6599 0.6660 0.6700 0.6710 0.6730
309.133178 0.6730 0.6770 0.6780 0.6800 0.6810
313.817026 0.6820 0.6840 0.6850 0.6860 0.6870
318.500874 0.6880 0.6890 0.6910 0.6910 0.6930
323.184722 0.6940 0.6960 0.6980 0.7000 0.7000
327.868570 0.7060 0.7090 0.7120 0.7150 0.7140
332.552418 0.7130 0.7080 0.7030 0.6990 0.6990
337.236266 0.7000 0.7010 0.7010 0.7020 0.7030
341.920115 0.7050 0.7060 0.7070 0.7080 0.7070
346.603963 0.7060 0.7060 0.7050 0.7030 0.7020
351.287811 0.7000 0.6980 0.6930 0.6890 0.6820
355.971659 0.6780 0.6710 0.6660 0.6460 0.6410
360.655507 0.6320 0.6171 0.5971 0.5741 0.5541
365.339355 0.5460 0.5440 0.5430 0.5450 0.5460
370.023203 0.5659 0.5730 0.5939 0.6179 0.6339
374.707051 0.6450 0.6640 0.6780 0.6890 0.7020
379.390900 0.7130 0.7220 0.7300 0.7370 0.7420
384.074748 0.7440 0.7510 0.7570 0.7640 0.7730
388.758596 0.7770 0.7800 0.7820 0.7830 0.7890
393.442444 0.7930 0.7930 0.7930 0.7930 0.7930
398.126292 0.7940 0.7940 0.7940 0.7960 0.7960
402.810140 0.7970 0.7960 0.7960 0.7960 0.7960
407.493988 0.7960 0.7960 0.7970 0.7970 0.7960
412.177837 0.7960 0.7910 0.7910 0.7910 0.7920
416.861685 0.8000 0.8010 0.8010 0.8040 0.8040
421.545533 0.8070 0.8070 0.8100 0.8100 0.8050
426.229381 0.8040 0.8040 0.8040 0.8040 0.8040
430.913229 0.8040 0.8060 0.8070 0.8080 0.8110
435.597077 0.8110 0.8120 0.8120 0.8130 0.8130
440.280925 0.8140 0.8140 0.8140 0.8150 0.8150
444.964773 0.8150 0.8170 0.8170 0.8180 0.8200
449.648622 0.8210 0.8210 0.8210 0.8210 0.8210
454.332470 0.8210 0.8190 0.8150 0.8140 0.8130
459.016318 0.8130 0.8130 0.8130 0.8130 0.8130
463.700166 0.8140 0.8170 0.8170 0.8170 0.8180
468.384014 0.8190 0.8200 0.8200 0.8210 0.8220
473.067862 0.8240 0.8240 0.8250 0.8250 0.8250
477.751710 0.8250 0.8250 0.8250 0.8250 0.8240
482.435559 0.8240 0.8220 0.8220 0.8210 0.8210
487.119407 0.8200 0.8200 0.8190 0.8190 0.8180
491.803255 0.8180 0.8170 0.8150 0.8130 0.8130
496.487103 0.8120 0.8120 0.8110 0.8100 0.8100
501.170951 0.8080 0.8070 0.8070 0.8060 0.8050
505.854799 0.8050 0.8030 0.8040 0.8050 0.8060
510.538647 0.8070 0.8070 0.8070 0.8060 0.8040
515.222495 0.8040 0.8030 0.8010 0.8000 0.7980
519.906344 0.7990 0.7990 0.7990 0.8000 0.8000
524.590192 0.8000 0.8000 0.7990 0.7990 0.7980
529.274040 0.7980 0.7970 0.7970 0.7960 0.7960
533.957888 0.7960 0.7960 0.7960 0.7970 0.7970
538.641736 0.7970 0.7970 0.7970 0.7960 0.7940
543.325584 0.7930 0.7920 0.7910 0.7900 0.7890
548.009432 0.7860 0.7860 0.7860 0.7860 0.7860
552.693281 0.7860 0.7860 0.7850 0.7850 0.7840
557.377129 0.7830 0.7830 0.7820 0.7790 0.7790
562.060977 0.7780 0.7780 0.7770 0.7770 0.7760
566.744825 0.7750 0.7730 0.7730 0.7720 0.7710
571.428673 0.7710 0.7700 0.7690 0.7690 0.7680
576.112521 0.7660 0.7660 0.7650 0.7640 0.7640
580.796369 0.7630 0.7620 0.7590 0.7570 0.7560
585.480217 0.7550 0.7520 0.7510 0.7480 0.7470
590.164066 0.7440 0.7440 0.7400 0.7360 0.7300
594.847914 0.7240 0.7190 0.7090 0.7050 0.6980
599.531762 0.6880 0.6800 0.6710 0.6580 0.6410
604.215610 0.6380 0.6380 0.6669 0.6740 0.6879
608.899458 0.6960 0.7120 0.7150 0.7160 0.7200
613.583306 0.7230 0.7270 0.7280 0.7290 0.7290
618.267154 0.7290 0.7290 0.7290 0.7290 0.7290
622.951002 0.7290 0.7290 0.7290 0.7290 0.7290
627.634851 0.7290 0.7290 0.7290 0.7290 0.7290
632.318699 0.7300 0.7449 0.7609 0.7958 0.8308
637.002547 0.8650 0.8650 0.8650 0.8650 0.8650
641.686395 0.8650 0.8650 0.8650 0.8650 0.8650
646.370243 0.8650 0.8650 0.8650 0.8650 0.8650
651.054091 0.8650 0.8650 0.8650 0.8650 0.8650
655.737939 0.8650 0.8650 0.8650 0.8650 0.8650
660.421788 0.8640 0.8640 0.8620 0.8600 0.8570
665.105636 0.8570 0.8570 0.8540 0.8490 0.8470
669.789484 0.8470 0.8440 0.8410 0.8340 0.8270
674.473332 0.8190 0.8100 0.8050 0.7930 0.7910
679.157180 0.7790 0.7720 0.7451 0.7301 0.7121
683.841028 0.7000 0.6880 0.6740 0.6640 0.6580
688.524876 0.6460 0.6440 0.6350 0.6320 0.6280
693.208724 0.6250 0.6220 0.6210 0.6210 0.6220
697.892573 0.6220 0.6230 0.6270 0.6300 0.6370
702.576421 0.6740 0.6940 0.7050 0.7080 0.7130
707.260269 0.7200 0.7300 0.7360 0.7430 0.7480
711.944117 0.7520 0.7580 0.7640 0.7650 0.7650
716.627965 0.7650 0.7650 0.7660 0.7660 0.7660
721.311813 0.7650 0.7640 0.7610 0.7580 0.7550
725.995661 0.7470 0.7420 0.7380 0.7370 0.7340
730.679510 0.7300 0.7220 0.7150 0.7100 0.7090
735.363358 0.7070 0.7050 0.7030 0.6980 0.6940
740.047206 0.6890 0.6870 0.6840 0.6800 0.6780
744.731054 0.6740 0.6720 0.6640 0.6590 0.6580
749.414902 0.6490 0.6410 0.6350 0.6280 0.6170
754.098750 0.6140 0.6080 0.5970 0.5860 0.5751
758.782598 0.5720 0.5600 0.5440 0.5250 0.5130
763.466446 0.4890 0.4720 0.4660 0.4540 0.4440
768.150295 0.4330 0.4210 0.3990 0.3780 0.3690
772.834143 0.3610 0.3460 0.3261 0.3190 0.3150
777.517991 0.3080 0.3010 0.2920 0.2840 0.2760
782.201839 0.2730 0.2730 0.2760 0.2820 0.2830
786.885687 0.2990 0.3030 0.3120 0.3260 0.3440
791.569535 0.3540 0.3700 0.3899 0.3980 0.4109
796.253383 0.4230 0.4240 0.4350 0.4420 0.4530
800.937232 0.4530 0.4530 0.4530 0.4530 0.4530
805.621080 0.4480 0.4470 0.4440 0.4420 0.4390
810.304928 0.4370 0.4270 0.4160 0.4130 0.4100
814.988776 0.4040 0.4030 0.3950 0.3830 0.3780
819.672624 0.3710 0.3640 0.3510 0.3361 0.3211
824.356472 0.3070 0.2910 0.2480 0.2270 0.2200
829.040320 0.2100 0.2000 0.1910 0.1800 0.1710
833.724168 0.1600 0.1590 0.1580 0.1580 0.1580
838.408017 0.1580 0.1580 0.1580 0.1600 0.1630
843.091865 0.1660 0.1710 0.1740 0.1750 0.1770
847.775713 0.1780 0.1790 0.1800 0.1800 0.1810
852.459561 0.1820 0.1850 0.1860 0.1880 0.1880
857.143409 0.1890 0.1910 0.1950 0.1960 0.2000
861.827257 0.2070 0.2130 0.2200 0.2270 0.2290
866.511105 0.2340 0.2440 0.2470 0.2560 0.2640
871.194954 0.2770 0.3030 0.3200 0.3370 0.3460
875.878802 0.3540 0.3620 0.3790 0.3880 0.4019
880.562650 0.4130 0.4250 0.4440 0.4550 0.4610
885.246498 0.4660 0.4760 0.4870 0.4940 0.5000
889.930346 0.5040 0.5230 0.5400 0.5600 0.5750
894.614194 0.5989 0.6179 0.6280 0.6409 0.6460
899.298042 0.6560 0.6790 0.6950 0.7080 0.7260
903.981890 0.7310 0.7410 0.7450 0.7500 0.7590
908.665739 0.7630 0.7720 0.7780 0.7890 0.7910
913.349587 0.7920 0.8010 0.8100 0.8100 0.8110
918.033435 0.8120 0.8140 0.8170 0.8190 0.8200
922.717283 0.8210 0.8240 0.8250 0.8250 0.8260
927.401131 0.8260 0.8260 0.8270 0.8270 0.8270
932.084979 0.8260 0.8250 0.8240 0.8220 0.8200
936.768827 0.8200 0.8190 0.8170 0.8140 0.8130
941.452676 0.8080 0.8040 0.7990 0.7960 0.7910
946.136524 0.7890 0.7820 0.7750 0.7700 0.7331
950.820372 0.7130 0.7070 0.6721 0.6511 0.6251
955.504220 0.5990 0.5820 0.5780 0.5760 0.5780
960.188068 0.5880 0.6149 0.6309 0.6449 0.6569
964.871916 0.6730 0.7060 0.7240 0.7330 0.7430
969.555764 0.7480 0.7520 0.7610 0.7650 0.7750
974.239612 0.7860 0.7900 0.7940 0.8080 0.8100
978.923461 0.8130 0.8150 0.8170 0.8180 0.8180
983.607309 0.8180 0.8180 0.8180 0.8180 0.8180
988.291157 0.8170 0.8150 0.8140 0.8130 0.8110
992.975005 0.8080 0.8040 0.7990 0.7930 0.7910
997.658853 0.7840 0.7800 0.7720 0.7630 0.7411
1002.342701 0.7270 0.7090 0.6920 0.6730 0.6570
1007.026549 0.6430 0.6240 0.6031 0.5821 0.5710
1011.710398 0.5660 0.5640 0.5650 0.5670 0.5850
1016.394246 0.6269 0.6769 0.7089 0.7369 0.7470
1021.078094 0.7560 0.7640 0.7720 0.7820 0.7850
1025.761942 0.7860 0.7890 0.7890 0.7890 0.7890
1030.445790 0.7870 0.7860 0.7860 0.7850 0.7840
1035.129638 0.7840 0.7830 0.7820 0.7820 0.7800
1039.813486 0.7790 0.7790 0.7780 0.7770 0.7760
1044.497334 0.7750 0.7730 0.7720 0.7710 0.7690
1049.181183 0.7680 0.7660 0.7650 0.7650 0.7640
1053.865031 0.7640 0.7640 0.7640 0.7630 0.7640
1058.548879 0.7640 0.7650 0.7660 0.7680 0.7680
1063.232727 0.7680 0.7690 0.7690 0.7700 0.7720
1067.916575 0.7730 0.7750 0.7760 0.7770 0.7780
1072.600423 0.7790 0.7800 0.7820 0.7830 0.7850
1077.284271 0.7860 0.7870 0.7890 0.7900 0.7910
1081.968120 0.7920 0.7930 0.7960 0.7980 0.7990
1086.651968 0.8010 0.8030 0.8050 0.8060 0.8080
1091.335816 0.8110 0.8120 0.8140 0.8150 0.8180
1096.019664 0.8190 0.8210 0.8250 0.8260 0.8270
1100.703512 0.8280 0.8290 0.8310 0.8320 0.8340
1105.387360 0.8350 0.8360 0.8370 0.8390 0.8400
1110.071208 0.8420 0.8430 0.8430 0.8440 0.8480
1114.755056 0.8480 0.8480 0.8490 0.8490 0.8500
1119.438905 0.8500 0.8510 0.8530 0.8530 0.8540
1124.122753 0.8550 0.8550 0.8560 0.8570 0.8580
1128.806601 0.8580 0.8600 0.8610 0.8610 0.8620
1133.490449 0.8630 0.8640 0.8640 0.8650 0.8670
1138.174297 0.8670 0.8680 0.8690 0.8700 0.8700
1142.858145 0.8710 0.8720 0.8720 0.8750 0.8770
1147.541993 0.8780 0.8790 0.8810 0.8810 0.8820
1152.225842 0.8830 0.8830 0.8840 0.8840 0.8850
1156.909690 0.8860 0.8860 0.8880 0.8890 0.8890
1161.593538 0.8900 0.8900 0.8900 0.8900 0.8910
1166.277386 0.8910 0.8910 0.8910 0.8910 0.8910
1170.961234 0.8910 0.8910 0.8920 0.8920 0.8920
1175.645082 0.8920 0.8920 0.8920 0.8920 0.8920
1180.328930 0.8920 0.8920 0.8920 0.8920 0.8920
1185.012778 0.8920 0.8920 0.8920 0.8920 0.8920
1189.696627 0.8920 0.8920 0.8920 0.8920 0.8920
1194.380475 0.8920 0.8920 0.8920 0.8920 0.8920
1199.064323 0.8920 0.8920 0.8920 0.8910 0.8910
1203.748171 0.8900 0.8900 0.8890 0.8860 0.8860
1208.432019 0.8860 0.8830 0.8780 0.8760 0.8740
1213.115867 0.8720 0.8710 0.8680 0.8670 0.8630
1217.799715 0.8600 0.8560 0.8560 0.8480 0.8390
1222.483563 0.8320 0.8280 0.8180 0.8120 0.8100
1227.167412 0.7940 0.7920 0.7840 0.7440 0.7100
1231.851260 0.6890 0.6780 0.6780 0.6770 0.6770
1236.535108 0.6770 0.6770 0.6750 0.6640 0.6530
1241.218956 0.6420 0.6210 0.5971 0.5521 0.5291
1245.902804 0.5060 0.4809 0.2451 0.2430 0.2450
1250.586652 0.2560 0.2650 0.2849 0.3049 0.3249
1255.270500 0.3421 0.4301 0.4770 0.5020 0.5260
1259.954349 0.5879 0.6519 0.6530 0.7069 0.7289
1264.638197 0.7510 0.7830 0.7840 0.7860 0.7890
1269.322045 0.7910 0.7920 0.8000 0.8000 0.8000
1274.005893 0.8000 0.8000 0.8000 0.8000 0.8000
1278.689741 0.8000 0.8000 0.8000 0.8000 0.8000
1283.373589 0.8000 0.8000 0.8000 0.8000 0.8000
1288.057437 0.8000 0.8000 0.8000 0.8000 0.8000
1292.741285 0.8000 0.8000 0.8000 0.8000 0.8000
1297.425134 0.8000 0.8000 0.8000 0.8000 0.8000
1302.108982 0.8000 0.8000 0.8000 0.8000 0.8000
1306.792830 0.8000 0.8000 0.8000 0.8000 0.8000
1311.476678 0.8000 0.8000 0.8000 0.8000 0.8000
1316.160526 0.8000 0.8000 0.8000 0.8000 0.8000
1320.844374 0.8000 0.8000 0.8000 0.8000 0.8000
1325.528222 0.8000 0.8000 0.8000 0.8000 0.8000
1330.212071 0.8000 0.8000 0.8000 0.8000 0.8000
1334.895919 0.8000 0.8000 0.8000 0.8000 0.8000
1339.579767 0.8000 0.8000 0.8000 0.8000 0.8000
1344.263615 0.8000 0.8000 0.8000 0.8000 0.8000
1348.947463 0.7990 0.7980 0.7980 0.7970 0.7960
1353.631311 0.7960 0.7940 0.7930 0.7920 0.7910
1358.315159 0.7910 0.7890 0.7860 0.7850 0.7830
1362.999007 0.7820 0.7800 0.7770 0.7750 0.7730
1367.682856 0.7730 0.7720 0.7690 0.7640 0.7590
1372.366704 0.7370 0.7310 0.7270 0.7240 0.7240
1377.050552 0.7260 0.7290 0.7310 0.7360 0.7380
1381.734400 0.7380 0.7380 0.7340 0.7330 0.7300
1386.418248 0.7270 0.7230 0.7210 0.7160 0.7070
1391.102096 0.6950 0.6930 0.6860 0.6780 0.6770
1395.785944 0.6730 0.6720 0.6650 0.6550 0.6440
1400.469793 0.6230 0.6150 0.6110 0.6090 0.6060
1405.153641 0.6030 0.6010 0.5970 0.5950 0.5940
1409.837489 0.5940 0.6000 0.6060 0.6090 0.6090
1414.521337 0.6170 0.6250 0.6340 0.6430 0.6510
1419.205185 0.6600 0.6650 0.6740 0.6790 0.6850
1423.889033 0.6860 0.6870 0.6890 0.6920 0.6950
1428.572881 0.6960 0.6980 0.6980 0.6990 0.7010
1433.256729 0.7020 0.7030 0.7060 0.7060 0.7060
1437.940578 0.7060 0.7060 0.7060 0.7060 0.7050
1442.624426 0.7030 0.7020 0.7010 0.6990 0.6990
1447.308274 0.6910 0.6870 0.6780 0.6660 0.6510
1451.992122 0.6270 0.6010 0.5880 0.5800 0.5780
1456.675970 0.5800 0.5810 0.5890 0.6059 0.6299
1461.359818 0.6310 0.6430 0.6500 0.6580 0.6630
1466.043666 0.6800 0.6930 0.7000 0.7200 0.7399
1470.727515 0.7440 0.7480 0.7540 0.7580 0.7720
1475.411363 0.7750 0.7760 0.7800 0.7820 0.7850
1480.095211 0.7930 0.7980 0.8030 0.8060 0.8070
1484.779059 0.8100 0.8100 0.8120 0.8130 0.8140
1489.462907 0.8190 0.8240 0.8250 0.8260 0.8270
1494.146755 0.8270 0.8290 0.8320 0.8330 0.8350
1498.830603 0.8360 0.8390 0.8390 0.8430 0.8460
1503.514451 0.8470 0.8480 0.8490 0.8490 0.8490
1508.198300 0.8490 0.8500 0.8510 0.8510 0.8530
1512.882148 0.8530 0.8540 0.8540 0.8550 0.8550
1517.565996 0.8560 0.8560 0.8570 0.8570 0.8570
1522.249844 0.8580 0.8580 0.8580 0.8600 0.8610
1526.933692 0.8620 0.8630 0.8640 0.8650 0.8670
1531.617540 0.8690 0.8690 0.8690 0.8700 0.8700
1536.301388 0.8700 0.8710 0.8710 0.8710 0.8720
1540.985237 0.8720 0.8720 0.8740 0.8740 0.8750
1545.669085 0.8760 0.8770 0.8770 0.8770 0.8770
1550.352933 0.8770 0.8770 0.8770 0.8770 0.8760
1555.036781 0.8760 0.8750 0.8750 0.8740 0.8720
1559.720629 0.8720 0.8720 0.8720 0.8720 0.8720
1564.404477 0.8720 0.8720 0.8720 0.8720 0.8720
1569.088325 0.8720 0.8720 0.8720 0.8720 0.8720
1573.772173 0.8710 0.8700 0.8690 0.8690 0.8690
1578.456022 0.8680 0.8680 0.8680 0.8670 0.8670
1583.139870 0.8670 0.8650 0.8650 0.8650 0.8630
1587.823718 0.8620 0.8610 0.8600 0.8580 0.8570
1592.507566 0.8560 0.8550 0.8550 0.8530 0.8490
1597.191414 0.8480 0.8470 0.8460 0.8430 0.8410
1601.875262 0.8400 0.8390 0.8370 0.8360 0.8350
1606.559110 0.8340 0.8320 0.8320 0.8310 0.8310
1611.242959 0.8290 0.8290 0.8280 0.8280 0.8270
1615.926807 0.8270 0.8260 0.8250 0.8250 0.8250
1620.610655 0.8250 0.8250 0.8250 0.8240 0.8240
1625.294503 0.8240 0.8240 0.8250 0.8250 0.8260
1629.978351 0.8260 0.8270 0.8280 0.8280 0.8290
1634.662199 0.8290 0.8310 0.8310 0.8330 0.8340
1639.346047 0.8350 0.8360 0.8370 0.8390 0.8400
1644.029895 0.8410 0.8420 0.8430 0.8440 0.8460
1648.713744 0.8460 0.8470 0.8470 0.8480 0.8480
1653.397592 0.8490 0.8500 0.8500 0.8510 0.8510
1658.081440 0.8530 0.8530 0.8540 0.8550 0.8560
1662.765288 0.8560 0.8570 0.8570 0.8580 0.8600
1667.449136 0.8600 0.8610 0.8610 0.8620 0.8630
1672.132984 0.8630 0.8640 0.8640 0.8650 0.8670
1676.816832 0.8670 0.8680 0.8680 0.8690 0.8690
1681.500681 0.8700 0.8710 0.8710 0.8710 0.8710
1686.184529 0.8720 0.8720 0.8720 0.8740 0.8740
1690.868377 0.8740 0.8750 0.8750 0.8750 0.8760
1695.552225 0.8760 0.8760 0.8760 0.8770 0.8770
1700.236073 0.8770 0.8770 0.8780 0.8780 0.8780
1704.919921 0.8780 0.8780 0.8780 0.8780 0.8780
1709.603769 0.8780 0.8790 0.8790 0.8790 0.8790
1714.287617 0.8790 0.8790 0.8790 0.8810 0.8810
1718.971466 0.8810 0.8810 0.8810 0.8810 0.8810
1723.655314 0.8820 0.8820 0.8830 0.8830 0.8840
1728.339162 0.8840 0.8850 0.8850 0.8850 0.8850
1733.023010 0.8850 0.8850 0.8850 0.8850 0.8850
1737.706858 0.8850 0.8850 0.8850 0.8860 0.8860
1742.390706 0.8860 0.8860 0.8860 0.8860 0.8880
1747.074554 0.8880 0.8880 0.8880 0.8880 0.8880
1751.758403 0.8880 0.8890 0.8890 0.8890 0.8890
1756.442251 0.8890 0.8900 0.8900 0.8900 0.8900
1761.126099 0.8900 0.8900 0.8900 0.8900 0.8900
1765.809947 0.8900 0.8900 0.8900 0.8900 0.8900
1770.493795 0.8900 0.8900 0.8900 0.8900 0.8900
1775.177643 0.8900 0.8900 0.8900 0.8900 0.8900
1779.861491 0.8900 0.8900 0.8900 0.8900 0.8900
1784.545339 0.8900 0.8900 0.8900 0.8900 0.8900
1789.229188 0.8900 0.8900 0.8900 0.8910 0.8910
1793.913036 0.8910 0.8910 0.8910 0.8920 0.8920
1798.596884 0.8920 0.8920 0.8920 0.8920 0.8920
1803.280732 0.8920 0.8920 0.8920 0.8920 0.8920
1807.964580 0.8920 0.8910 0.8910 0.8910 0.8910
1812.648428 0.8910 0.8910 0.8910 0.8910 0.8900
1817.332276 0.8900 0.8900 0.8900 0.8890 0.8890
1822.016124 0.8890 0.8890 0.8880 0.8880 0.8880
1826.699973 0.8860 0.8860 0.8860 0.8860 0.8860
1831.383821 0.8860 0.8860 0.8860 0.8850 0.8860
1836.067669 0.8860 0.8860 0.8860 0.8860 0.8880
1840.751517 0.8880 0.8880 0.8880 0.8880 0.8880
1845.435365 0.8890 0.8890 0.8890 0.8900 0.8900
1850.119213 0.8900 0.8900 0.8910 0.8910 0.8910
1854.803061 0.8910 0.8920 0.8920 0.8920 0.8920
1859.486910 0.8920 0.8920 0.8920 0.8920 0.8920
1864.170758 0.8920 0.8920 0.8920 0.8920 0.8920
1868.854606 0.8920 0.8920 0.8920 0.8920 0.8920
1873.538454 0.8920 0.8920 0.8920 0.8920 0.8920
1878.222302 0.8920 0.8920 0.8920 0.8920 0.8920
1882.906150 0.8920 0.8920 0.8920 0.8920 0.8920
1887.589998 0.8920 0.8930 0.8930 0.8930 0.8950
1892.273846 0.8950 0.8950 0.8950 0.8950 0.8950
1896.957695 0.8950 0.8950 0.8950 0.8950 0.8950
1901.641543 0.8950 0.8950 0.8950 0.8930 0.8930
1906.325391 0.8930 0.8920 0.8920 0.8920 0.8910
1911.009239 0.8910 0.8910 0.8910 0.8900 0.8900
1915.693087 0.8900 0.8900 0.8890 0.8890 0.8890
1920.376935 0.8890 0.8880 0.8860 0.8860 0.8850
1925.060783 0.8850 0.8840 0.8840 0.8830 0.8830
1929.744632 0.8820 0.8820 0.8810 0.8810 0.8810
1934.428480 0.8810 0.8810 0.8810 0.8810 0.8820
1939.112328 0.8830 0.8840 0.8850 0.8860 0.8880
1943.796176 0.8880 0.8880 0.8890 0.8880 0.8880
1948.480024 0.8880 0.8890 0.8900 0.8900 0.8900
1953.163872 0.8910 0.8910 0.8910 0.8910 0.8910
1957.847720 0.8920 0.8920 0.8920 0.8920 0.8920
1962.531568 0.8920 0.8920 0.8920 0.8920 0.8920
1967.215417 0.8920 0.8920 0.8920 0.8920 0.8920
1971.899265 0.8920 0.8920 0.8920 0.8920 0.8920
1976.583113 0.8920 0.8920 0.8920 0.8920 0.8920
1981.266961 0.8920 0.8920 0.8920 0.8920 0.8920
1985.950809 0.8920 0.8920 0.8910 0.8900 0.8900
1990.634657 0.8890 0.8890 0.8880 0.8880 0.8750
1995.318505 0.8610 0.8610 0.8640 0.8750 0.8830
2000.002354 0.8910 0.8935 0.8960 0.8965 0.8970
2004.686202 0.8980 0.8990 0.8990 0.8990 0.8990
2009.370050 0.8990 0.8990 0.8990 0.8990 0.8990
2014.053898 0.8990 0.8990 0.8990 0.8989 0.8984
2018.737746 0.8980 0.8980 0.8980 0.8980 0.8981
2023.421594 0.8986 0.8990 0.8990 0.8990 0.8990
2028.105442 0.8990 0.8990 0.8990 0.8990 0.8990
2032.789290 0.8990 0.8990 0.8990 0.8990 0.8990
2037.473139 0.8990 0.8990 0.8990 0.8990 0.8988
2042.156987 0.8983 0.8980 0.8980 0.8980 0.8980
2046.840835 0.8980 0.8980 0.8980 0.8980 0.8980
2051.524683 0.8980 0.8980 0.8980 0.8980 0.8980
2056.208531 0.8980 0.8980 0.8980 0.8980 0.8980
2060.892379 0.8980 0.8980 0.8980 0.8980 0.8980
2065.576227 0.8980 0.8980 0.8982 0.8988 0.8990
2070.260076 0.8990 0.8990 0.8990 0.8990 0.8990
2074.943924 0.8990 0.8990 0.8990 0.8990 0.8990
2079.627772 0.8990 0.8990 0.8990 0.8990 0.8990
2084.311620 0.8990 0.8990 0.8987 0.8982 0.8980
2088.995468 0.8980 0.8980 0.8980 0.8980 0.8980
2093.679316 0.8980 0.8980 0.8980 0.8980 0.8980
2098.363164 0.8980 0.8980 0.8980 0.8980 0.8980
2103.047012 0.8980 0.8980 0.8980 0.8980 0.8984
2107.730861 0.8989 0.8990 0.8990 0.8994 0.8999
2112.414709 0.9000 0.9000 0.9000 0.9000 0.9000
2117.098557 0.9000 0.9000 0.9000 0.9000 0.9000
2121.782405 0.9000 0.9000 0.9000 0.9000 0.9000
2126.466253 0.9000 0.9000 0.9000 0.9000 0.9000
2131.150101 0.9000 0.9000 0.8990 0.8980 0.8985
2135.833949 0.8990 0.8990 0.8990 0.8995 0.9000
