##TITLE=Cyclopropylmethyl chloride
##JCAMP-DX=4.24
##DATA TYPE=INFRARED SPECTRUM
##ORIGIN=EPA-IR VAPOR PHASE LIBRARY
##OWNER=SRD/NIST
Collection (C) 2018 copyright by the U.S. Secretary of Commerce
on behalf of the United States of America. All rights reserved.
##CAS REGISTRY NO=5911-08-0
##MOLFORM=C 4 H 7 Cl
##$NIST SOURCE=MSDC-IR
##STATE=gas
##XUNITS=1/CM
##YUNITS=ABSORBANCE
##XFACTOR=1.
##YFACTOR=0.001
##DELTAX=1.92898
##FIRSTX=549.8
##LASTX=4000.7
##FIRSTY=0.5479
##MAXX=4000.7
##MINX=549.759
##MAXY=0.091443
##MINY=0
##NPOINTS=1790
##XYDATA=(X++(Y..Y))
549.759 0.5479 0.6718 0.7472 0.7814 0.5391 0.4376 0.7442 0.5998 0.3691 0.4366
569.049 0.4156 0.1451 0.21344 0.3298 0.2707 0.5511 0.8168 0.7772 0.5617 0.3714
588.339 0.3574 0.5653 0.7861 0.8295 0.7045 0.7002 0.7548 0.7067 0.7628 0.9408
607.628 1.0804 1.0036 0.9141 0.9682 0.9457 1.0574 1.1258 0.9895 0.9511 1.0061
626.918 1.0338 1.1478 1.183 1.343 1.523 1.603 1.623 1.463 1.483 1.713
646.208 2.033 2.173 2.223 2.223 2.383 2.973 3.333 3.533 3.963 4.483
665.498 5.073 5.903 6.753 7.683 8.843 10.123 11.573 13.323 15.233 17.693
684.787 20.923 24.533 28.583 33.243 38.843 45.363 52.923 61.333 69.993 77.873
704.077 84.453 89.253 91.443 91.083 89.723 88.193 88.153 88.883 87.813 89.193
723.367 91.403 86.313 73.313 56.613 40.303 27.703 19.833 15.673 13.703 12.823
742.657 12.463 12.203 12.193 12.503 12.873 13.333 13.793 14.093 14.473 14.903
761.947 15.233 15.373 15.393 15.873 16.503 16.273 16.443 17.923 19.203 19.983
781.236 20.053 19.273 18.273 17.483 17.033 17.073 17.913 19.083 19.453 19.453
800.526 20.063 21.033 22.123 23.153 24.033 25.033 26.613 28.773 30.933 32.973
819.816 35.273 37.613 39.373 40.193 39.293 37.203 35.383 35.463 35.263 34.423
839.106 35.123 35.533 34.563 32.343 29.383 25.883 22.413 19.313 16.863 14.963
858.395 13.373 12.073 10.933 9.963 9.283 8.623 7.993 7.443 6.913 6.763
877.685 6.673 6.523 6.363 6.213 6.273 6.603 7.043 7.613 8.413 9.803
896.975 11.803 14.123 16.883 20.003 23.393 26.663 29.023 30.203 30.563 30.433
916.265 30.003 29.893 30.023 29.643 30.103 31.693 31.733 29.383 25.453 20.893
935.555 16.703 13.593 11.603 10.513 10.333 11.073 12.503 14.623 17.893 22.153
954.844 27.083 32.543 37.973 42.723 46.163 47.723 47.853 47.703 47.613 47.233
974.134 46.853 47.103 47.543 47.443 45.413 41.073 35.613 29.693 24.263 20.153
993.424 17.403 15.833 15.263 15.513 16.573 18.113 20.373 23.353 26.393 29.193
1012.714 31.443 33.083 33.693 33.913 34.223 35.513 37.673 36.173 34.613 35.703
1032.003 36.083 35.403 33.443 31.103 28.613 26.143 23.993 22.263 20.643 19.233
1051.293 18.303 17.443 17.263 17.233 16.383 15.233 13.763 12.243 11.223 10.303
1070.583 9.693 9.103 8.723 8.523 8.293 8.273 8.383 8.173 7.933 8.213
1089.873 8.013 7.823 7.873 8.043 8.723 9.083 8.883 9.263 9.673 9.873
1109.163 10.093 10.413 11.203 11.553 11.643 11.863 11.653 11.383 11.423 11.673
1128.452 11.893 11.373 11.243 11.173 10.763 10.453 9.813 9.553 9.303 8.713
1147.742 7.933 7.313 7.003 6.803 6.743 6.703 6.533 6.493 6.633 6.683
1167.032 6.793 6.953 7.023 6.933 7.273 7.563 7.603 8.053 8.693 9.273
1186.322 9.833 10.283 10.253 10.133 10.233 10.223 10.633 10.803 10.783 11.133
1205.611 11.283 11.233 10.823 9.743 8.433 7.633 7.383 7.223 7.053 6.653
1224.901 6.203 6.323 6.903 7.423 7.803 8.043 8.493 9.343 10.763 12.963
1244.191 15.673 19.533 25.073 31.993 40.363 49.793 60.013 69.253 75.323 76.033
1263.481 73.833 71.103 75.043 79.493 71.403 71.863 81.323 84.523 80.163 69.873
1282.771 57.223 44.853 34.523 26.753 21.733 18.603 16.523 14.513 12.673 11.433
1302.060 10.583 9.813 8.933 7.853 6.703 5.653 4.813 4.093 3.543 3.173
1321.350 2.893 2.643 2.483 2.413 2.403 2.433 2.443 2.483 2.583 2.713
1340.640 2.933 3.183 3.443 3.743 4.063 4.513 5.093 5.763 6.553 7.453
1359.930 8.453 9.423 10.383 11.233 11.783 12.003 11.933 11.773 11.763 11.793
1379.219 11.743 11.483 11.253 11.023 10.513 9.713 8.743 7.833 7.043 6.443
1398.509 6.113 6.053 6.093 6.293 6.693 7.113 7.543 8.053 8.663 9.223
1417.799 9.783 10.553 11.483 12.473 13.413 14.253 15.003 15.523 15.923 16.363
1437.089 16.673 16.963 17.313 17.643 18.073 18.643 19.473 19.923 18.613 17.373
1456.378 17.153 16.793 16.223 15.543 14.783 13.933 13.073 11.933 10.733 9.903
1475.668 9.283 8.663 8.003 7.363 6.713 6.033 5.333 4.673 4.103 3.593
1494.958 3.143 2.783 2.523 2.283 2.053 1.853 1.633 1.473 1.413 1.343
1514.248 1.263 1.163 1.042 0.9489 0.9552 1.0256 1.0078 1.0091 1.0046 0.965
1533.538 0.9224 0.8848 0.8627 0.8352 0.8724 0.8904 0.8849 0.9699 1.0045 0.923
1552.827 0.8803 0.9067 0.9687 0.9629 1.0115 1.0533 1.0789 1.1573 1.173 1.1431
1572.117 1.1146 1.0788 1.0482 1.1195 1.173 1.1592 1.1285 1.1536 1.203 1.1217
1591.407 1.0093 0.9824 0.9866 1.0358 1.0219 0.9599 0.9494 0.8953 0.8604 0.8794
1610.697 0.8606 0.8823 0.8744 0.7914 0.8471 0.9398 0.8618 0.818 0.8821 0.9181
1629.986 0.8923 0.8935 0.8839 0.889 0.9635 0.9923 1.029 0.946 0.8461 0.897
1649.276 0.9353 0.8737 0.7486 0.7723 0.9125 0.9223 0.8986 0.8815 0.8403 0.8447
1668.566 0.8285 0.8004 0.8008 0.7519 0.7288 0.7009 0.6964 0.6886 0.6127 0.6296
1687.856 0.6598 0.6057 0.6107 0.6444 0.6265 0.6551 0.6306 0.6127 0.6937 0.7823
1707.146 0.8024 0.8024 0.7892 0.7871 0.7836 0.7928 0.8578 0.9242 1.0416 1.203
1726.435 1.273 1.283 1.313 1.333 1.343 1.443 1.533 1.563 1.673 1.723
1745.725 1.643 1.583 1.563 1.583 1.643 1.563 1.453 1.423 1.413 1.413
1765.015 1.403 1.393 1.463 1.593 1.733 1.863 1.953 2.093 2.233 2.363
1784.305 2.443 2.543 2.653 2.733 2.813 2.913 2.963 2.943 2.923 2.933
1803.594 2.973 3.023 2.973 2.773 2.633 2.583 2.533 2.423 2.343 2.293
1822.884 2.293 2.293 2.313 2.333 2.313 2.343 2.373 2.433 2.453 2.453
1842.174 2.463 2.463 2.523 2.573 2.563 2.553 2.583 2.593 2.543 2.503
1861.464 2.573 2.643 2.623 2.633 2.703 2.803 2.873 2.973 3.093 3.173
1880.754 3.193 3.173 3.183 3.183 3.173 3.143 3.133 3.103 3.083 3.053
1900.043 3.003 2.913 2.813 2.743 2.713 2.663 2.653 2.703 2.703 2.723
1919.333 2.743 2.743 2.753 2.743 2.763 2.783 2.783 2.753 2.733 2.683
1938.623 2.593 2.503 2.363 2.233 2.183 2.123 2.063 2.013 1.923 1.823
1957.913 1.723 1.643 1.623 1.623 1.513 1.443 1.523 1.553 1.523 1.593
1977.202 1.653 1.663 1.693 1.693 1.723 1.743 1.743 1.743 1.733 1.733
1996.492 1.753 1.803 1.833 1.833 1.883 1.893 1.863 1.893 1.893 1.873
2015.782 1.893 1.893 1.893 1.983 2.033 2.133 2.253 2.373 2.473 2.533
2035.072 2.583 2.653 2.753 2.843 2.973 3.113 3.293 3.403 3.533 3.763
2054.362 3.863 3.883 3.903 3.953 4.023 4.013 3.973 3.933 3.923 3.973
2073.651 4.033 4.113 4.173 4.123 4.083 3.933 3.733 3.603 3.513 3.423
2092.941 3.273 3.163 3.103 3.083 3.023 2.883 2.803 2.723 2.623 2.453
2112.231 2.263 2.133 2.063 2.013 1.893 1.843 1.793 1.723 1.733 1.773
2131.521 1.813 1.803 1.813 1.873 1.843 1.813 1.823 1.823 1.873 1.903
2150.810 1.893 1.863 1.843 1.843 1.863 1.783 1.703 1.673 1.583 1.573
2170.100 1.533 1.463 1.493 1.483 1.473 1.483 1.453 1.443 1.443 1.373
2189.390 1.373 1.393 1.393 1.383 1.353 1.403 1.433 1.453 1.503 1.543
2208.680 1.593 1.623 1.643 1.713 1.733 1.743 1.783 1.783 1.783 1.783
2227.970 1.823 1.833 1.843 1.823 1.703 1.633 1.593 1.533 1.483 1.483
2247.259 1.563 1.583 1.533 1.483 1.493 1.453 1.413 1.473 1.463 1.463
2266.549 1.413 1.333 1.363 1.353 1.253 1.223 1.253 1.283 1.253 1.193
2285.839 1.173 1.1488 1.0835 1.0186 0.9935 0.9788 0.9648 0.8964 0.8859 0.9278
2305.129 0.9019 0.9169 0.9147 0.8941 0.8745 0.9374 0.9922 0.9723 1.0281 1.1235
2324.418 1.173 1.1517 1.1312 1.213 1.253 1.293 1.333 1.313 1.253 1.223
2343.708 1.273 1.203 1.1093 1.0843 1.053 0.9343 0.8885 0.9168 0.8566 0.8131
2362.998 0.7512 0.6787 0.7092 0.7613 0.7698 0.7152 0.6957 0.7496 0.7621 0.7418
2382.288 0.8201 0.8832 0.9214 0.9434 0.9291 0.9385 0.9349 0.9917 1.0304 1.0265
2401.578 1.0096 1.0425 1.1063 1.1374 1.1339 1.0995 1.0606 1.0239 1.0317 1.012
2420.867 0.9414 0.8964 0.885 0.8678 0.8541 0.9366 0.9526 0.8451 0.8184 0.8121
2440.157 0.795 0.8278 0.8478 0.7682 0.7596 0.8482 0.9423 1.052 1.0828 1.0835
2459.447 1.1263 1.183 1.283 1.383 1.473 1.583 1.623 1.633 1.703 1.753
2478.737 1.723 1.683 1.693 1.643 1.643 1.683 1.603 1.483 1.403 1.353
2498.026 1.263 1.1283 1.0267 0.9875 0.958 0.8489 0.7384 0.7075 0.7167 0.7209
2517.316 0.7131 0.6794 0.5983 0.6317 0.6516 0.6617 0.6552 0.5937 0.6064 0.6195
2536.606 0.5991 0.5628 0.5749 0.6244 0.6271 0.6235 0.6393 0.6197 0.646 0.6614
2555.896 0.601 0.5333 0.5319 0.5063 0.5498 0.6461 0.6742 0.645 0.6302 0.6773
2575.186 0.6825 0.6613 0.6527 0.628 0.6593 0.7148 0.6875 0.7337 0.7681 0.7137
2594.475 0.6909 0.7022 0.7601 0.7664 0.7593 0.7775 0.7373 0.7396 0.7265 0.7046
2613.765 0.6878 0.6767 0.6615 0.6472 0.731 0.7487 0.6827 0.6376 0.6008 0.6264
2633.055 0.7071 0.712 0.7447 0.7786 0.7122 0.6908 0.7056 0.7482 0.8199 0.83
2652.345 0.7451 0.6797 0.7572 0.8225 0.7859 0.7874 0.8196 0.7552 0.7428 0.7932
2671.634 0.798 0.7405 0.7838 0.8138 0.7806 0.8364 0.8504 0.8046 0.8335 0.9536
2690.924 0.9846 1.0025 1.1059 1.173 1.293 1.463 1.533 1.643 1.723 1.763
2710.214 1.843 1.873 1.843 1.873 1.863 1.823 1.793 1.773 1.783 1.673
2729.504 1.553 1.453 1.323 1.293 1.223 1.1202 1.0252 0.9878 0.921 0.9265
2748.794 1.0202 1.0045 0.9125 0.8925 0.9355 1.0166 1.0253 0.9658 0.9835 0.9389
2768.083 0.8767 0.978 1.0338 0.9684 0.9217 0.9751 1.0295 1.012 1.051 1.0745
2787.373 1.1167 1.173 1.253 1.313 1.333 1.373 1.393 1.483 1.513 1.513
2806.663 1.603 1.693 1.803 1.863 1.993 2.223 2.403 2.483 2.553 2.803
2825.953 3.023 3.153 3.403 3.693 3.923 4.213 4.543 4.963 5.463 5.993
2845.242 6.403 6.973 7.663 8.293 8.973 9.723 10.513 11.293 12.083 12.783
2864.532 13.563 14.303 14.843 15.193 15.243 15.263 15.363 15.533 15.703 15.773
2883.822 15.713 15.523 15.203 14.793 14.363 13.803 13.313 12.793 12.233 11.853
2903.112 11.573 11.273 10.963 10.733 10.643 10.713 10.893 11.223 11.643 12.233
2922.401 12.973 13.763 14.723 15.953 17.303 18.703 20.253 22.123 24.123 26.203
2941.691 28.663 31.243 33.893 36.653 39.243 41.573 43.443 44.473 44.623 44.733
2960.981 46.233 48.153 49.873 52.153 53.633 54.103 54.143 53.863 53.623 53.523
2980.271 53.523 53.713 54.143 55.093 55.973 55.783 55.903 56.713 57.343 58.833
2999.561 61.393 63.953 65.123 65.243 65.843 66.463 66.663 66.403 65.603 64.443
3018.850 63.313 62.523 61.903 61.373 60.463 58.613 55.723 52.363 48.943 45.663
3038.140 42.943 40.173 36.383 32.573 29.793 27.673 25.953 24.363 23.163 22.373
3057.430 21.783 21.383 21.313 21.623 22.193 23.083 24.363 25.913 27.883 30.343
3076.720 32.993 35.683 38.293 40.313 41.823 42.783 43.693 45.283 48.433 47.623
3096.009 41.513 39.013 38.703 37.353 35.303 32.373 28.783 25.133 21.883 18.843
3115.299 16.353 14.123 12.233 10.563 9.103 7.873 6.753 5.803 4.933 4.143
3134.589 3.513 2.983 2.513 2.213 2.093 1.943 1.683 1.423 1.283 1.223
3153.879 1.203 1.183 1.0637 0.9267 0.9834 1.0225 0.9089 0.938 0.9494 0.835
3173.169 0.88 0.819 0.7367 0.7663 0.7142 0.703 0.8051 0.8181 0.6689 0.6187
3192.458 0.5968 0.6566 0.6618 0.582 0.601 0.5554 0.536 0.502 0.5295 0.6819
3211.748 0.7564 0.7943 0.7402 0.5966 0.5771 0.6273 0.5613 0.5947 0.6355 0.5933
3231.038 0.62 0.6064 0.5311 0.4831 0.502 0.4743 0.4831 0.4859 0.4467 0.3572
3250.328 0.3718 0.3794 0.4122 0.3865 0.3163 0.3764 0.3498 0.3526 0.3884 0.382
3269.617 0.4143 0.4542 0.3343 0.3616 0.5332 0.6021 0.5403 0.4477 0.5054 0.5227
3288.907 0.5275 0.5489 0.494 0.4766 0.5248 0.5257 0.5651 0.5877 0.4834 0.4636
3308.197 0.5154 0.482 0.4228 0.4903 0.5069 0.3303 0.2771 0.2781 0.3355 0.3921
3327.487 0.413 0.4096 0.3997 0.4365 0.4647 0.513 0.4981 0.4981 0.3945 0.19031
3346.777 0.2648 0.4128 0.4049 0.3918 0.4238 0.3492 0.21983 0.23634 0.287 0.2895
3366.066 0.2873 0.3184 0.3836 0.3656 0.3538 0.3769 0.3116 0.316 0.3204 0.23878
3385.356 0.2902 0.4227 0.3606 0.3204 0.4082 0.4557 0.4036 0.3337 0.4362 0.4849
3404.646 0.3542 0.3866 0.4553 0.3033 0.19424 0.22876 0.2645 0.3884 0.4646 0.4926
3423.936 0.5486 0.5985 0.6107 0.549 0.4897 0.5531 0.6211 0.5553 0.4811 0.4189
3443.225 0.4505 0.5594 0.6233 0.5736 0.5159 0.4367 0.4163 0.4962 0.4814 0.4191
3462.515 0.4403 0.4569 0.5317 0.567 0.5951 0.5465 0.5788 0.6741 0.5673 0.467
3481.805 0.4348 0.4862 0.5246 0.5647 0.4894 0.4596 0.4957 0.5114 0.3894 0.23716
3501.095 0.4035 0.5165 0.4285 0.3111 0.3411 0.3911 0.3023 0.266 0.3299 0.3369
3520.385 0.26263 0.20866 0.20275 0.126 0 0.118 0.23913 0.21976 0.25085 0.2845
3539.674 0.24435 0.0739 0.01 0.2783 0.3112 0.25593 0.3236 0.25532 0.21621 0.17413
3558.964 0.1895 0.172799 0.0701 0.1013 0.1249 0.22269 0.2672 0.1405 0.1417 0.2493
3578.254 0.3374 0.3089 0.2766 0.19609 0.171562 0.2735 0.3601 0.2858 0.20106 0.3029
3597.544 0.3973 0.4097 0.365 0.3583 0.3294 0.268 0.2684 0.2271 0.20087 0.2078
3616.833 0.22516 0.2991 0.3299 0.3346 0.3559 0.3074 0.21 0.3133 0.4815 0.4286
3636.123 0.4565 0.5774 0.6988 0.8603 0.8512 0.8018 0.7651 0.696 0.6267 0.6988
3655.413 0.7341 0.7 0.9127 0.8661 0.7937 0.8934 0.9081 0.7732 0.5894 0.7298
3674.703 0.8522 0.7761 0.8183 0.8117 0.6329 0.6641 0.6931 0.5529 0.5484 0.6105
3693.993 0.6039 0.5525 0.6281 0.5525 0.4386 0.4806 0.5031 0.5414 0.5055 0.4015
3713.282 0.3972 0.4822 0.5013 0.6076 0.6686 0.5502 0.447 0.4515 0.3902 0.4035
3732.572 0.4453 0.5229 0.5753 0.5305 0.4949 0.3729 0.3506 0.5088 0.6711 0.7143
3751.862 0.567 0.4023 0.4772 0.5794 0.6573 0.7134 0.6148 0.5492 0.6201 0.5856
3771.152 0.5274 0.6271 0.7653 0.7354 0.7689 0.7643 0.6155 0.6335 0.7048 0.7825
3790.441 0.8507 0.8876 0.8147 0.761 0.6946 0.6709 0.7565 0.8625 0.8474 0.8041
3809.731 0.8377 0.7859 0.7003 0.7102 0.8066 0.7911 0.7787 0.8796 1.0129 1.0325
3829.021 1.1106 1.173 1.117 1.0554 1.0742 1.203 1.273 1.223 1.213 1.303
3848.311 1.283 1.293 1.303 1.243 1.193 1.233 1.233 1.0896 0.978 1.0727
3867.601 1.0555 0.8933 0.844 0.9213 1.0913 1.0486 0.9961 1.0754 0.9897 0.769
3886.890 0.9026 0.9462 0.8303 0.9602 0.9373 0.9549 0.9442 0.7824 0.8068 0.9781
3906.180 0.8973 0.8546 0.9381 0.9601 1.0642 1.0448 0.9949 1.0016 1.0811 1.193
3925.470 1.1366 1.0466 0.9455 0.8515 0.8972 0.9363 0.8446 0.9031 1.0147 1.0066
3944.760 0.9678 0.8802 0.9367 0.9976 0.8989 0.9925 1.0449 0.8767 0.8697 0.8231
3964.049 0.6628 0.6704 0.7468 0.8695 0.863 0.7167 0.755 0.7948 0.83 0.8873
3983.339 0.8848 0.8775 0.8585 0.8564 0.7391 0.6919 0.7755 0.676 0.7209 0.7571
##END=
