##TITLE=Ethylene, 1,1-dibromo-
##JCAMP-DX=4.24
##DATA TYPE=INFRARED SPECTRUM
##CLASS=COBLENTZ
##ORIGIN=DOW CHEMICAL COMPANY
##OWNER=Copyright (C) 1987 by the Coblentz Society
Collection (C) 2018 copyright by the U.S. Secretary of Commerce
on behalf of the United States of America. All rights reserved.
##DATE=1964
##NAMES=1,1-dibromoethylene
1,1-DIBROMO ETHYLENE
##CAS REGISTRY NO=593-92-0
##MOLFORM=C2 H2 Br2
##SOURCE REFERENCE=COBLENTZ NO. 8857
##$NIST SOURCE=COBLENTZ
##$NIST IMAGE=cob8857
##SPECTROMETER/DATA SYSTEM=DOW KBr FOREPRISM-GRATING
##INSTRUMENT PARAMETERS=GRATING CHANGED AT 5.0, 7.5, 15.0 MICRON
##STATE=GAS (50 mmHg, N2 ADDED, TOTAL PRESSURE 600 mmHg)
##PATH LENGTH=5 CM
##SAMPLING PROCEDURE=TRANSMISSION
##RESOLUTION=2
##DATA PROCESSING=DIGITIZED BY COBLENTZ SOCIETY (BATCH II) FROM HARD COPY
##XUNITS=1/CM
##YUNITS=TRANSMITTANCE
##XFACTOR=1.0
##YFACTOR=1
##FIRSTX=457
##LASTX=3792
##FIRSTY=0.7422
##MAXX=3792
##MINX=457
##MAXY=0.8802
##MINY=0.0231
##NPOINTS=3336
##XYDATA=(X++(Y..Y))
457.000000 0.7422 0.7405 0.7388 0.7373 0.7359
462.000000 0.7344 0.7335 0.7326 0.7320 0.7319
467.000000 0.7317 0.7315 0.7315 0.7317 0.7318
472.000000 0.7320 0.7322 0.7324 0.7327 0.7330
477.000000 0.7333 0.7341 0.7351 0.7379 0.7519
482.000000 0.7682 0.7749 0.7816 0.7875 0.7923
487.000000 0.7970 0.8018 0.8058 0.8098 0.8138
492.000000 0.8177 0.8213 0.8249 0.8284 0.8317
497.000000 0.8341 0.8365 0.8380 0.8387 0.8394
502.000000 0.8396 0.8396 0.8396 0.8397 0.8396
507.000000 0.8395 0.8394 0.8392 0.8391 0.8390
512.000000 0.8388 0.8386 0.8384 0.8377 0.8367
517.000000 0.8356 0.8345 0.8336 0.8332 0.8328
522.000000 0.8324 0.8320 0.8319 0.8320 0.8321
527.000000 0.8322 0.8323 0.8325 0.8327 0.8330
532.000000 0.8333 0.8335 0.8342 0.8349 0.8356
537.000000 0.8363 0.8367 0.8372 0.8376 0.8381
542.000000 0.8385 0.8389 0.8393 0.8395 0.8397
547.000000 0.8399 0.8402 0.8404 0.8406 0.8409
552.000000 0.8411 0.8414 0.8418 0.8422 0.8425
557.000000 0.8429 0.8433 0.8436 0.8440 0.8444
562.000000 0.8447 0.8451 0.8455 0.8459 0.8463
567.000000 0.8466 0.8468 0.8469 0.8469 0.8469
572.000000 0.8469 0.8469 0.8468 0.8465 0.8462
577.000000 0.8474 0.8449 0.8444 0.8446 0.8449
582.000000 0.8452 0.8456 0.8460 0.8463 0.8467
587.000000 0.8471 0.8475 0.8479 0.8483 0.8487
592.000000 0.8490 0.8494 0.8498 0.8502 0.8505
597.000000 0.8508 0.8512 0.8515 0.8518 0.8522
602.000000 0.8524 0.8526 0.8528 0.8523 0.8499
607.000000 0.8474 0.8452 0.8440 0.8429 0.8422
612.000000 0.8418 0.8424 0.8429 0.8435 0.8442
617.000000 0.8449 0.8458 0.8467 0.8476 0.8485
622.000000 0.8493 0.8501 0.8509 0.8518 0.8525
627.000000 0.8533 0.8541 0.8549 0.8556 0.8561
632.000000 0.8564 0.8567 0.8570 0.8573 0.8576
637.000000 0.8573 0.8569 0.8566 0.8563 0.8559
642.000000 0.8553 0.8548 0.8542 0.8537 0.8528
647.000000 0.8517 0.8506 0.8495 0.8485 0.8474
652.000000 0.8459 0.8444 0.8429 0.8414 0.8398
657.000000 0.8377 0.8356 0.8335 0.8314 0.8293
662.000000 0.8272 0.8249 0.8227 0.8205 0.8182
667.000000 0.8205 0.8241 0.8257 0.8255 0.8138
672.000000 0.8025 0.7953 0.7930 0.7933 0.7936
677.000000 0.7938 0.7938 0.7939 0.7939 0.7933
682.000000 0.7888 0.7833 0.7783 0.7722 0.7659
687.000000 0.7576 0.7506 0.7425 0.7319 0.7217
692.000000 0.7075 0.6806 0.5515 0.4986 0.4421
697.000000 0.3856 0.3291 0.2726 0.2160 0.1595
702.000000 0.1030 0.0465 0.0297 0.0292 0.0291
707.000000 0.0290 0.0289 0.0285 0.0292 0.0271
712.000000 0.0252 0.0236 0.0231 0.0238 0.0681
717.000000 0.1912 0.3143 0.4374 0.5605 0.6836
722.000000 0.8066 0.8397 0.8473 0.8515 0.8548
727.000000 0.8560 0.8564 0.8564 0.8564 0.8564
732.000000 0.8563 0.8561 0.8559 0.8558 0.8556
737.000000 0.8555 0.8552 0.8550 0.8547 0.8544
742.000000 0.8541 0.8539 0.8551 0.8532 0.8529
747.000000 0.8526 0.8523 0.8520 0.8517 0.8513
752.000000 0.8512 0.8510 0.8509 0.8507 0.8506
757.000000 0.8504 0.8503 0.8501 0.8500 0.8499
762.000000 0.8498 0.8497 0.8496 0.8496 0.8495
767.000000 0.8494 0.8493 0.8492 0.8492 0.8491
772.000000 0.8490 0.8487 0.8483 0.8479 0.8476
777.000000 0.8472 0.8451 0.8427 0.8402 0.8376
782.000000 0.8348 0.8318 0.8280 0.8242 0.8214
787.000000 0.8197 0.8180 0.8165 0.8156 0.8146
792.000000 0.8136 0.8127 0.8116 0.8105 0.8095
797.000000 0.8090 0.8112 0.8105 0.8124 0.8152
802.000000 0.8182 0.8209 0.8236 0.8266 0.8299
807.000000 0.8313 0.8327 0.8337 0.8342 0.8348
812.000000 0.8356 0.8364 0.8373 0.8393 0.8415
817.000000 0.8435 0.8455 0.8474 0.8484 0.8494
822.000000 0.8503 0.8513 0.8518 0.8519 0.8521
827.000000 0.8522 0.8519 0.8515 0.8511 0.8507
832.000000 0.8504 0.8500 0.8496 0.8492 0.8493
837.000000 0.8484 0.8482 0.8484 0.8486 0.8488
842.000000 0.8490 0.8490 0.8490 0.8490 0.8476
847.000000 0.8459 0.8434 0.8404 0.8368 0.8329
852.000000 0.8284 0.8222 0.8160 0.8078 0.7982
857.000000 0.7884 0.7771 0.7658 0.7539 0.7417
862.000000 0.7144 0.6669 0.6195 0.5720 0.5245
867.000000 0.4771 0.4296 0.3822 0.3347 0.3153
872.000000 0.2990 0.2885 0.2780 0.2665 0.2554
877.000000 0.2501 0.2506 0.2639 0.2772 0.2882
882.000000 0.2878 0.0486 0.0464 0.1340 0.2274
887.000000 0.2672 0.2697 0.2724 0.2749 0.2789
892.000000 0.2835 0.2904 0.3380 0.3900 0.4298
897.000000 0.4696 0.5094 0.5492 0.5890 0.6288
902.000000 0.6686 0.7084 0.7288 0.7405 0.7512
907.000000 0.7663 0.7807 0.7903 0.7999 0.8095
912.000000 0.8222 0.8384 0.8429 0.8459 0.8469
917.000000 0.8477 0.8480 0.8484 0.8491 0.8500
922.000000 0.8510 0.8520 0.8530 0.8541 0.8553
927.000000 0.8564 0.8575 0.8586 0.8597 0.8608
932.000000 0.8615 0.8623 0.8630 0.8638 0.8644
937.000000 0.8647 0.8649 0.8652 0.8654 0.8656
942.000000 0.8656 0.8656 0.8657 0.8657 0.8657
947.000000 0.8657 0.8657 0.8656 0.8655 0.8654
952.000000 0.8652 0.8651 0.8623 0.8648 0.8646
957.000000 0.8644 0.8641 0.8638 0.8636 0.8633
962.000000 0.8630 0.8628 0.8625 0.8622 0.8619
967.000000 0.8615 0.8611 0.8607 0.8603 0.8599
972.000000 0.8595 0.8591 0.8587 0.8584 0.8579
977.000000 0.8575 0.8570 0.8565 0.8560 0.8555
982.000000 0.8551 0.8552 0.8553 0.8554 0.8554
987.000000 0.8555 0.8557 0.8558 0.8559 0.8560
992.000000 0.8562 0.8563 0.8564 0.8567 0.8569
997.000000 0.8572 0.8574 0.8576 0.8579 0.8581
1002.000000 0.8584 0.8586 0.8588 0.8592 0.8597
1007.000000 0.8602 0.8606 0.8611 0.8616 0.8621
1012.000000 0.8625 0.8626 0.8627 0.8628 0.8629
1017.000000 0.8630 0.8621 0.8612 0.8604 0.8595
1022.000000 0.8583 0.8557 0.8532 0.8506 0.8479
1027.000000 0.8449 0.8418 0.8383 0.8337 0.8291
1032.000000 0.8216 0.8125 0.8017 0.7643 0.7351
1037.000000 0.7110 0.6855 0.6561 0.5738 0.4989
1042.000000 0.4239 0.3907 0.3767 0.3503 0.3106
1047.000000 0.2710 0.2314 0.1917 0.1648 0.1613
1052.000000 0.1666 0.1688 0.1715 0.1743 0.3616
1057.000000 0.3605 0.2704 0.2137 0.2120 0.2689
1062.000000 0.3407 0.4126 0.4844 0.5562 0.6281
1067.000000 0.6999 0.7376 0.7400 0.7380 0.6633
1072.000000 0.5853 0.5072 0.4292 0.3511 0.2731
1077.000000 0.1951 0.1170 0.0717 0.0742 0.0670
1082.000000 0.0656 0.0642 0.1061 0.1298 0.1534
1087.000000 0.1526 0.0862 0.0535 0.0558 0.1514
1092.000000 0.2131 0.2747 0.3364 0.3981 0.4597
1097.000000 0.5214 0.5830 0.6447 0.7064 0.7680
1102.000000 0.8214 0.8345 0.8434 0.8498 0.8521
1107.000000 0.8539 0.8550 0.8561 0.8571 0.8578
1112.000000 0.8585 0.8592 0.8594 0.8592 0.8587
1117.000000 0.8583 0.8578 0.8573 0.8569 0.8567
1122.000000 0.8564 0.8562 0.8564 0.8578 0.8568
1127.000000 0.8570 0.8571 0.8571 0.8571 0.8571
1132.000000 0.8571 0.8570 0.8566 0.8563 0.8559
1137.000000 0.8556 0.8552 0.8548 0.8544 0.8540
1142.000000 0.8536 0.8532 0.8530 0.8530 0.8529
1147.000000 0.8528 0.8528 0.8524 0.8518 0.8513
1152.000000 0.8504 0.8487 0.8471 0.8444 0.8413
1157.000000 0.8370 0.8258 0.8146 0.8035 0.7923
1162.000000 0.7811 0.7700 0.7588 0.7476 0.7377
1167.000000 0.7306 0.7238 0.7176 0.7124 0.7067
1172.000000 0.7043 0.7029 0.7019 0.7018 0.7017
1177.000000 0.7043 0.7022 0.7032 0.7057 0.7091
1182.000000 0.7185 0.7695 0.8322 0.8547 0.8603
1187.000000 0.8649 0.8673 0.8688 0.8697 0.8700
1192.000000 0.8704 0.8704 0.8704 0.8703 0.8717
1197.000000 0.8702 0.8700 0.8697 0.8695 0.8692
1202.000000 0.8689 0.8686 0.8682 0.8678 0.8674
1207.000000 0.8670 0.8666 0.8663 0.8658 0.8654
1212.000000 0.8649 0.8644 0.8640 0.8635 0.8629
1217.000000 0.8624 0.8619 0.8613 0.8608 0.8603
1222.000000 0.8602 0.8603 0.8603 0.8604 0.8605
1227.000000 0.8606 0.8609 0.8614 0.8619 0.8624
1232.000000 0.8629 0.8639 0.8649 0.8648 0.8647
1237.000000 0.8644 0.8640 0.8636 0.8633 0.8627
1242.000000 0.8620 0.8613 0.8605 0.8598 0.8588
1247.000000 0.8579 0.8570 0.8561 0.8548 0.8534
1252.000000 0.8520 0.8506 0.8492 0.8478 0.8464
1257.000000 0.8451 0.8437 0.8420 0.8404 0.8388
1262.000000 0.8371 0.8355 0.8339 0.8320 0.8297
1267.000000 0.8275 0.8253 0.8231 0.8205 0.8170
1272.000000 0.8143 0.8134 0.8124 0.8116 0.8108
1277.000000 0.8131 0.8154 0.8175 0.8193 0.8204
1282.000000 0.8184 0.8225 0.8139 0.8121 0.8118
1287.000000 0.8091 0.8166 0.8199 0.8235 0.8271
1292.000000 0.8303 0.8334 0.8364 0.8394 0.8427
1297.000000 0.8460 0.8490 0.8504 0.8507 0.8511
1302.000000 0.8514 0.8516 0.8517 0.8519 0.8521
1307.000000 0.8522 0.8523 0.8523 0.8523 0.8522
1312.000000 0.8522 0.8521 0.8521 0.8520 0.8519
1317.000000 0.8516 0.8536 0.8511 0.8508 0.8505
1322.000000 0.8502 0.8499 0.8495 0.8489 0.8484
1327.000000 0.8478 0.8473 0.8467 0.8462 0.8453
1332.000000 0.8443 0.8433 0.8424 0.8414 0.8404
1337.000000 0.8395 0.8381 0.8367 0.8352 0.8337
1342.000000 0.8323 0.8308 0.8293 0.8279 0.8264
1347.000000 0.8239 0.8209 0.8179 0.8150 0.8119
1352.000000 0.8068 0.8018 0.7967 0.7917 0.7837
1357.000000 0.7755 0.7669 0.7581 0.7494 0.7411
1362.000000 0.7328 0.7246 0.7167 0.7100 0.7043
1367.000000 0.6991 0.6963 0.6935 0.6925 0.6919
1372.000000 0.6913 0.6914 0.6916 0.6921 0.6928
1377.000000 0.6937 0.6954 0.6975 0.6999 0.7023
1382.000000 0.7061 0.7102 0.7138 0.7175 0.7210
1387.000000 0.7243 0.7277 0.7310 0.7346 0.7383
1392.000000 0.7419 0.7456 0.7494 0.7531 0.7569
1397.000000 0.7606 0.7643 0.7675 0.7707 0.7739
1402.000000 0.7771 0.7803 0.7838 0.7883 0.7928
1407.000000 0.7970 0.8011 0.8051 0.8072 0.8094
1412.000000 0.8115 0.8136 0.8158 0.8179 0.8201
1417.000000 0.8223 0.8245 0.8267 0.8287 0.8303
1422.000000 0.8318 0.8332 0.8345 0.8358 0.8372
1427.000000 0.8383 0.8391 0.8398 0.8404 0.8408
1432.000000 0.8413 0.8418 0.8423 0.8427 0.8431
1437.000000 0.8435 0.8438 0.8442 0.8445 0.8448
1442.000000 0.8452 0.8455 0.8456 0.8456 0.8456
1447.000000 0.8456 0.8456 0.8449 0.8443 0.8435
1452.000000 0.8427 0.8419 0.8411 0.8403 0.8396
1457.000000 0.8396 0.8398 0.8407 0.8416 0.8425
1462.000000 0.8430 0.8436 0.8440 0.8440 0.8440
1467.000000 0.8440 0.8429 0.8441 0.8441 0.8443
1472.000000 0.8447 0.8451 0.8458 0.8467 0.8477
1477.000000 0.8481 0.8486 0.8491 0.8493 0.8495
1482.000000 0.8496 0.8498 0.8499 0.8500 0.8501
1487.000000 0.8501 0.8500 0.8500 0.8500 0.8499
1492.000000 0.8499 0.8499 0.8497 0.8496 0.8495
1497.000000 0.8493 0.8492 0.8490 0.8489 0.8487
1502.000000 0.8483 0.8480 0.8476 0.8473 0.8469
1507.000000 0.8465 0.8462 0.8458 0.8454 0.8450
1512.000000 0.8446 0.8443 0.8439 0.8435 0.8431
1517.000000 0.8424 0.8416 0.8407 0.8398 0.8389
1522.000000 0.8380 0.8371 0.8360 0.8348 0.8336
1527.000000 0.8324 0.8312 0.8300 0.8288 0.8276
1532.000000 0.8266 0.8256 0.8246 0.8236 0.8226
1537.000000 0.8216 0.8207 0.8203 0.8198 0.8193
1542.000000 0.8189 0.8188 0.8163 0.8194 0.8212
1547.000000 0.8238 0.8287 0.8345 0.8395 0.8426
1552.000000 0.8446 0.8432 0.8426 0.8419 0.8412
1557.000000 0.8391 0.8362 0.8333 0.8305 0.8260
1562.000000 0.8218 0.8179 0.8140 0.8088 0.8036
1567.000000 0.7968 0.7901 0.7826 0.7747 0.7664
1572.000000 0.7579 0.7492 0.7369 0.7246 0.6988
1577.000000 0.6714 0.6452 0.6098 0.5384 0.5068
1582.000000 0.4752 0.4435 0.4119 0.3803 0.3486
1587.000000 0.3170 0.2854 0.2538 0.2221 0.1905
1592.000000 0.1589 0.1272 0.1081 0.1091 0.1089
1597.000000 0.1160 0.1339 0.1518 0.1697 0.1876
1602.000000 0.2019 0.2015 0.1337 0.0880 0.0893
1607.000000 0.0885 0.1212 0.1334 0.1610 0.2059
1612.000000 0.2508 0.2956 0.3405 0.3854 0.4303
1617.000000 0.4752 0.5201 0.5649 0.6098 0.6547
1622.000000 0.6996 0.7321 0.7521 0.7631 0.7704
1627.000000 0.7777 0.7937 0.8201 0.8282 0.8324
1632.000000 0.8359 0.8375 0.8390 0.8406 0.8422
1637.000000 0.8433 0.8443 0.8453 0.8463 0.8467
1642.000000 0.8469 0.8472 0.8472 0.8472 0.8471
1647.000000 0.8471 0.8470 0.8470 0.8462 0.8451
1652.000000 0.8437 0.8420 0.8404 0.8403 0.8416
1657.000000 0.8440 0.8455 0.8465 0.8470 0.8475
1662.000000 0.8476 0.8476 0.8477 0.8478 0.8479
1667.000000 0.8480 0.8507 0.8482 0.8483 0.8485
1672.000000 0.8484 0.8483 0.8481 0.8480 0.8479
1677.000000 0.8478 0.8476 0.8475 0.8473 0.8469
1682.000000 0.8465 0.8466 0.8471 0.8475 0.8487
1687.000000 0.8500 0.8508 0.8510 0.8510 0.8504
1692.000000 0.8498 0.8493 0.8486 0.8478 0.8470
1697.000000 0.8462 0.8454 0.8451 0.8448 0.8456
1702.000000 0.8467 0.8478 0.8489 0.8493 0.8491
1707.000000 0.8483 0.8475 0.8466 0.8458 0.8450
1712.000000 0.8444 0.8438 0.8432 0.8426 0.8422
1717.000000 0.8418 0.8414 0.8413 0.8417 0.8422
1722.000000 0.8426 0.8430 0.8434 0.8442 0.8453
1727.000000 0.8465 0.8456 0.8441 0.8423 0.8405
1732.000000 0.8389 0.8382 0.8376 0.8369 0.8367
1737.000000 0.8366 0.8365 0.8361 0.8341 0.8323
1742.000000 0.8305 0.8287 0.8265 0.8240 0.8214
1747.000000 0.8174 0.8134 0.8091 0.8048 0.8000
1752.000000 0.7951 0.7903 0.7848 0.7793 0.7737
1757.000000 0.7673 0.7615 0.7592 0.7589 0.7607
1762.000000 0.7731 0.7862 0.7948 0.7944 0.7762
1767.000000 0.7573 0.7505 0.7509 0.7505 0.7544
1772.000000 0.7617 0.7745 0.7863 0.7940 0.8000
1777.000000 0.8051 0.8096 0.8136 0.8172 0.8201
1782.000000 0.8227 0.8253 0.8278 0.8298 0.8317
1787.000000 0.8333 0.8349 0.8360 0.8367 0.8373
1792.000000 0.8380 0.8388 0.8395 0.8403 0.8419
1797.000000 0.8438 0.8459 0.8480 0.8496 0.8502
1802.000000 0.8508 0.8515 0.8521 0.8525 0.8528
1807.000000 0.8532 0.8536 0.8539 0.8542 0.8541
1812.000000 0.8541 0.8540 0.8540 0.8539 0.8539
1817.000000 0.8538 0.8537 0.8536 0.8535 0.8534
1822.000000 0.8533 0.8533 0.8533 0.8534 0.8535
1827.000000 0.8535 0.8536 0.8537 0.8537 0.8537
1832.000000 0.8532 0.8527 0.8526 0.8526 0.8525
1837.000000 0.8525 0.8525 0.8524 0.8524 0.8524
1842.000000 0.8524 0.8524 0.8524 0.8525 0.8525
1847.000000 0.8525 0.8525 0.8525 0.8525 0.8526
1852.000000 0.8526 0.8526 0.8526 0.8526 0.8526
1857.000000 0.8527 0.8527 0.8527 0.8528 0.8528
1862.000000 0.8528 0.8529 0.8529 0.8529 0.8530
1867.000000 0.8530 0.8531 0.8531 0.8531 0.8532
1872.000000 0.8532 0.8532 0.8533 0.8533 0.8533
1877.000000 0.8534 0.8537 0.8539 0.8541 0.8543
1882.000000 0.8545 0.8548 0.8550 0.8552 0.8554
1887.000000 0.8556 0.8559 0.8561 0.8563 0.8564
1892.000000 0.8565 0.8565 0.8566 0.8567 0.8567
1897.000000 0.8566 0.8565 0.8562 0.8556 0.8551
1902.000000 0.8546 0.8541 0.8536 0.8531 0.8529
1907.000000 0.8528 0.8527 0.8528 0.8529 0.8530
1912.000000 0.8532 0.8533 0.8534 0.8535 0.8536
1917.000000 0.8537 0.8538 0.8539 0.8540 0.8541
1922.000000 0.8542 0.8543 0.8544 0.8545 0.8546
1927.000000 0.8547 0.8548 0.8549 0.8550 0.8550
1932.000000 0.8551 0.8552 0.8553 0.8553 0.8554
1937.000000 0.8555 0.8555 0.8556 0.8557 0.8558
1942.000000 0.8558 0.8559 0.8560 0.8560 0.8560
1947.000000 0.8560 0.8561 0.8561 0.8561 0.8561
1952.000000 0.8561 0.8561 0.8562 0.8562 0.8562
1957.000000 0.8562 0.8562 0.8562 0.8562 0.8563
1962.000000 0.8563 0.8563 0.8563 0.8564 0.8564
1967.000000 0.8564 0.8565 0.8565 0.8565 0.8566
1972.000000 0.8566 0.8566 0.8567 0.8567 0.8567
1977.000000 0.8568 0.8568 0.8568 0.8569 0.8569
1982.000000 0.8569 0.8570 0.8570 0.8571 0.8571
1987.000000 0.8571 0.8572 0.8572 0.8573 0.8573
1992.000000 0.8574 0.8574 0.8575 0.8575 0.8576
1997.000000 0.8576 0.8577 0.8588 0.8582 0.8582
2002.000000 0.8582 0.8581 0.8580 0.8579 0.8578
2007.000000 0.8577 0.8577 0.8577 0.8578 0.8578
2012.000000 0.8578 0.8578 0.8578 0.8578 0.8578
2017.000000 0.8578 0.8578 0.8577 0.8577 0.8577
2022.000000 0.8577 0.8576 0.8576 0.8576 0.8576
2027.000000 0.8575 0.8575 0.8575 0.8575 0.8575
2032.000000 0.8576 0.8576 0.8576 0.8576 0.8576
2037.000000 0.8576 0.8576 0.8576 0.8576 0.8576
2042.000000 0.8576 0.8576 0.8576 0.8576 0.8577
2047.000000 0.8576 0.8575 0.8574 0.8574 0.8573
2052.000000 0.8572 0.8571 0.8570 0.8569 0.8569
2057.000000 0.8568 0.8567 0.8566 0.8566 0.8565
2062.000000 0.8564 0.8563 0.8563 0.8563 0.8563
2067.000000 0.8563 0.8563 0.8563 0.8563 0.8563
2072.000000 0.8564 0.8564 0.8565 0.8565 0.8566
2077.000000 0.8566 0.8567 0.8567 0.8568 0.8569
2082.000000 0.8570 0.8570 0.8571 0.8571 0.8572
2087.000000 0.8572 0.8573 0.8573 0.8574 0.8575
2092.000000 0.8576 0.8576 0.8577 0.8577 0.8578
2097.000000 0.8579 0.8580 0.8580 0.8581 0.8581
2102.000000 0.8582 0.8583 0.8584 0.8584 0.8585
2107.000000 0.8585 0.8585 0.8585 0.8585 0.8585
2112.000000 0.8585 0.8585 0.8585 0.8585 0.8585
2117.000000 0.8585 0.8585 0.8585 0.8585 0.8585
2122.000000 0.8585 0.8585 0.8585 0.8585 0.8585
2127.000000 0.8585 0.8585 0.8585 0.8585 0.8585
2132.000000 0.8585 0.8585 0.8585 0.8585 0.8585
2137.000000 0.8585 0.8585 0.8585 0.8585 0.8584
2142.000000 0.8584 0.8584 0.8585 0.8585 0.8586
2147.000000 0.8586 0.8587 0.8587 0.8587 0.8587
2152.000000 0.8588 0.8588 0.8589 0.8589 0.8590
2157.000000 0.8590 0.8591 0.8591 0.8591 0.8591
2162.000000 0.8592 0.8592 0.8593 0.8593 0.8594
2167.000000 0.8594 0.8595 0.8595 0.8595 0.8595
2172.000000 0.8596 0.8596 0.8597 0.8597 0.8598
2177.000000 0.8598 0.8599 0.8599 0.8599 0.8600
2182.000000 0.8601 0.8601 0.8602 0.8602 0.8603
2187.000000 0.8603 0.8604 0.8605 0.8606 0.8606
2192.000000 0.8607 0.8607 0.8608 0.8608 0.8609
2197.000000 0.8609 0.8610 0.8611 0.8612 0.8612
2202.000000 0.8613 0.8614 0.8615 0.8616 0.8618
2207.000000 0.8619 0.8620 0.8621 0.8622 0.8623
2212.000000 0.8624 0.8624 0.8624 0.8624 0.8624
2217.000000 0.8623 0.8623 0.8623 0.8623 0.8622
2222.000000 0.8622 0.8622 0.8622 0.8622 0.8623
2227.000000 0.8624 0.8625 0.8625 0.8626 0.8627
2232.000000 0.8628 0.8628 0.8629 0.8630 0.8631
2237.000000 0.8631 0.8632 0.8632 0.8633 0.8634
2242.000000 0.8635 0.8635 0.8635 0.8634 0.8634
2247.000000 0.8634 0.8634 0.8633 0.8633 0.8633
2252.000000 0.8633 0.8633 0.8633 0.8632 0.8632
2257.000000 0.8632 0.8632 0.8632 0.8633 0.8633
2262.000000 0.8633 0.8633 0.8633 0.8633 0.8633
2267.000000 0.8632 0.8632 0.8631 0.8630 0.8628
2272.000000 0.8627 0.8626 0.8625 0.8624 0.8623
2277.000000 0.8622 0.8621 0.8619 0.8618 0.8617
2282.000000 0.8616 0.8614 0.8612 0.8610 0.8608
2287.000000 0.8605 0.8603 0.8600 0.8598 0.8596
2292.000000 0.8594 0.8591 0.8589 0.8586 0.8584
2297.000000 0.8582 0.8580 0.8577 0.8575 0.8572
2302.000000 0.8570 0.8568 0.8566 0.8563 0.8561
2307.000000 0.8559 0.8557 0.8555 0.8553 0.8554
2312.000000 0.8556 0.8558 0.8561 0.8566 0.8572
2317.000000 0.8577 0.8583 0.8588 0.8594 0.8599
2322.000000 0.8605 0.8610 0.8616 0.8622 0.8629
2327.000000 0.8635 0.8641 0.8647 0.8653 0.8659
2332.000000 0.8665 0.8670 0.8676 0.8679 0.8683
2337.000000 0.8686 0.8689 0.8689 0.8689 0.8689
2342.000000 0.8689 0.8689 0.8689 0.8689 0.8690
2347.000000 0.8690 0.8690 0.8690 0.8690 0.8689
2352.000000 0.8689 0.8688 0.8687 0.8686 0.8685
2357.000000 0.8684 0.8683 0.8681 0.8680 0.8679
2362.000000 0.8678 0.8677 0.8676 0.8675 0.8674
2367.000000 0.8672 0.8671 0.8670 0.8669 0.8668
2372.000000 0.8667 0.8666 0.8665 0.8664 0.8663
2377.000000 0.8662 0.8661 0.8660 0.8660 0.8659
2382.000000 0.8658 0.8657 0.8657 0.8656 0.8656
2387.000000 0.8655 0.8654 0.8653 0.8653 0.8652
2392.000000 0.8652 0.8651 0.8651 0.8650 0.8649
2397.000000 0.8648 0.8647 0.8646 0.8646 0.8645
2402.000000 0.8644 0.8643 0.8642 0.8641 0.8641
2407.000000 0.8640 0.8639 0.8638 0.8637 0.8637
2412.000000 0.8637 0.8637 0.8637 0.8637 0.8637
2417.000000 0.8637 0.8637 0.8636 0.8636 0.8636
2422.000000 0.8636 0.8636 0.8636 0.8636 0.8636
2427.000000 0.8636 0.8636 0.8636 0.8636 0.8636
2432.000000 0.8636 0.8636 0.8636 0.8635 0.8635
2437.000000 0.8635 0.8635 0.8635 0.8636 0.8636
2442.000000 0.8636 0.8636 0.8636 0.8636 0.8636
2447.000000 0.8636 0.8636 0.8636 0.8636 0.8636
2452.000000 0.8637 0.8637 0.8637 0.8637 0.8637
2457.000000 0.8637 0.8637 0.8637 0.8637 0.8637
2462.000000 0.8637 0.8637 0.8637 0.8637 0.8638
2467.000000 0.8638 0.8639 0.8639 0.8640 0.8641
2472.000000 0.8642 0.8643 0.8644 0.8645 0.8646
2477.000000 0.8646 0.8647 0.8648 0.8649 0.8650
2482.000000 0.8651 0.8652 0.8653 0.8653 0.8654
