##TITLE=1,1-DIBROMO-1-CHLORO ETHANE
##JCAMP-DX=4.24
##DATA TYPE=INFRARED SPECTRUM
##CLASS=COBLENTZ
##ORIGIN=DOW CHEMICAL COMPANY
##OWNER=COBLENTZ SOCIETY
Collection (C) 2018 copyright by the U.S. Secretary of Commerce
on behalf of the United States of America. All rights reserved.
##DATE=Not specified, most likely prior to 1970
##NAMES=1,1-dibromo-1-chloroethane
##CAS REGISTRY NO=594-17-2
##MOLFORM=C2 H3 Br2 Cl
##SOURCE REFERENCE=COBLENTZ NO. 1924
##$NIST SOURCE=COBLENTZ
##$NIST IMAGE=cob1924
##SPECTROMETER/DATA SYSTEM=Not specified, most likely a prism, grating, or hybrid spectrometer.
##STATE=SOLUTION (10% CCl4 FOR 5000-1330, 10% CS2 FOR 1330-625 CM^-^1)
##PATH LENGTH=0.0130 CM, 0.0129 CM
$$SPECTRAL CONTAMINATION DUE TO CS2 AROUND 850, AND CCl4 AROUND 1550 CM^-^1
##SAMPLING PROCEDURE=TRANSMISSION
##RESOLUTION=4
##DATA PROCESSING=DIGITIZED BY NIST FROM HARD COPY
##XUNITS=MICROMETERS
##YUNITS=TRANSMITTANCE
##XFACTOR=1.000000
##YFACTOR=1
##DELTAX=000.006859
##FIRSTX=2.041
##LASTX=15.9313
##FIRSTY=0.855
##MAXX=15.9313
##MINX=2.041
##MAXY=0.977
##MINY=0.025
##NPOINTS=2026
##XYDATA=(X++(Y..Y))
2.041000 0.8550 0.8580 0.8600 0.8620 0.8640
2.075314 0.8640 0.8670 0.8690 0.8690 0.8690
2.110000 0.8690 0.8670 0.8670 0.8670 0.8670
2.144314 0.8670 0.8670 0.8690 0.8700 0.8720
2.178000 0.8740 0.8740 0.8740 0.8740 0.8720
2.212314 0.8720 0.8700 0.8700 0.8700 0.8700
2.247000 0.8700 0.8700 0.8700 0.8700 0.8700
2.281314 0.8720 0.8720 0.8720 0.8720 0.8720
2.316000 0.8770 0.8770 0.8810 0.8810 0.8810
2.350314 0.8810 0.8810 0.8810 0.8810 0.8820
2.384000 0.8820 0.8840 0.8860 0.8880 0.8880
2.418314 0.8880 0.8880 0.8880 0.8880 0.8880
2.453000 0.8880 0.8880 0.8880 0.8880 0.8910
2.487314 0.8930 0.8930 0.8930 0.8950 0.8950
2.521000 0.8960 0.8960 0.8960 0.8960 0.8980
2.555314 0.8980 0.9000 0.9000 0.9000 0.9000
2.590000 0.9000 0.9000 0.9000 0.8980 0.8980
2.624314 0.8980 0.8980 0.8980 0.8980 0.8980
2.659000 0.9000 0.9010 0.9010 0.9030 0.9010
2.693314 0.9010 0.9010 0.9010 0.9010 0.9030
2.727000 0.9030 0.9030 0.9010 0.9010 0.9010
2.761314 0.9010 0.9010 0.9010 0.9010 0.9010
2.796000 0.9010 0.9010 0.9000 0.9000 0.8980
2.830314 0.8980 0.8980 0.8960 0.8960 0.8960
2.864000 0.8950 0.8930 0.8910 0.8910 0.8910
2.898314 0.8910 0.8910 0.8910 0.8890 0.8820
2.933000 0.8810 0.8790 0.8770 0.8770 0.8760
2.967314 0.8760 0.8770 0.8770 0.8790 0.8790
3.001000 0.8810 0.8810 0.8820 0.8820 0.8820
3.035314 0.8820 0.8820 0.8820 0.8880 0.8910
3.070000 0.8960 0.9000 0.9000 0.9000 0.9000
3.104314 0.9000 0.9000 0.9000 0.9000 0.8980
3.139000 0.8980 0.8980 0.9000 0.9000 0.9000
3.173314 0.9000 0.9000 0.9010 0.9010 0.9010
3.207000 0.9030 0.9050 0.9050 0.9050 0.9050
3.241314 0.9070 0.9070 0.9070 0.9070 0.9070
3.276000 0.9070 0.9050 0.9030 0.9010 0.9010
3.310314 0.8980 0.8910 0.8880 0.8820 0.8810
3.344000 0.8790 0.8820 0.8860 0.8890 0.8930
3.378314 0.8950 0.8950 0.8960 0.8980 0.9000
3.413000 0.9000 0.9010 0.9070 0.9120 0.9130
3.447314 0.9170 0.9170 0.9170 0.9170 0.9150
3.482000 0.9130 0.9130 0.9130 0.9150 0.9190
3.516314 0.9190 0.9220 0.9240 0.9240 0.9240
3.550000 0.9240 0.9240 0.9240 0.9250 0.9240
3.584314 0.9240 0.9240 0.9240 0.9250 0.9250
3.619000 0.9270 0.9270 0.9270 0.9270 0.9290
3.653314 0.9290 0.9320 0.9320 0.9320 0.9380
3.687000 0.9380 0.9380 0.9380 0.9390 0.9390
3.721314 0.9390 0.9390 0.9410 0.9430 0.9430
3.756000 0.9440 0.9440 0.9440 0.9430 0.9430
3.790314 0.9430 0.9430 0.9430 0.9440 0.9440
3.825000 0.9440 0.9440 0.9440 0.9430 0.9430
3.859314 0.9430 0.9430 0.9430 0.9440 0.9440
3.893000 0.9440 0.9440 0.9440 0.9440 0.9460
3.927314 0.9460 0.9460 0.9460 0.9460 0.9460
3.962000 0.9460 0.9480 0.9480 0.9480 0.9500
3.996314 0.9500 0.9510 0.9510 0.9530 0.9530
4.030000 0.9530 0.9530 0.9530 0.9510 0.9500
4.064314 0.9480 0.9430 0.9430 0.9410 0.9410
4.099000 0.9410 0.9410 0.9430 0.9430 0.9440
4.133314 0.9500 0.9500 0.9510 0.9530 0.9530
4.168000 0.9530 0.9530 0.9530 0.9530 0.9550
4.202314 0.9560 0.9560 0.9560 0.9560 0.9560
4.236000 0.9560 0.9550 0.9550 0.9530 0.9530
4.270314 0.9510 0.9500 0.9500 0.9480 0.9440
4.305000 0.9430 0.9410 0.9390 0.9390 0.9390
4.339314 0.9390 0.9390 0.9390 0.9430 0.9430
4.373000 0.9440 0.9440 0.9460 0.9460 0.9480
4.407314 0.9500 0.9510 0.9530 0.9560 0.9580
4.442000 0.9580 0.9580 0.9580 0.9580 0.9600
4.476314 0.9600 0.9600 0.9600 0.9600 0.9620
4.511000 0.9620 0.9630 0.9630 0.9630 0.9630
4.545314 0.9630 0.9630 0.9630 0.9630 0.9650
4.579000 0.9650 0.9650 0.9630 0.9630 0.9630
4.613314 0.9630 0.9630 0.9650 0.9630 0.9630
4.648000 0.9620 0.9620 0.9620 0.9620 0.9620
4.682314 0.9620 0.9620 0.9620 0.9620 0.9620
4.716000 0.9600 0.9600 0.9580 0.9580 0.9580
4.750314 0.9580 0.9580 0.9560 0.9560 0.9560
4.785000 0.9560 0.9580 0.9580 0.9560 0.9560
4.819314 0.9560 0.9560 0.9580 0.9580 0.9560
4.854000 0.9560 0.9560 0.9560 0.9560 0.9560
4.888314 0.9560 0.9580 0.9600 0.9600 0.9620
4.922000 0.9620 0.9620 0.9620 0.9620 0.9620
4.956314 0.9620 0.9620 0.9620 0.9620 0.9600
4.991000 0.9600 0.9600 0.9600 0.9600 0.9600
5.025314 0.9600 0.9600 0.9600 0.9600 0.9620
5.059000 0.9620 0.9670 0.9670 0.9670 0.9670
5.093314 0.9670 0.9690 0.9700 0.9750 0.9770
5.128000 0.9770 0.9770 0.9770 0.9770 0.9770
5.162314 0.9770 0.9770 0.9770 0.9770 0.9770
5.196000 0.9770 0.9770 0.9750 0.9750 0.9720
5.230314 0.9720 0.9720 0.9720 0.9720 0.9700
5.265000 0.9700 0.9700 0.9700 0.9700 0.9700
5.299314 0.9700 0.9700 0.9700 0.9700 0.9700
5.334000 0.9700 0.9700 0.9700 0.9700 0.9700
5.368314 0.9690 0.9690 0.9690 0.9690 0.9690
5.402000 0.9690 0.9670 0.9650 0.9650 0.9620
5.436314 0.9620 0.9600 0.9600 0.9600 0.9600
5.471000 0.9600 0.9600 0.9620 0.9620 0.9620
5.505314 0.9620 0.9620 0.9630 0.9630 0.9650
5.539000 0.9650 0.9650 0.9650 0.9650 0.9650
5.573314 0.9650 0.9650 0.9650 0.9650 0.9650
5.608000 0.9650 0.9650 0.9650 0.9650 0.9650
5.642314 0.9650 0.9650 0.9650 0.9650 0.9630
5.677000 0.9630 0.9620 0.9600 0.9600 0.9600
5.711314 0.9600 0.9600 0.9600 0.9580 0.9580
5.745000 0.9580 0.9580 0.9580 0.9560 0.9530
5.779314 0.9530 0.9530 0.9530 0.9530 0.9530
5.814000 0.9530 0.9530 0.9530 0.9530 0.9530
5.848314 0.9530 0.9560 0.9550 0.9550 0.9550
5.882000 0.9550 0.9550 0.9550 0.9550 0.9550
5.916314 0.9560 0.9560 0.9560 0.9560 0.9560
5.951000 0.9550 0.9550 0.9550 0.9550 0.9550
5.985314 0.9560 0.9560 0.9550 0.9510 0.9500
6.020000 0.9500 0.9500 0.9480 0.9460 0.9440
6.054314 0.9430 0.9410 0.9390 0.9380 0.9380
6.088000 0.9380 0.9360 0.9340 0.9310 0.9270
6.122314 0.9270 0.9190 0.9120 0.9120 0.9070
6.157000 0.8980 0.8880 0.8810 0.8690 0.8690
6.191314 0.8530 0.8380 0.8170 0.7960 0.7880
6.225000 0.7810 0.7760 0.7500 0.7400 0.7100
6.259314 0.6900 0.6780 0.6620 0.6520 0.6470
6.294000 0.6410 0.6330 0.6310 0.6280 0.6230
6.328314 0.6170 0.6120 0.6070 0.5980 0.5810
6.363000 0.5690 0.5590 0.5490 0.5490 0.5330
6.397314 0.5160 0.4990 0.4800 0.4680 0.4570
6.431000 0.4520 0.4520 0.4540 0.4570 0.4590
6.465314 0.4620 0.4780 0.4900 0.5090 0.5300
6.500000 0.5520 0.5690 0.5810 0.5980 0.6020
6.534314 0.6120 0.6230 0.6310 0.6360 0.6470
6.568000 0.6520 0.6620 0.6760 0.6860 0.6950
6.602314 0.7070 0.7170 0.7310 0.7500 0.7570
6.637000 0.7690 0.7880 0.8070 0.8120 0.8220
6.671314 0.8310 0.8380 0.8500 0.8510 0.8620
6.706000 0.8640 0.8720 0.8790 0.8820 0.8840
6.740314 0.8910 0.8930 0.8980 0.9000 0.9010
6.774000 0.9010 0.9010 0.9010 0.9010 0.9010
6.808314 0.9010 0.9010 0.9000 0.9000 0.9000
6.843000 0.9000 0.8980 0.8930 0.8820 0.8720
6.877314 0.8580 0.8380 0.8100 0.7830 0.7520
6.911000 0.7290 0.7020 0.6910 0.6850 0.6850
6.945314 0.6880 0.7090 0.7380 0.7620 0.7830
6.980000 0.8120 0.8600 0.8640 0.8670 0.8690
7.014314 0.8690 0.8720 0.8720 0.8740 0.8740
7.049000 0.8740 0.8770 0.8820 0.8820 0.8860
7.083314 0.8880 0.8890 0.8910 0.8930 0.8960
7.117000 0.8980 0.8980 0.8980 0.8980 0.8980
7.151314 0.8930 0.8890 0.8820 0.8790 0.8670
7.186000 0.8480 0.8310 0.8020 0.7720 0.7460
7.220314 0.7100 0.6830 0.6690 0.6590 0.6570
7.254000 0.6590 0.6710 0.7070 0.7980 0.8820
7.288314 0.8960 0.9030 0.9030 0.9050 0.9070
7.323000 0.9080 0.9080 0.9100 0.9100 0.9120
7.357314 0.9150 0.9220 0.9220 0.9240 0.9250
7.391000 0.9250 0.9270 0.9290 0.9310 0.9340
7.425314 0.9340 0.9360 0.9360 0.9380 0.9380
7.460000 0.9380 0.9380 0.9380 0.9380 0.9380
7.494314 0.9380 0.9380 0.9380 0.9380 0.9380
7.529000 0.9380 0.9390 0.9380 0.9380 0.9380
7.563314 0.9380 0.9380 0.9380 0.9380 0.9380
7.597000 0.9380 0.9360 0.9360 0.9360 0.9360
7.631314 0.9360 0.9360 0.9360 0.9360 0.9360
7.666000 0.9360 0.9360 0.9360 0.9360 0.9360
7.700314 0.9360 0.9360 0.9360 0.9360 0.9360
7.734000 0.9360 0.9360 0.9360 0.9360 0.9360
7.768314 0.9360 0.9360 0.9360 0.9360 0.9360
7.803000 0.9360 0.9360 0.9360 0.9360 0.9360
7.837314 0.9360 0.9360 0.9360 0.9340 0.9340
7.872000 0.9340 0.9320 0.9320 0.9310 0.9290
7.906314 0.9290 0.9270 0.9270 0.9270 0.9250
7.940000 0.9250 0.9250 0.9250 0.9250 0.9250
7.974314 0.9250 0.9250 0.9250 0.9250 0.9250
8.009000 0.9250 0.9250 0.9250 0.9250 0.9250
8.043314 0.9250 0.9250 0.9250 0.9250 0.9250
8.077000 0.9250 0.9250 0.9240 0.9220 0.9220
8.111314 0.9200 0.9200 0.9200 0.9200 0.9200
8.146000 0.9200 0.9200 0.9200 0.9200 0.9200
8.180314 0.9200 0.9200 0.9200 0.9200 0.9220
8.215000 0.9220 0.9220 0.9220 0.9220 0.9220
8.249314 0.9220 0.9220 0.9220 0.9240 0.9240
8.283000 0.9220 0.9240 0.9240 0.9240 0.9250
8.317314 0.9250 0.9250 0.9250 0.9250 0.9250
8.352000 0.9220 0.9200 0.9200 0.9170 0.9170
8.386314 0.9150 0.9150 0.9130 0.9120 0.9120
8.420000 0.9120 0.9130 0.9150 0.9150 0.9190
8.454314 0.9190 0.9190 0.9200 0.9200 0.9200
8.489000 0.9200 0.9200 0.9220 0.9220 0.9220
8.523314 0.9200 0.9200 0.9200 0.9200 0.9200
8.558000 0.9200 0.9200 0.9200 0.9200 0.9190
8.592314 0.9190 0.9190 0.9170 0.9170 0.9170
8.626000 0.9170 0.9150 0.9130 0.9120 0.9100
8.660314 0.9100 0.9080 0.9080 0.9070 0.9070
8.695000 0.9050 0.9030 0.9030 0.9030 0.9010
8.729314 0.9000 0.8980 0.8980 0.8980 0.8960
8.763000 0.8960 0.8960 0.8960 0.8960 0.8960
8.797314 0.8960 0.8950 0.8950 0.8950 0.8950
8.832000 0.8930 0.8930 0.8930 0.8930 0.8910
8.866314 0.8890 0.8890 0.8880 0.8880 0.8880
8.901000 0.8880 0.8880 0.8880 0.8880 0.8880
8.935314 0.8880 0.8890 0.8910 0.8910 0.8950
8.969000 0.8950 0.8960 0.8960 0.8960 0.8960
9.003314 0.8910 0.8890 0.8880 0.8880 0.8860
9.038000 0.8860 0.8790 0.8760 0.8690 0.8670
9.072314 0.8600 0.8580 0.8510 0.8500 0.8410
9.106000 0.8390 0.8310 0.8290 0.8200 0.8170
9.140314 0.8050 0.7980 0.7900 0.7790 0.7690
9.175000 0.7590 0.7400 0.7310 0.7190 0.6760
9.209314 0.6380 0.6110 0.5850 0.5800 0.5670
9.244000 0.4730 0.4660 0.4070 0.3820 0.3010
9.278314 0.2400 0.2080 0.1580 0.1290 0.1010
9.312000 0.0700 0.0600 0.0490 0.0440 0.0410
9.346314 0.0410 0.0440 0.0440 0.0490 0.0510
9.381000 0.0610 0.0800 0.1420 0.2030 0.2370
9.415314 0.2510 0.2780 0.3300 0.4490 0.4810
9.449000 0.4990 0.5210 0.5310 0.5380 0.5380
9.483314 0.5380 0.5420 0.5430 0.5520 0.5620
9.518000 0.5810 0.6000 0.6280 0.6570 0.6790
9.552314 0.7210 0.7460 0.7670 0.7860 0.7950
9.586000 0.8050 0.8080 0.8150 0.8270 0.8330
9.620314 0.8390 0.8460 0.8500 0.8580 0.8620
9.655000 0.8670 0.8700 0.8700 0.8760 0.8770
9.689314 0.8770 0.8770 0.8770 0.8770 0.8770
9.724000 0.8790 0.8820 0.8840 0.8860 0.8890
9.758314 0.8910 0.8930 0.8950 0.8960 0.8980
9.792000 0.8980 0.9000 0.9000 0.9000 0.9000
9.826314 0.9000 0.9000 0.9000 0.9000 0.9000
9.861000 0.9000 0.9000 0.9000 0.9000 0.9000
9.895314 0.9000 0.9000 0.9010 0.9030 0.9050
9.929000 0.9050 0.9050 0.9070 0.9070 0.9070
9.963314 0.9070 0.9080 0.9080 0.9080 0.9080
9.998000 0.9080 0.9080 0.9080 0.9080 0.9070
10.032314 0.9070 0.9070 0.9070 0.9010 0.9010
10.067000 0.9010 0.9000 0.8980 0.8980 0.8980
10.101314 0.8980 0.8980 0.8980 0.8980 0.9000
10.135000 0.9010 0.9010 0.9010 0.9010 0.9030
10.169314 0.9030 0.9030 0.9030 0.9030 0.9030
10.204000 0.9030 0.9050 0.9050 0.9050 0.9050
10.238314 0.9050 0.9070 0.9070 0.9080 0.9080
10.272000 0.9100 0.9100 0.9100 0.9120 0.9120
10.306314 0.9130 0.9130 0.9130 0.9130 0.9150
10.341000 0.9150 0.9150 0.9150 0.9170 0.9170
10.375314 0.9170 0.9170 0.9190 0.9190 0.9170
10.410000 0.9190 0.9190 0.9190 0.9190 0.9190
10.444314 0.9190 0.9190 0.9190 0.9190 0.9190
10.478000 0.9190 0.9190 0.9190 0.9190 0.9190
10.512314 0.9190 0.9190 0.9190 0.9190 0.9190
10.547000 0.9190 0.9190 0.9190 0.9190 0.9190
10.581314 0.9190 0.9190 0.9190 0.9190 0.9190
10.615000 0.9190 0.9190 0.9190 0.9190 0.9190
10.649314 0.9190 0.9190 0.9190 0.9190 0.9190
10.684000 0.9190 0.9190 0.9190 0.9190 0.9190
10.718314 0.9200 0.9190 0.9190 0.9190 0.9190
10.753000 0.9190 0.9190 0.9190 0.9190 0.9190
10.787314 0.9190 0.9190 0.9190 0.9190 0.9190
10.821000 0.9190 0.9190 0.9190 0.9190 0.9190
10.855314 0.9190 0.9190 0.9190 0.9200 0.9190
10.890000 0.9190 0.9190 0.9190 0.9190 0.9190
10.924314 0.9190 0.9190 0.9190 0.9170 0.9170
10.958000 0.9170 0.9150 0.9150 0.9150 0.9150
10.992314 0.9150 0.9130 0.9130 0.9120 0.9100
11.027000 0.9100 0.9100 0.9100 0.9080 0.9070
11.061314 0.9070 0.9070 0.9070 0.9070 0.9050
11.096000 0.9030 0.9010 0.9000 0.9000 0.8980
11.130314 0.8980 0.8980 0.8980 0.8960 0.8950
11.164000 0.8950 0.8910 0.8890 0.8860 0.8840
11.198314 0.8820 0.8790 0.8760 0.8700 0.8690
11.233000 0.8620 0.8600 0.8570 0.8570 0.8550
11.267314 0.8510 0.8480 0.8460 0.8410 0.8390
11.301000 0.8380 0.8310 0.8290 0.8270 0.8220
11.335314 0.8200 0.8170 0.8170 0.8120 0.8100
11.370000 0.8050 0.8030 0.8020 0.8000 0.8000
11.404314 0.7980 0.7950 0.7910 0.7900 0.7880
11.439000 0.7880 0.7860 0.7860 0.7840 0.7810
11.473314 0.7810 0.7810 0.7790 0.7770 0.7710
11.507000 0.7710 0.7690 0.7670 0.7620 0.7600
11.541314 0.7590 0.7570 0.7500 0.7500 0.7460
11.576000 0.7460 0.7430 0.7400 0.7380 0.7360
11.610314 0.7310 0.7290 0.7290 0.7280 0.7280
11.644000 0.7260 0.7220 0.7210 0.7190 0.7170
11.678314 0.7170 0.7170 0.7170 0.7170 0.7170
11.713000 0.7170 0.7170 0.7190 0.7210 0.7220
11.747314 0.7260 0.7290 0.7360 0.7460 0.7480
11.781000 0.7500 0.7570 0.7620 0.7670 0.7720
11.815314 0.7790 0.7860 0.7900 0.7960 0.8000
11.850000 0.8000 0.8100 0.8150 0.8200 0.8220
11.884314 0.8260 0.8290 0.8310 0.8330 0.8380
11.919000 0.8410 0.8460 0.8500 0.8510 0.8510
11.953314 0.8550 0.8570 0.8580 0.8580 0.8580
11.987000 0.8620 0.8640 0.8670 0.8690 0.8690
12.021314 0.8690 0.8700 0.8700 0.8700 0.8700
12.056000 0.8720 0.8720 0.8720 0.8720 0.8720
12.090314 0.8720 0.8720 0.8770 0.8770 0.8770
12.124000 0.8770 0.8770 0.8770 0.8770 0.8790
12.158314 0.8810 0.8810 0.8810 0.8820 0.8820
12.193000 0.8820 0.8820 0.8820 0.8810 0.8810
12.227314 0.8810 0.8810 0.8810 0.8810 0.8810
12.262000 0.8810 0.8790 0.8790 0.8790 0.8790
12.296314 0.8790 0.8790 0.8760 0.8740 0.8720
12.330000 0.8700 0.8690 0.8670 0.8650 0.8650
12.364314 0.8640 0.8640 0.8640 0.8640 0.8640
12.399000 0.8640 0.8650 0.8650 0.8670 0.8690
12.433314 0.8690 0.8690 0.8690 0.8690 0.8690
12.467000 0.8690 0.8670 0.8650 0.8650 0.8650
12.501314 0.8640 0.8640 0.8640 0.8640 0.8640
12.536000 0.8640 0.8640 0.8620 0.8620 0.8620
12.570314 0.8620 0.8620 0.8620 0.8620 0.8620
12.605000 0.8600 0.8580 0.8580 0.8570 0.8570
12.639314 0.8570 0.8550 0.8550 0.8530 0.8530
12.673000 0.8510 0.8510 0.8500 0.8500 0.8500
12.707314 0.8480 0.8480 0.8480 0.8480 0.8480
12.742000 0.8480 0.8460 0.8460 0.8460 0.8460
12.776314 0.8460 0.8460 0.8460 0.8460 0.8460
12.810000 0.8460 0.8460 0.8460 0.8450 0.8450
12.844314 0.8430 0.8430 0.8430 0.8410 0.8390
12.879000 0.8380 0.8380 0.8360 0.8360 0.8340
12.913314 0.8340 0.8330 0.8330 0.8330 0.8310
12.948000 0.8310 0.8310 0.8310 0.8290 0.8290
12.982314 0.8270 0.8270 0.8240 0.8200 0.8200
13.016000 0.8190 0.8190 0.8190 0.8190 0.8170
13.050314 0.8150 0.8140 0.8120 0.8100 0.8080
13.085000 0.8080 0.8080 0.8070 0.8070 0.8070
13.119314 0.8050 0.8050 0.8030 0.8030 0.8030
13.153000 0.8030 0.8030 0.8030 0.8030 0.8030
13.187314 0.8030 0.8030 0.8020 0.8030 0.8030
13.222000 0.8030 0.8030 0.8050 0.8050 0.8050
13.256314 0.8050 0.8050 0.8050 0.8050 0.8050
13.291000 0.8050 0.8050 0.8070 0.8070 0.8070
13.325314 0.8050 0.8050 0.8050 0.8030 0.8030
13.359000 0.8020 0.8020 0.8020 0.8020 0.8020
13.393314 0.8020 0.8020 0.8000 0.8000 0.8000
13.428000 0.7980 0.7980 0.7980 0.7960 0.7950
13.462314 0.7930 0.7910 0.7910 0.7910 0.7910
13.496000 0.7900 0.7900 0.7900 0.7900 0.7880
13.530314 0.7880 0.7880 0.7860 0.7860 0.7840
13.565000 0.7840 0.7830 0.7810 0.7810 0.7790
13.599314 0.7770 0.7770 0.7760 0.7740 0.7740
13.634000 0.7710 0.7710 0.7690 0.7690 0.7670
13.668314 0.7670 0.7650 0.7620 0.7620 0.7620
13.702000 0.7620 0.7600 0.7600 0.7600 0.7600
13.736314 0.7600 0.7600 0.7600 0.7590 0.7590
13.771000 0.7590 0.7570 0.7570 0.7570 0.7570
13.805314 0.7550 0.7530 0.7520 0.7520 0.7500
13.839000 0.7500 0.7480 0.7480 0.7460 0.7410
13.873314 0.7410 0.7400 0.7360 0.7310 0.7310
13.908000 0.7290 0.7290 0.7280 0.7260 0.7220
13.942314 0.7210 0.7190 0.7160 0.7120 0.7100
13.976000 0.7050 0.7030 0.7020 0.7000 0.6970
14.010314 0.6970 0.6900 0.6900 0.6880 0.6830
14.045000 0.6810 0.6790 0.6720 0.6720 0.6690
14.079314 0.6620 0.6590 0.6520 0.6500 0.6430
14.114000 0.6400 0.6330 0.6290 0.6230 0.6190
14.148314 0.6110 0.5980 0.5860 0.5780 0.5690
14.182000 0.5640 0.5590 0.5430 0.5310 0.5180
14.216314 0.5040 0.4990 0.4810 0.4680 0.4520
14.251000 0.4420 0.4280 0.4180 0.3990 0.3820
14.285314 0.3590 0.3390 0.3180 0.3080 0.2770
14.319000 0.2470 0.2270 0.2090 0.1970 0.1720
14.353314 0.1600 0.1480 0.1270 0.1110 0.1060
14.388000 0.0960 0.0860 0.0680 0.0580 0.0480
14.422314 0.0430 0.0390 0.0340 0.0300 0.0290
14.457000 0.0270 0.0270 0.0270 0.0250 0.0250
14.491314 0.0250 0.0270 0.0270 0.0270 0.0300
14.525000 0.0370 0.0430 0.0510 0.0530 0.0610
14.559314 0.0670 0.0770 0.0820 0.0980 0.1010
14.594000 0.1130 0.1270 0.1370 0.1490 0.1680
14.628314 0.1870 0.1910 0.1990 0.2180 0.2300
14.662000 0.2490 0.2590 0.2780 0.2870 0.2990
14.696314 0.3080 0.3200 0.3280 0.3400 0.3520
14.731000 0.3700 0.3800 0.3880 0.3990 0.4090
14.765314 0.4190 0.4280 0.4330 0.4420 0.4470
14.800000 0.4490 0.4520 0.4610 0.4620 0.4680
14.834314 0.4710 0.4730 0.4780 0.4810 0.4880
14.868000 0.4900 0.4930 0.4950 0.4970 0.4990
14.902314 0.5000 0.5020 0.5040 0.5040 0.5060
14.937000 0.5060 0.5090 0.5110 0.5120 0.5140
14.971314 0.5190 0.5190 0.5210 0.5210 0.5210
15.005000 0.5210 0.5210 0.5210 0.5210 0.5210
15.039314 0.5210 0.5190 0.5190 0.5190 0.5190
15.074000 0.5180 0.5180 0.5180 0.5180 0.5180
15.108314 0.5180 0.5180 0.5160 0.5160 0.5140
15.143000 0.5140 0.5120 0.5110 0.5110 0.5090
15.177314 0.5070 0.5060 0.5040 0.5020 0.5020
15.211000 0.4970 0.4930 0.4920 0.4900 0.4900
15.245314 0.4830 0.4830 0.4810 0.4800 0.4780
15.280000 0.4760 0.4750 0.4730 0.4690 0.4620
15.314314 0.4570 0.4540 0.4520 0.4500 0.4490
15.348000 0.4490 0.4440 0.4420 0.4350 0.4330
15.382314 0.4300 0.4260 0.4230 0.4190 0.4090
15.417000 0.4070 0.4010 0.3970 0.3900 0.3830
15.451314 0.3800 0.3730 0.3680 0.3610 0.3520
15.486000 0.3510 0.3440 0.3390 0.3330 0.3300
15.520314 0.3230 0.3230 0.3210 0.3200 0.3180
15.554000 0.3180 0.3140 0.3140 0.3130 0.3130
15.588314 0.3110 0.3110 0.3090 0.3080 0.3060
15.623000 0.3020 0.3020 0.3020 0.3010 0.2990
15.657314 0.2940 0.2920 0.2900 0.2820 0.2800
15.691000 0.2780 0.2730 0.2710 0.2650 0.2630
15.725314 0.2610 0.2540 0.2530 0.2440 0.2320
15.760000 0.2300 0.2250 0.2220 0.2220 0.2160
15.794314 0.2130 0.2030 0.2010 0.1940 0.1920
15.829000 0.1920 0.1920 0.1920 0.1920 0.1910
15.863314 0.1910 0.1890 0.1840 0.1840 0.1840
15.897000 0.1840 0.1840 0.1910 0.1940 0.1970
15.931314 0.1990
##END=
