##TITLE=PROPANE, 2,2-DICHLORO-
##JCAMP-DX=4.24
##DATA TYPE=INFRARED SPECTRUM
##CLASS=COBLENTZ III
##ORIGIN=DOW CHEMICAL COMPANY
##OWNER=COBLENTZ SOCIETY
Collection (C) 2018 copyright by the U.S. Secretary of Commerce
on behalf of the United States of America. All rights reserved.
##DATE=1965/12/09
##NAMES=2,2-dichloropropane
##CAS REGISTRY NO=594-20-7
##MOLFORM=C3 H6 Cl2
##SOURCE REFERENCE=COBLENTZ NO. 10013
##$NIST SOURCE=COBLENTZ
##$NIST IMAGE=cob10013
##SPECTROMETER/DATA SYSTEM=DOW KBr FOREPRISM-GRATING
##INSTRUMENT PARAMETERS=BLAZED AT 3.5, 12.0, 20.0 MICRON, CHANGED AT 5.0, 7.5, 14.9 MICRON
##STATE=SOLUTION (10% IN CCl4 FOR 3800-1333, AND 10% IN CS2 FOR 1333-400 CM^-^1)
##PATH LENGTH=0.011, 0.011 CM
$$SPECTRAL CONTAMINATION DUE TO CCl4 AROUND 1550, AND CS2 AROUND 855 CM^-^1
##SAMPLING PROCEDURE=TRANSMISSION
##RESOLUTION=4
##DATA PROCESSING=DIGITIZED BY NIST FROM HARD COPY (FROM TWO SEGMENTS)
##XUNITS=1/CM
##YUNITS=TRANSMITTANCE
##XFACTOR=1.000000
##YFACTOR=1
##DELTAX=0.869568
##FIRSTX=383.478
##LASTX=3795.66
##FIRSTY=0.25
##MAXX=3795.66
##MINX=383.478
##MAXY=1.009
##MINY=0.001
##NPOINTS=3925
##XYDATA=(X++(Y..Y))
383.478000 0.2500 0.2500 0.2510 0.2510 0.2530
387.825838 0.2540 0.2550 0.2550 0.2570 0.2590
392.173677 0.2630 0.2650 0.2680 0.2720 0.2730
396.521515 0.2770 0.2810 0.2850 0.2930 0.3039
400.869353 0.3140 0.3190 0.3330 0.3480 0.3570
405.217192 0.3849 0.4169 0.4469 0.4928 0.5029
409.565030 0.5380 0.5600 0.5610 0.6349 0.6879
413.912868 0.7070 0.7299 0.7599 0.7909 0.7980
418.260707 0.8040 0.8130 0.8140 0.8210 0.8310
422.608545 0.8360 0.8420 0.8430 0.8510 0.8530
426.956384 0.8570 0.8610 0.8650 0.8720 0.8740
431.304222 0.8800 0.8870 0.8880 0.8890 0.8910
435.652060 0.8930 0.8950 0.8960 0.9000 0.9020
439.999899 0.9040 0.9070 0.9120 0.9150 0.9170
444.347737 0.9190 0.9220 0.9230 0.9250 0.9260
448.695575 0.9270 0.9290 0.9290 0.9330 0.9340
453.043414 0.9340 0.9340 0.9340 0.9360 0.9370
457.391252 0.9380 0.9400 0.9420 0.9420 0.9440
461.739090 0.9460 0.9510 0.9520 0.9530 0.9550
466.086929 0.9550 0.9560 0.9570 0.9590 0.9590
470.434767 0.9610 0.9610 0.9630 0.9640 0.9650
474.782605 0.9670 0.9670 0.9680 0.9700 0.9700
479.130444 0.9700 0.9710 0.9710 0.9710 0.9710
483.478282 0.9710 0.9720 0.9720 0.9720 0.9740
487.826120 0.9740 0.9740 0.9740 0.9740 0.9740
492.173959 0.9740 0.9740 0.9750 0.9750 0.9750
496.521797 0.9750 0.9750 0.9750 0.9760 0.9760
500.869635 0.9760 0.9760 0.9780 0.9780 0.9760
505.217474 0.9760 0.9750 0.9750 0.9750 0.9740
509.565312 0.9720 0.9720 0.9720 0.9720 0.9720
513.913151 0.9720 0.9720 0.9720 0.9720 0.9720
518.260989 0.9720 0.9720 0.9720 0.9710 0.9710
522.608827 0.9710 0.9710 0.9710 0.9710 0.9700
526.956666 0.9700 0.9700 0.9700 0.9700 0.9680
531.304504 0.9670 0.9640 0.9610 0.9570 0.9560
535.652342 0.9550 0.9550 0.9490 0.9460 0.9440
540.000181 0.9400 0.9360 0.9300 0.9250 0.9170
544.348019 0.9100 0.9020 0.8910 0.8800 0.8740
548.695857 0.8700 0.8680 0.8360 0.8140 0.7950
553.043696 0.7751 0.7561 0.7082 0.6881 0.6651
557.391534 0.6350 0.5750 0.5370 0.4741 0.4630
561.739372 0.4630 0.4660 0.4770 0.5039 0.5259
566.087211 0.5590 0.5980 0.6460 0.6770 0.7229
570.435049 0.7420 0.7679 0.7889 0.8189 0.8240
574.782887 0.8360 0.8530 0.8720 0.8780 0.8920
579.130726 0.8970 0.9060 0.9150 0.9269 0.9330
583.478564 0.9400 0.9440 0.9480 0.9510 0.9550
587.826403 0.9560 0.9570 0.9610 0.9640 0.9650
592.174241 0.9670 0.9680 0.9680 0.9680 0.9700
596.522079 0.9700 0.9700 0.9700 0.9700 0.9700
600.869918 0.9700 0.9680 0.9670 0.9670 0.9670
605.217756 0.9670 0.9650 0.9610 0.9570 0.9560
609.565594 0.9520 0.9510 0.9460 0.9450 0.9400
613.913433 0.9270 0.9220 0.9170 0.9120 0.8991
618.261271 0.8960 0.8930 0.8930 0.8920 0.8910
622.609109 0.8890 0.8840 0.8810 0.8770 0.8720
626.956948 0.8630 0.8590 0.8530 0.8420 0.8280
631.304786 0.8120 0.7901 0.7681 0.7481 0.7251
635.652624 0.6990 0.6810 0.6510 0.6320 0.6160
640.000463 0.5721 0.5301 0.4811 0.3903 0.3671
644.348301 0.2990 0.2270 0.1850 0.1441 0.1111
648.696139 0.0811 0.0501 0.0141 0.0080 0.0020
653.043978 0.0020 0.0010 0.0010 0.0010 0.0020
657.391816 0.0040 0.0060 0.0100 0.0190 0.0339
661.739654 0.1110 0.1230 0.2130 0.2290 0.2879
666.087493 0.3379 0.3789 0.4269 0.4718 0.4730
670.435331 0.4970 0.5220 0.5520 0.5949 0.6190
674.783170 0.6380 0.6759 0.6929 0.7408 0.7599
679.131008 0.7760 0.7890 0.8230 0.8440 0.8580
683.478846 0.8720 0.8770 0.8810 0.8850 0.8920
687.826685 0.8930 0.8990 0.9030 0.9070 0.9140
692.174523 0.9180 0.9250 0.9310 0.9330 0.9360
696.522361 0.9380 0.9460 0.9510 0.9550 0.9560
700.870200 0.9590 0.9610 0.9640 0.9650 0.9680
705.218038 0.9700 0.9710 0.9740 0.9750 0.9760
709.565876 0.9780 0.9780 0.9780 0.9790 0.9800
713.913715 0.9800 0.9800 0.9800 0.9800 0.9800
718.261553 0.9800 0.9800 0.9800 0.9790 0.9780
722.609391 0.9760 0.9700 0.9670 0.9650 0.9640
726.957230 0.9630 0.9610 0.9610 0.9610 0.9630
731.305068 0.9630 0.9650 0.9710 0.9760 0.9780
735.652906 0.9790 0.9830 0.9870 0.9910 1.0000
740.000745 1.0010 1.0020 1.0050 1.0060 1.0060
744.348583 1.0080 1.0080 1.0080 1.0080 1.0090
748.696422 1.0090 1.0090 1.0090 1.0090 1.0090
753.044260 1.0090 1.0090 1.0090 1.0090 1.0080
757.392098 1.0080 1.0080 1.0080 1.0080 1.0080
761.739937 1.0080 1.0080 1.0080 1.0080 1.0080
766.087775 1.0080 1.0080 1.0080 1.0080 1.0060
770.435613 1.0060 1.0060 1.0050 1.0050 1.0050
774.783452 1.0050 1.0050 1.0050 1.0040 1.0040
779.131290 1.0020 1.0020 1.0020 1.0010 1.0010
783.479128 1.0000 1.0000 0.9970 0.9970 0.9950
787.826967 0.9950 0.9950 0.9940 0.9940 0.9940
792.174805 0.9940 0.9940 0.9940 0.9940 0.9940
796.522643 0.9940 0.9940 0.9940 0.9940 0.9940
800.870482 0.9940 0.9940 0.9930 0.9930 0.9930
805.218320 0.9930 0.9930 0.9930 0.9910 0.9910
809.566158 0.9910 0.9910 0.9910 0.9910 0.9910
813.913997 0.9910 0.9910 0.9930 0.9930 0.9930
818.261835 0.9930 0.9930 0.9930 0.9930 0.9930
822.609673 0.9930 0.9930 0.9910 0.9910 0.9910
826.957512 0.9910 0.9910 0.9910 0.9900 0.9900
831.305350 0.9870 0.9850 0.9820 0.9790 0.9780
835.653189 0.9780 0.9740 0.9710 0.9680 0.9670
840.001027 0.9650 0.9590 0.9550 0.9490 0.9440
844.348865 0.9340 0.9330 0.9220 0.9120 0.8990
848.696704 0.8930 0.8920 0.8770 0.8690 0.8590
853.044542 0.8470 0.8350 0.8270 0.8240 0.8240
857.392380 0.8230 0.8230 0.8230 0.8240 0.8250
861.740219 0.8270 0.8280 0.8310 0.8320 0.8340
866.088057 0.8390 0.8420 0.8440 0.8500 0.8510
870.435895 0.8530 0.8570 0.8610 0.8650 0.8650
874.783734 0.8700 0.8720 0.8740 0.8780 0.8820
879.131572 0.8870 0.8910 0.8920 0.8960 0.9000
883.479410 0.9030 0.9060 0.9110 0.9110 0.9140
887.827249 0.9180 0.9210 0.9220 0.9220 0.9230
892.175087 0.9250 0.9250 0.9230 0.9220 0.9210
896.522925 0.9210 0.9190 0.9170 0.9140 0.9080
900.870764 0.9020 0.8930 0.8820 0.8740 0.8700
905.218602 0.8580 0.8420 0.8310 0.8000 0.7800
909.566441 0.7600 0.7101 0.6631 0.6131 0.5482
913.914279 0.5220 0.5220 0.5300 0.5490 0.6050
918.262117 0.6440 0.6929 0.7070 0.7758 0.8159
922.609956 0.8230 0.8400 0.8430 0.8510 0.8540
926.957794 0.8590 0.8650 0.8740 0.8909 0.9030
931.305632 0.9150 0.9250 0.9310 0.9330 0.9360
935.653471 0.9400 0.9440 0.9450 0.9460 0.9480
940.001309 0.9490 0.9490 0.9510 0.9520 0.9520
944.349147 0.9520 0.9520 0.9530 0.9550 0.9550
948.696986 0.9550 0.9550 0.9550 0.9560 0.9570
953.044824 0.9570 0.9570 0.9570 0.9570 0.9570
957.392662 0.9570 0.9570 0.9570 0.9570 0.9590
961.740501 0.9590 0.9570 0.9570 0.9570 0.9570
966.088339 0.9570 0.9570 0.9570 0.9570 0.9570
970.436177 0.9560 0.9560 0.9560 0.9560 0.9560
974.784016 0.9550 0.9550 0.9550 0.9550 0.9530
979.131854 0.9520 0.9520 0.9510 0.9510 0.9510
983.479692 0.9510 0.9510 0.9510 0.9510 0.9510
987.827531 0.9510 0.9490 0.9490 0.9480 0.9480
992.175369 0.9480 0.9480 0.9480 0.9460 0.9450
996.523208 0.9440 0.9420 0.9420 0.9410 0.9400
1000.871046 0.9400 0.9400 0.9400 0.9380 0.9380
1005.218884 0.9380 0.9380 0.9380 0.9380 0.9380
1009.566723 0.9380 0.9360 0.9340 0.9330 0.9330
1013.914561 0.9330 0.9330 0.9310 0.9310 0.9310
1018.262399 0.9300 0.9300 0.9300 0.9300 0.9300
1022.610238 0.9300 0.9310 0.9310 0.9310 0.9330
1026.958076 0.9330 0.9330 0.9330 0.9330 0.9330
1031.305914 0.9330 0.9310 0.9310 0.9310 0.9310
1035.653753 0.9300 0.9300 0.9290 0.9290 0.9290
1040.001591 0.9290 0.9270 0.9270 0.9260 0.9260
1044.349429 0.9260 0.9260 0.9250 0.9230 0.9230
1048.697268 0.9220 0.9220 0.9210 0.9210 0.9210
1053.045106 0.9190 0.9180 0.9190 0.9190 0.9190
1057.392944 0.9180 0.9180 0.9180 0.9150 0.9150
1061.740783 0.9140 0.9120 0.9120 0.9110 0.9080
1066.088621 0.9060 0.9030 0.9000 0.8970 0.8930
1070.436460 0.8920 0.8910 0.8840 0.8810 0.8760
1074.784298 0.8720 0.8690 0.8590 0.8510 0.8420
1079.132136 0.8320 0.8280 0.8060 0.7950 0.7830
1083.479975 0.7780 0.7640 0.7590 0.7490 0.7440
1087.827813 0.7380 0.7270 0.7250 0.7180 0.7100
1092.175651 0.7060 0.6930 0.6910 0.6770 0.6660
1096.523490 0.6510 0.6360 0.6160 0.6090 0.5610
1100.871328 0.5220 0.4581 0.3722 0.3122 0.2701
1105.219166 0.1819 0.1399 0.0959 0.0480 0.0340
1109.567005 0.0140 0.0050 0.0020 0.0010 0.0020
1113.914843 0.0050 0.0100 0.0230 0.0320 0.0500
1118.262681 0.1220 0.1749 0.2649 0.3678 0.3969
1122.610520 0.4310 0.4460 0.4760 0.4970 0.5100
1126.958358 0.5260 0.5789 0.6020 0.6140 0.6309
1131.306196 0.6440 0.6530 0.6590 0.6590 0.6590
1135.654035 0.6590 0.6580 0.6550 0.6530 0.6500
1140.001873 0.6480 0.6400 0.6280 0.6120 0.5950
1144.349711 0.5630 0.5300 0.5140 0.4801 0.4660
1148.697550 0.4459 0.4119 0.3699 0.2840 0.1950
1153.045388 0.1790 0.1381 0.1180 0.0961 0.0631
1157.393227 0.0620 0.0631 0.1071 0.1480 0.1940
1161.741065 0.2580 0.3230 0.3869 0.4249 0.4689
1166.088903 0.5071 0.5651 0.6010 0.6380 0.6590
1170.436742 0.6780 0.6990 0.7220 0.7310 0.7380
1174.784580 0.7440 0.7460 0.7490 0.7490 0.7480
1179.132418 0.7450 0.7420 0.7360 0.7260 0.7140
1183.480257 0.7030 0.6930 0.6840 0.6730 0.6610
1187.828095 0.6460 0.6320 0.6160 0.6080 0.6060
1192.175933 0.6060 0.6140 0.6240 0.6340 0.6420
1196.523772 0.6850 0.7250 0.7939 0.8120 0.8140
1200.871610 0.8170 0.8190 0.8200 0.8200 0.8200
1205.219448 0.8200 0.8200 0.8200 0.8190 0.8170
1209.567287 0.8170 0.8160 0.8160 0.8170 0.8190
1213.915125 0.8200 0.8210 0.8230 0.8250 0.8270
1218.262963 0.8310 0.8320 0.8390 0.8420 0.8500
1222.610802 0.8570 0.8630 0.8680 0.8700 0.8720
1226.958640 0.8730 0.8760 0.8780 0.8800 0.8810
1231.306479 0.8840 0.8870 0.8910 0.8910 0.8920
1235.654317 0.8920 0.8930 0.8970 0.8990 0.9000
1240.002155 0.9020 0.9020 0.9030 0.9040 0.9040
1244.349994 0.9040 0.9040 0.9040 0.9060 0.9070
1248.697832 0.9070 0.9080 0.9080 0.9080 0.9100
1253.045670 0.9110 0.9110 0.9110 0.9110 0.9110
1257.393509 0.9110 0.9120 0.9120 0.9120 0.9120
1261.741347 0.9140 0.9140 0.9140 0.9140 0.9140
1266.089185 0.9140 0.9140 0.9140 0.9140 0.9140
1270.437024 0.9140 0.9150 0.9170 0.9170 0.9170
1274.784862 0.9170 0.9170 0.9170 0.9170 0.9170
1279.132700 0.9180 0.9180 0.9170 0.9170 0.9170
1283.480539 0.9170 0.9170 0.9150 0.9140 0.9140
1287.828377 0.9140 0.9140 0.9120 0.9120 0.9120
1292.176215 0.9110 0.9100 0.9080 0.9080 0.9070
1296.524054 0.9070 0.9070 0.9060 0.9060 0.9060
1300.871892 0.9070 0.9070 0.9060 0.9060 0.9060
1305.219730 0.9060 0.9060 0.9060 0.9070 0.9070
1309.567569 0.9070 0.9080 0.9080 0.9080 0.9100
1313.915407 0.9110 0.9110 0.9120 0.9120 0.9110
1318.263246 0.9110 0.9110 0.9110 0.9110 0.9100
1322.611084 0.9100 0.9080 0.9080 0.9080 0.9070
1326.958922 0.9070 0.9060 0.9060 0.9040 0.9040
1331.306761 0.9030 0.9020 0.9020 0.9020 0.9020
1335.654599 0.9000 0.8990 0.8990 0.8970 0.8950
1340.002437 0.8930 0.8930 0.8920 0.8910 0.8910
1344.350276 0.8910 0.8910 0.8890 0.8850 0.8820
1348.698114 0.8810 0.8780 0.8760 0.8720 0.8700
1353.045952 0.8650 0.8630 0.8590 0.8570 0.8530
1357.393791 0.8500 0.8420 0.8350 0.8340 0.8240
1361.741629 0.8120 0.8000 0.7930 0.7780 0.7650
1366.089467 0.7449 0.7070 0.6890 0.6680 0.6429
1370.437306 0.5210 0.4910 0.3531 0.2621 0.1442
1374.785144 0.1381 0.1891 0.2400 0.2731 0.3980
1379.132982 0.4420 0.5549 0.6039 0.6270 0.6430
1383.480821 0.6430 0.6380 0.6210 0.6050 0.5789
1387.828659 0.5020 0.4500 0.4190 0.4400 0.4869
1392.176497 0.5413 0.6501 0.6770 0.7041 0.7440
1396.524336 0.7760 0.7950 0.8120 0.8160 0.8230
1400.872174 0.8310 0.8350 0.8390 0.8430 0.8440
1405.220013 0.8460 0.8460 0.8460 0.8460 0.8460
1409.567851 0.8460 0.8440 0.8430 0.8420 0.8420
1413.915689 0.8420 0.8400 0.8390 0.8390 0.8380
1418.263528 0.8380 0.8340 0.8340 0.8280 0.8210
1422.611366 0.8170 0.8130 0.8120 0.8090 0.8050
1426.959204 0.7970 0.7940 0.7760 0.7740 0.7510
1431.307043 0.7260 0.6990 0.6780 0.6471 0.5901
1435.654881 0.5479 0.5080 0.5081 0.5360 0.5650
1440.002719 0.6040 0.6230 0.6310 0.6160 0.5930
1444.350558 0.5549 0.5359 0.4880 0.4720 0.4760
1448.698396 0.4970 0.5600 0.6190 0.6290 0.6340
1453.046234 0.6339 0.6089 0.5639 0.5359 0.5000
1457.394073 0.4770 0.4760 0.4880 0.5510 0.5910
1461.741911 0.6252 0.6771 0.7101 0.7571 0.7870
1466.089749 0.8000 0.8120 0.8170 0.8310 0.8310
1470.437588 0.8340 0.8350 0.8380 0.8390 0.8390
1474.785426 0.8390 0.8400 0.8400 0.8400 0.8420
1479.133265 0.8420 0.8420 0.8420 0.8430 0.8430
1483.481103 0.8440 0.8460 0.8470 0.8500 0.8500
1487.828941 0.8500 0.8500 0.8500 0.8470 0.8460
1492.176780 0.8440 0.8440 0.8430 0.8420 0.8390
1496.524618 0.8340 0.8310 0.8230 0.8210 0.8190
1500.872456 0.8160 0.8130 0.8100 0.8010 0.7970
1505.220295 0.7940 0.7860 0.7820 0.7780 0.7750
1509.568133 0.7670 0.7610 0.7570 0.7510 0.7420
1513.915971 0.7410 0.7330 0.7250 0.7190 0.7150
1518.263810 0.7110 0.7080 0.7080 0.7020 0.6930
1522.611648 0.6800 0.6770 0.6770 0.6740 0.6700
1526.959486 0.6650 0.6610 0.6590 0.6580 0.6530
1531.307325 0.6460 0.6360 0.6240 0.6200 0.6160
1535.655163 0.6140 0.5950 0.5820 0.5750 0.5740
1540.003001 0.5610 0.5490 0.5360 0.5230 0.5150
1544.350840 0.5040 0.5000 0.4890 0.4880 0.4870
1548.698678 0.4870 0.4870 0.4870 0.4870 0.4880
1553.046516 0.4880 0.4880 0.4890 0.4890 0.4930
1557.394355 0.5000 0.5030 0.5120 0.5230 0.5300
1561.742193 0.5410 0.5510 0.5520 0.5630 0.5740
1566.090032 0.5760 0.5870 0.5930 0.6010 0.6020
1570.437870 0.6100 0.6160 0.6240 0.6250 0.6280
1574.785708 0.6290 0.6310 0.6320 0.6360 0.6380
1579.133547 0.6390 0.6420 0.6430 0.6440 0.6470
1583.481385 0.6480 0.6510 0.6550 0.6590 0.6630
1587.829223 0.6700 0.6760 0.6780 0.6840 0.6920
1592.177062 0.7081 0.7230 0.7250 0.7300 0.7410
1596.524900 0.7490 0.7570 0.7650 0.7750 0.7850
1600.872738 0.7950 0.8080 0.8200 0.8310 0.8320
1605.220577 0.8380 0.8430 0.8500 0.8500 0.8570
1609.568415 0.8610 0.8630 0.8680 0.8720 0.8770
1613.916253 0.8780 0.8810 0.8850 0.8910 0.8910
1618.264092 0.8920 0.8930 0.8990 0.8990 0.9020
1622.611930 0.9040 0.9060 0.9080 0.9100 0.9110
1626.959768 0.9120 0.9120 0.9140 0.9140 0.9140
1631.307607 0.9170 0.9190 0.9190 0.9210 0.9210
1635.655445 0.9220 0.9230 0.9230 0.9250 0.9260
1640.003284 0.9260 0.9260 0.9290 0.9300 0.9310
1644.351122 0.9310 0.9330 0.9330 0.9340 0.9340
1648.698960 0.9340 0.9340 0.9340 0.9360 0.9370
1653.046799 0.9370 0.9370 0.9370 0.9370 0.9370
1657.394637 0.9370 0.9380 0.9380 0.9380 0.9380
1661.742475 0.9380 0.9380 0.9380 0.9380 0.9380
1666.090314 0.9380 0.9380 0.9380 0.9380 0.9380
1670.438152 0.9380 0.9400 0.9400 0.9400 0.9380
1674.785990 0.9380 0.9380 0.9380 0.9380 0.9380
1679.133829 0.9380 0.9380 0.9380 0.9370 0.9380
1683.481667 0.9380 0.9380 0.9380 0.9370 0.9370
1687.829505 0.9340 0.9340 0.9340 0.9330 0.9330
1692.177344 0.9340 0.9340 0.9330 0.9330 0.9330
1696.525182 0.9330 0.9330 0.9330 0.9330 0.9310
1700.873020 0.9310 0.9310 0.9310 0.9310 0.9310
1705.220859 0.9310 0.9310 0.9310 0.9310 0.9310
1709.568697 0.9310 0.9310 0.9310 0.9310 0.9310
1713.916535 0.9310 0.9310 0.9310 0.9310 0.9330
1718.264374 0.9330 0.9330 0.9330 0.9340 0.9340
1722.612212 0.9340 0.9340 0.9340 0.9340 0.9340
1726.960051 0.9340 0.9340 0.9340 0.9370 0.9370
1731.307889 0.9370 0.9370 0.9370 0.9370 0.9370
1735.655727 0.9380 0.9380 0.9400 0.9400 0.9410
1740.003566 0.9420 0.9420 0.9440 0.9440 0.9440
1744.351404 0.9440 0.9450 0.9450 0.9460 0.9480
1748.699242 0.9480 0.9490 0.9490 0.9490 0.9490
1753.047081 0.9510 0.9510 0.9510 0.9520 0.9520
1757.394919 0.9520 0.9530 0.9530 0.9530 0.9530
1761.742757 0.9530 0.9530 0.9550 0.9550 0.9550
1766.090596 0.9550 0.9550 0.9550 0.9550 0.9550
1770.438434 0.9550 0.9550 0.9560 0.9560 0.9560
1774.786272 0.9560 0.9560 0.9560 0.9560 0.9560
1779.134111 0.9560 0.9560 0.9560 0.9560 0.9560
1783.481949 0.9560 0.9560 0.9560 0.9560 0.9560
1787.829787 0.9560 0.9560 0.9560 0.9560 0.9570
1792.177626 0.9570 0.9560 0.9560 0.9560 0.9560
1796.525464 0.9560 0.9560 0.9560 0.9560 0.9560
1800.873303 0.9550 0.9550 0.9560 0.9560 0.9560
1805.221141 0.9560 0.9560 0.9560 0.9560 0.9560
1809.568979 0.9560 0.9560 0.9560 0.9560 0.9560
1813.916818 0.9560 0.9560 0.9560 0.9560 0.9560
1818.264656 0.9560 0.9560 0.9560 0.9560 0.9560
1822.612494 0.9560 0.9560 0.9560 0.9560 0.9560
1826.960333 0.9560 0.9560 0.9560 0.9570 0.9570
1831.308171 0.9560 0.9560 0.9570 0.9570 0.9570
1835.656009 0.9570 0.9570 0.9560 0.9560 0.9560
1840.003848 0.9560 0.9560 0.9560 0.9560 0.9560
1844.351686 0.9560 0.9560 0.9570 0.9570 0.9570
1848.699524 0.9570 0.9570 0.9570 0.9570 0.9590
1853.047363 0.9600 0.9600 0.9600 0.9600 0.9600
1857.395201 0.9600 0.9610 0.9610 0.9610 0.9610
1861.743039 0.9610 0.9610 0.9610 0.9610 0.9610
1866.090878 0.9610 0.9610 0.9610 0.9630 0.9630
1870.438716 0.9630 0.9640 0.9640 0.9640 0.9640
1874.786554 0.9640 0.9640 0.9640 0.9650 0.9650
1879.134393 0.9650 0.9650 0.9670 0.9670 0.9670
1883.482231 0.9670 0.9670 0.9680 0.9680 0.9680
1887.830070 0.9680 0.9680 0.9680 0.9680 0.9680
1892.177908 0.9680 0.9680 0.9680 0.9680 0.9680
1896.525746 0.9680 0.9680 0.9680 0.9680 0.9680
1900.873585 0.9700 0.9700 0.9700 0.9680 0.9680
1905.221423 0.9680 0.9680 0.9680 0.9680 0.9680
1909.569261 0.9680 0.9680 0.9700 0.9680 0.9680
1913.917100 0.9680 0.9680 0.9680 0.9680 0.9680
1918.264938 0.9680 0.9680 0.9680 0.9680 0.9680
1922.612776 0.9680 0.9700 0.9680 0.9680 0.9680
1926.960615 0.9680 0.9680 0.9680 0.9680 0.9680
1931.308453 0.9700 0.9680 0.9680 0.9670 0.9670
1935.656291 0.9670 0.9670 0.9670 0.9670 0.9670
1940.004130 0.9670 0.9670 0.9670 0.9650 0.9650
1944.351968 0.9640 0.9640 0.9640 0.9640 0.9640
1948.699806 0.9640 0.9640 0.9640 0.9640 0.9640
1953.047645 0.9640 0.9640 0.9640 0.9640 0.9640
1957.395483 0.9640 0.9640 0.9640 0.9640 0.9640
1961.743322 0.9640 0.9640 0.9640 0.9640 0.9640
1966.091160 0.9640 0.9640 0.9640 0.9640 0.9640
1970.438998 0.9640 0.9640 0.9640 0.9640 0.9640
1974.786837 0.9640 0.9640 0.9640 0.9640 0.9640
1979.134675 0.9640 0.9640 0.9640 0.9630 0.9630
1983.482513 0.9640 0.9630 0.9630 0.9630 0.9630
1987.830352 0.9630 0.9630 0.9610 0.9610 0.9610
1992.178190 0.9600 0.9600 0.9600 0.9590 0.9590
1996.526028 0.9570 0.9560 0.9570 0.9600 0.9650
2000.873867 0.9650 0.9650 0.9630 0.9610 0.9590
2005.221705 0.9570 0.9560 0.9550 0.9550 0.9550
2009.569543 0.9550 0.9550 0.9540 0.9530 0.9525
2013.917382 0.9520 0.9520 0.9520 0.9520 0.9520
2018.265220 0.9525 0.9530 0.9530 0.9530 0.9530
2022.613058 0.9530 0.9540 0.9550 0.9550 0.9550
2026.960897 0.9540 0.9530 0.9530 0.9530 0.9530
2031.308735 0.9530 0.9525 0.9520 0.9520 0.9520
2035.656573 0.9520 0.9520 0.9520 0.9520 0.9520
2040.004412 0.9520 0.9520 0.9520 0.9525 0.9530
2044.352250 0.9530 0.9530 0.9530 0.9530 0.9530
2048.700089 0.9530 0.9540 0.9550 0.9550 0.9550
2053.047927 0.9550 0.9550 0.9550 0.9550 0.9550
2057.395765 0.9550 0.9550 0.9550 0.9550 0.9550
2061.743604 0.9550 0.9550 0.9550 0.9550 0.9550
2066.091442 0.9550 0.9550 0.9550 0.9550 0.9550
2070.439280 0.9550 0.9550 0.9550 0.9550 0.9555
2074.787119 0.9560 0.9560 0.9560 0.9560 0.9560
2079.134957 0.9560 0.9560 0.9560 0.9560 0.9560
2083.482795 0.9560 0.9555 0.9550 0.9550 0.9550
2087.830634 0.9550 0.9550 0.9550 0.9550 0.9550
2092.178472 0.9550 0.9550 0.9550 0.9550 0.9550
2096.526310 0.9550 0.9550 0.9555 0.9560 0.9560
2100.874149 0.9560 0.9560 0.9560 0.9560 0.9560
2105.221987 0.9565 0.9570 0.9570 0.9570 0.9580
2109.569825 0.9590 0.9580 0.9570 0.9580 0.9590
2113.917664 0.9595 0.9600 0.9600 0.9600 0.9600
2118.265502 0.9600 0.9600 0.9600 0.9600 0.9600
2122.613341 0.9595 0.9590 0.9595 0.9600 0.9600
2126.961179 0.9600 0.9600 0.9600 0.9605 0.9610
2131.309017 0.9610 0.9610 0.9610 0.9610 0.9610
2135.656856 0.9610 0.9610 0.9610 0.9610 0.9610
