##TITLE=GLYCOLAMIDE
##JCAMP-DX=4.24
##DATA TYPE=INFRARED SPECTRUM
##CLASS=COBLENTZ III
##ORIGIN=DOW CHEMICAL COMPANY
##OWNER=COBLENTZ SOC.
Collection (C) 2018 copyright by the U.S. Secretary of Commerce
on behalf of the United States of America. All rights reserved.
##DATE=1964/06/24
##NAMES=2-hydroxyacetamide
##CAS REGISTRY NO=598-42-5
##MOLFORM=C2 H5 N O2
##SOURCE REFERENCE=COBLENTZ NO. 06636
##$NIST SOURCE=COBLENTZ
##$NIST IMAGE=cob6636
##SPECTROMETER/DATA SYSTEM=DOW KBr FOREPRISM-GRATING
##INSTRUMENT PARAMETERS=BLAZED AT 3.5, 12.0, 20.0 MICRON AND CHANGED AT 5.0, 7.5, 14.9 MICRON
##STATE=SOLID (SPLIT MULL)
##SAMPLING PROCEDURE=TRANSMISSION
##RESOLUTION=2
##DATA PROCESSING=DIGITIZED BY COBLENTZ SOCIETY (BATCH I) FROM HARD COPY
##XUNITS=1/CM
##YUNITS=TRANSMITTANCE
##XLABEL=Wavenumbers (cm-1)
##YLABEL=% Transmission
##XFACTOR=1
##YFACTOR=1
##DELTAX=1
##FIRSTX=382
##LASTX=3797
##FIRSTY=0.8896
##MAXX=3797
##MINX=382
##MAXY=0.9928
##MINY=0.0407
##NPOINTS=3416
##XYDATA=(X++(Y..Y))
382.000000 0.8896 0.8898 0.8900 0.8901 0.8902
387.000000 0.8903 0.8904 0.8904 0.8905 0.8906
392.000000 0.8907 0.8908 0.8909 0.8911 0.8913
397.000000 0.8915 0.8918 0.8920 0.8924 0.8930
402.000000 0.8935 0.8941 0.8946 0.8952 0.8959
407.000000 0.8966 0.8973 0.8980 0.8989 0.9000
412.000000 0.9010 0.9020 0.9031 0.9041 0.9051
417.000000 0.9059 0.9066 0.9074 0.9081 0.9088
422.000000 0.9095 0.9102 0.9109 0.9117 0.9124
427.000000 0.9132 0.9139 0.9147 0.9154 0.9161
432.000000 0.9167 0.9173 0.9178 0.9184 0.9190
437.000000 0.9196 0.9202 0.9207 0.9213 0.9218
442.000000 0.9225 0.9230 0.9236 0.9242 0.9248
447.000000 0.9254 0.9259 0.9265 0.9271 0.9275
452.000000 0.9278 0.9283 0.9288 0.9292 0.9293
457.000000 0.9294 0.9295 0.9296 0.9297 0.9299
462.000000 0.9301 0.9303 0.9305 0.9307 0.9308
467.000000 0.9309 0.9311 0.9312 0.9313 0.9317
472.000000 0.9321 0.9327 0.9333 0.9338 0.9346
477.000000 0.9355 0.9364 0.9371 0.9381 0.9391
482.000000 0.9400 0.9410 0.9418 0.9428 0.9439
487.000000 0.9442 0.9418 0.9448 0.9451 0.9445
492.000000 0.9439 0.9433 0.9423 0.9410 0.9397
497.000000 0.9382 0.9362 0.9342 0.9321 0.9301
502.000000 0.9274 0.9246 0.9218 0.9189 0.9151
507.000000 0.9113 0.9060 0.8962 0.8859 0.8709
512.000000 0.8504 0.8370 0.7784 0.7080 0.6376
517.000000 0.5515 0.5490 0.5664 0.6721 0.7778
522.000000 0.8844 0.9002 0.9168 0.9241 0.9273
527.000000 0.9300 0.9275 0.9321 0.9314 0.9302
532.000000 0.9288 0.9260 0.9230 0.9191 0.9143
537.000000 0.9081 0.9013 0.8940 0.8793 0.8375
542.000000 0.7957 0.7438 0.7425 0.7435 0.7625
547.000000 0.7903 0.8180 0.8457 0.8734 0.9011
552.000000 0.9168 0.9216 0.9237 0.9248 0.9260
557.000000 0.9260 0.9260 0.9260 0.9259 0.9250
562.000000 0.9241 0.9233 0.9224 0.9212 0.9200
567.000000 0.9187 0.9174 0.9161 0.9147 0.9128
572.000000 0.9109 0.9088 0.9064 0.9039 0.9015
577.000000 0.8990 0.8966 0.8923 0.8878 0.8828
582.000000 0.8760 0.8692 0.8586 0.8443 0.8286
587.000000 0.8155 0.7747 0.7356 0.6964 0.6302
592.000000 0.6319 0.6318 0.6398 0.6691 0.6984
597.000000 0.7278 0.7571 0.7864 0.8157 0.8435
602.000000 0.8418 0.8418 0.8415 0.8412 0.8407
607.000000 0.8398 0.8387 0.8375 0.8357 0.8339
612.000000 0.8317 0.8295 0.8274 0.8253 0.8232
617.000000 0.8212 0.8189 0.8165 0.8141 0.8118
622.000000 0.8091 0.8061 0.8004 0.7937 0.7868
627.000000 0.7801 0.7734 0.7667 0.7600 0.7532
632.000000 0.7465 0.7397 0.7330 0.7261 0.7195
637.000000 0.7126 0.7068 0.7031 0.6994 0.6957
642.000000 0.6895 0.6826 0.6757 0.6685 0.6612
647.000000 0.6540 0.6465 0.6393 0.6266 0.6120
652.000000 0.6036 0.5952 0.5853 0.5731 0.5614
657.000000 0.5502 0.5396 0.5285 0.5157 0.5051
662.000000 0.4946 0.4854 0.4760 0.4646 0.4515
667.000000 0.4407 0.4307 0.4222 0.4138 0.4053
672.000000 0.3966 0.3825 0.3687 0.3592 0.3497
677.000000 0.3400 0.3300 0.3202 0.3132 0.3062
682.000000 0.3010 0.2972 0.2934 0.2903 0.2880
687.000000 0.2857 0.2840 0.2828 0.2817 0.2806
692.000000 0.2798 0.2804 0.2792 0.2789 0.2790
697.000000 0.2790 0.2797 0.2810 0.2822 0.2834
702.000000 0.2850 0.2871 0.2891 0.2927 0.2967
707.000000 0.3010 0.3059 0.3117 0.3174 0.3230
712.000000 0.3287 0.3343 0.3400 0.3457 0.3512
717.000000 0.3562 0.3614 0.3664 0.3712 0.3760
722.000000 0.3808 0.3856 0.3908 0.3962 0.4016
727.000000 0.4070 0.4127 0.4192 0.4257 0.4323
732.000000 0.4394 0.4466 0.4528 0.4590 0.4650
737.000000 0.4710 0.4762 0.4801 0.4840 0.4880
742.000000 0.4916 0.4949 0.4982 0.5014 0.5046
747.000000 0.5077 0.5110 0.5143 0.5177 0.5237
752.000000 0.5341 0.5449 0.5551 0.5654 0.5744
757.000000 0.5826 0.5935 0.6028 0.6120 0.6212
762.000000 0.6305 0.6397 0.6489 0.6582 0.6674
767.000000 0.6767 0.6858 0.7015 0.7084 0.7151
772.000000 0.7218 0.7310 0.7401 0.7478 0.7554
777.000000 0.7630 0.7710 0.7792 0.7874 0.7956
782.000000 0.8048 0.8141 0.8232 0.8286 0.8339
787.000000 0.8393 0.8431 0.8461 0.8491 0.8521
792.000000 0.8551 0.8571 0.8586 0.8601 0.8616
797.000000 0.8631 0.8646 0.8656 0.8666 0.8675
802.000000 0.8685 0.8694 0.8701 0.8707 0.8712
807.000000 0.8718 0.8723 0.8723 0.8723 0.8723
812.000000 0.8723 0.8723 0.8718 0.8711 0.8703
817.000000 0.8696 0.8684 0.8662 0.8641 0.8618
822.000000 0.8597 0.8568 0.8539 0.8509 0.8480
827.000000 0.8451 0.8425 0.8398 0.8371 0.8345
832.000000 0.8324 0.8298 0.8310 0.8325 0.8343
837.000000 0.8381 0.8424 0.8468 0.8513 0.8568
842.000000 0.8625 0.8681 0.8731 0.8782 0.8832
847.000000 0.8881 0.8924 0.8959 0.8994 0.9028
852.000000 0.9054 0.9075 0.9097 0.9118 0.9141
857.000000 0.9163 0.9184 0.9206 0.9224 0.9238
862.000000 0.9252 0.9253 0.9255 0.9256 0.9252
867.000000 0.9249 0.9245 0.9239 0.9231 0.9223
872.000000 0.9215 0.9213 0.9211 0.9224 0.9240
877.000000 0.9275 0.9315 0.9358 0.9401 0.9444
882.000000 0.9481 0.9497 0.9486 0.9475 0.9473
887.000000 0.9468 0.9470 0.9471 0.9482 0.9496
892.000000 0.9510 0.9525 0.9540 0.9549 0.9553
897.000000 0.9556 0.9559 0.9563 0.9566 0.9568
902.000000 0.9568 0.9568 0.9568 0.9568 0.9568
907.000000 0.9568 0.9566 0.9563 0.9560 0.9558
912.000000 0.9555 0.9552 0.9549 0.9547 0.9544
917.000000 0.9541 0.9538 0.9535 0.9532 0.9528
922.000000 0.9525 0.9523 0.9520 0.9517 0.9513
927.000000 0.9509 0.9504 0.9500 0.9495 0.9491
932.000000 0.9487 0.9482 0.9474 0.9467 0.9459
937.000000 0.9452 0.9444 0.9437 0.9430 0.9421
942.000000 0.9415 0.9408 0.9400 0.9393 0.9385
947.000000 0.9378 0.9371 0.9363 0.9356 0.9350
952.000000 0.9344 0.9337 0.9331 0.9324 0.9318
957.000000 0.9311 0.9305 0.9299 0.9292 0.9284
962.000000 0.9275 0.9266 0.9257 0.9248 0.9239
967.000000 0.9230 0.9221 0.9208 0.9191 0.9174
972.000000 0.9158 0.9141 0.9124 0.9107 0.9084
977.000000 0.9056 0.9028 0.8988 0.8945 0.8901
982.000000 0.8856 0.8758 0.8651 0.8541 0.8081
987.000000 0.7597 0.7387 0.7491 0.7945 0.8143
992.000000 0.8087 0.8031 0.8026 0.8263 0.8677
997.000000 0.9034 0.9121 0.9183 0.9217 0.9225
1002.000000 0.9239 0.9240 0.9241 0.9237 0.9233
1007.000000 0.9230 0.9225 0.9214 0.9202 0.9191
1012.000000 0.9180 0.9167 0.9154 0.9142 0.9133
1017.000000 0.9125 0.9118 0.9112 0.9105 0.9098
1022.000000 0.9091 0.9084 0.9074 0.9064 0.9054
1027.000000 0.9044 0.9033 0.9023 0.9013 0.8999
1032.000000 0.8983 0.8966 0.8950 0.8934 0.8918
1037.000000 0.8895 0.8870 0.8845 0.8818 0.8794
1042.000000 0.8767 0.8725 0.8685 0.8644 0.8584
1047.000000 0.8497 0.8411 0.8317 0.8224 0.8124
1052.000000 0.8006 0.7786 0.7771 0.7756 0.7745
1057.000000 0.7734 0.7722 0.7701 0.7603 0.7399
1062.000000 0.7072 0.6965 0.6858 0.6703 0.6499
1067.000000 0.6294 0.6090 0.5887 0.4693 0.4401
1072.000000 0.3744 0.3093 0.2442 0.1791 0.1056
1077.000000 0.0610 0.0431 0.0407 0.0410 0.0430
1082.000000 0.0493 0.0571 0.0622 0.0692 0.0773
1087.000000 0.0862 0.0995 0.1278 0.1494 0.1683
1092.000000 0.1883 0.2022 0.2201 0.3033 0.3329
1097.000000 0.3626 0.3923 0.4412 0.4741 0.5273
1102.000000 0.5757 0.6547 0.6893 0.7208 0.7621
1107.000000 0.7856 0.7978 0.8100 0.8210 0.8318
1112.000000 0.8401 0.8477 0.8552 0.8621 0.8689
1117.000000 0.8756 0.8823 0.8861 0.8900 0.8938
1122.000000 0.8977 0.8997 0.9013 0.9028 0.9043
1127.000000 0.9053 0.9063 0.9073 0.9083 0.9105
1132.000000 0.9092 0.9138 0.9139 0.9140 0.9135
1137.000000 0.9128 0.9124 0.9118 0.9112 0.9106
1142.000000 0.9100 0.9094 0.9088 0.9083 0.9077
1147.000000 0.9071 0.9067 0.9062 0.9057 0.9053
1152.000000 0.9049 0.9046 0.9042 0.9039 0.9035
1157.000000 0.9032 0.9038 0.9044 0.9051 0.9057
1162.000000 0.9064 0.9068 0.9071 0.9070 0.9060
1167.000000 0.9039 0.9013 0.8987 0.8954 0.8913
1172.000000 0.8888 0.8866 0.8858 0.8849 0.8842
1177.000000 0.8835 0.8828 0.8824 0.8818 0.8813
1182.000000 0.8807 0.8802 0.8796 0.8790 0.8785
1187.000000 0.8780 0.8777 0.8775 0.8771 0.8768
1192.000000 0.8764 0.8760 0.8756 0.8754 0.8752
1197.000000 0.8750 0.8746 0.8738 0.8730 0.8721
1202.000000 0.8714 0.8700 0.8684 0.8667 0.8651
1207.000000 0.8635 0.8617 0.8595 0.8573 0.8551
1212.000000 0.8528 0.8507 0.8480 0.8452 0.8424
1217.000000 0.8397 0.8368 0.8342 0.8315 0.8288
1222.000000 0.8261 0.8233 0.8206 0.8167 0.8125
1227.000000 0.8084 0.8043 0.7965 0.7882 0.7797
1232.000000 0.7712 0.7622 0.7517 0.7400 0.7267
1237.000000 0.6999 0.6826 0.6674 0.6532 0.6448
1242.000000 0.6453 0.6519 0.6780 0.7040 0.7240
1247.000000 0.7236 0.7215 0.7161 0.7118 0.7095
1252.000000 0.7101 0.7122 0.7186 0.7275 0.7393
1257.000000 0.7471 0.7490 0.7506 0.7508 0.7511
1262.000000 0.7512 0.7507 0.7498 0.7480 0.7458
1267.000000 0.7438 0.7418 0.7398 0.7378 0.7358
1272.000000 0.7339 0.7318 0.7299 0.7276 0.7255
1277.000000 0.7233 0.7211 0.7189 0.7167 0.7145
1282.000000 0.7124 0.7103 0.7083 0.7061 0.7041
1287.000000 0.7021 0.7000 0.6980 0.6958 0.6930
1292.000000 0.6901 0.6872 0.6844 0.6815 0.6787
1297.000000 0.6758 0.6730 0.6701 0.6671 0.6644
1302.000000 0.6615 0.6589 0.6564 0.6538 0.6511
1307.000000 0.6486 0.6461 0.6435 0.6408 0.6383
1312.000000 0.6357 0.6330 0.6296 0.6260 0.6226
1317.000000 0.6191 0.6157 0.6117 0.6074 0.6031
1322.000000 0.5988 0.5945 0.5902 0.5839 0.5751
1327.000000 0.5662 0.5569 0.5455 0.5274 0.5040
1332.000000 0.4805 0.4571 0.4337 0.4103 0.3868
1337.000000 0.3636 0.3230 0.3034 0.2849 0.2607
1342.000000 0.2376 0.2102 0.1827 0.1704 0.1634
1347.000000 0.1621 0.1622 0.1623 0.2070 0.3063
1352.000000 0.4055 0.5047 0.5384 0.5826 0.6073
1357.000000 0.6137 0.6152 0.6164 0.6162 0.6154
1362.000000 0.6109 0.6020 0.5931 0.5842 0.5753
1367.000000 0.5664 0.5575 0.5486 0.5398 0.5309
1372.000000 0.5220 0.5131 0.5042 0.4953 0.4845
1377.000000 0.4754 0.4658 0.4455 0.4480 0.4485
1382.000000 0.4508 0.4560 0.4623 0.4678 0.4760
1387.000000 0.4871 0.5006 0.4965 0.4965 0.4962
1392.000000 0.4953 0.4940 0.4915 0.4883 0.4834
1397.000000 0.4781 0.4723 0.4634 0.4531 0.4428
1402.000000 0.4326 0.4223 0.4098 0.3982 0.3845
1407.000000 0.3730 0.3612 0.3584 0.3574 0.3572
1412.000000 0.3571 0.3571 0.3572 0.3568 0.3440
1417.000000 0.3004 0.3181 0.3051 0.3016 0.3056
1422.000000 0.3406 0.3757 0.4333 0.4308 0.4309
1427.000000 0.4300 0.4272 0.4203 0.4039 0.3874
1432.000000 0.3709 0.3546 0.3502 0.3494 0.3488
1437.000000 0.3486 0.3475 0.3450 0.3400 0.3169
1442.000000 0.3016 0.2968 0.2977 0.2985 0.3146
1447.000000 0.3337 0.3529 0.3720 0.3912 0.4103
1452.000000 0.4272 0.4334 0.4387 0.4424 0.4448
1457.000000 0.4468 0.4485 0.4502 0.4514 0.4527
1462.000000 0.4539 0.4554 0.4571 0.4590 0.4637
1467.000000 0.4699 0.4777 0.4886 0.5074 0.5152
1472.000000 0.5230 0.5310 0.5394 0.5478 0.5560
1477.000000 0.5643 0.5720 0.5787 0.5853 0.5914
1482.000000 0.5974 0.6014 0.6042 0.6070 0.6095
1487.000000 0.6108 0.6121 0.6134 0.6148 0.6158
1492.000000 0.6167 0.6175 0.6183 0.6192 0.6196
1497.000000 0.6196 0.6196 0.6196 0.6195 0.6194
1502.000000 0.6192 0.6190 0.6187 0.6179 0.6172
1507.000000 0.6165 0.6155 0.6139 0.6122 0.6105
1512.000000 0.6088 0.6068 0.6048 0.6029 0.6005
1517.000000 0.5973 0.5940 0.5905 0.5865 0.5826
1522.000000 0.5778 0.5730 0.5682 0.5633 0.5584
1527.000000 0.5535 0.5453 0.5364 0.5276 0.5060
1532.000000 0.4997 0.4941 0.4926 0.4917 0.4909
1537.000000 0.4900 0.4886 0.4872 0.4855 0.4835
1542.000000 0.4815 0.4769 0.4695 0.4610 0.4497
1547.000000 0.4408 0.4331 0.4234 0.4131 0.4009
1552.000000 0.3876 0.3799 0.3723 0.3653 0.3586
1557.000000 0.3527 0.3482 0.3440 0.3408 0.3382
1562.000000 0.3359 0.3342 0.3325 0.3299 0.3268
1567.000000 0.3216 0.3164 0.3126 0.3088 0.3051
1572.000000 0.3012 0.2971 0.2931 0.2890 0.2850
1577.000000 0.2784 0.2706 0.2668 0.2615 0.2615
1582.000000 0.2620 0.2626 0.2634 0.2657 0.2680
1587.000000 0.2712 0.2752 0.2798 0.2846 0.2892
1592.000000 0.2938 0.2984 0.3029 0.3070 0.3111
1597.000000 0.3153 0.3193 0.3232 0.3260 0.3295
1602.000000 0.3282 0.3284 0.3273 0.3260 0.3246
1607.000000 0.3224 0.3194 0.3157 0.3116 0.3074
1612.000000 0.3026 0.2978 0.2926 0.2873 0.2821
1617.000000 0.2768 0.2714 0.2660 0.2606 0.2552
1622.000000 0.2498 0.2443 0.2391 0.2340 0.2290
1627.000000 0.2240 0.2189 0.2139 0.2088 0.2036
1632.000000 0.1983 0.1929 0.1876 0.1822 0.1768
1637.000000 0.1714 0.1659 0.1604 0.1548 0.1492
1642.000000 0.1436 0.1381 0.1328 0.1282 0.1235
1647.000000 0.1189 0.1142 0.1092 0.1042 0.0958
1652.000000 0.1002 0.0986 0.0976 0.0969 0.0966
1657.000000 0.0964 0.0963 0.0968 0.0974 0.0980
1662.000000 0.0987 0.0993 0.1013 0.1005 0.1005
1667.000000 0.1005 0.1002 0.0996 0.0980 0.0963
1672.000000 0.0943 0.0921 0.0896 0.0869 0.0841
1677.000000 0.0782 0.0788 0.0774 0.0773 0.0780
1682.000000 0.0788 0.0797 0.0813 0.0843 0.0891
1687.000000 0.0941 0.1015 0.1096 0.1190 0.1363
1692.000000 0.1790 0.2102 0.2414 0.2727 0.3039
1697.000000 0.3352 0.3664 0.3976 0.4289 0.4601
1702.000000 0.5046 0.5116 0.5186 0.5593 0.5842
1707.000000 0.6095 0.6181 0.6268 0.6360 0.6558
1712.000000 0.6761 0.6982 0.7218 0.7446 0.7642
1717.000000 0.7837 0.8005 0.8089 0.8174 0.8257
1722.000000 0.8340 0.8411 0.8451 0.8491 0.8531
1727.000000 0.8568 0.8607 0.8644 0.8677 0.8709
1732.000000 0.8728 0.8747 0.8763 0.8810 0.8792
1737.000000 0.8799 0.8802 0.8805 0.8798 0.8790
1742.000000 0.8774 0.8757 0.8739 0.8721 0.8703
1747.000000 0.8687 0.8678 0.8674 0.8680 0.8695
1752.000000 0.8712 0.8761 0.8814 0.8873 0.8936
1757.000000 0.9009 0.9089 0.9181 0.9256 0.9318
1762.000000 0.9363 0.9399 0.9432 0.9461 0.9483
1767.000000 0.9502 0.9521 0.9540 0.9556 0.9568
1772.000000 0.9580 0.9590 0.9600 0.9607 0.9614
1777.000000 0.9621 0.9628 0.9634 0.9641 0.9647
1782.000000 0.9654 0.9661 0.9668 0.9675 0.9684
1787.000000 0.9691 0.9699 0.9707 0.9714 0.9723
1792.000000 0.9732 0.9741 0.9750 0.9760 0.9771
1797.000000 0.9782 0.9792 0.9798 0.9805 0.9812
1802.000000 0.9818 0.9825 0.9831 0.9835 0.9840
1807.000000 0.9845 0.9849 0.9854 0.9858 0.9863
1812.000000 0.9867 0.9870 0.9873 0.9875 0.9878
1817.000000 0.9884 0.9888 0.9893 0.9898 0.9902
1822.000000 0.9907 0.9909 0.9912 0.9914 0.9916
1827.000000 0.9918 0.9921 0.9924 0.9925 0.9928
1832.000000 0.9928 0.9928 0.9928 0.9928 0.9928
1837.000000 0.9928 0.9928 0.9925 0.9923 0.9920
1842.000000 0.9917 0.9914 0.9911 0.9908 0.9905
1847.000000 0.9903 0.9900 0.9900 0.9896 0.9894
1852.000000 0.9893 0.9891 0.9890 0.9888 0.9887
1857.000000 0.9885 0.9884 0.9884 0.9883 0.9883
1862.000000 0.9883 0.9882 0.9882 0.9882 0.9881
1867.000000 0.9881 0.9881 0.9881 0.9882 0.9883
1872.000000 0.9884 0.9885 0.9887 0.9888 0.9889
1877.000000 0.9890 0.9891 0.9892 0.9894 0.9895
1882.000000 0.9896 0.9898 0.9899 0.9901 0.9902
1887.000000 0.9903 0.9903 0.9904 0.9905 0.9905
1892.000000 0.9906 0.9906 0.9906 0.9905 0.9904
1897.000000 0.9902 0.9901 0.9899 0.9898 0.9897
1902.000000 0.9895 0.9894 0.9892 0.9891 0.9889
1907.000000 0.9887 0.9884 0.9882 0.9880 0.9878
1912.000000 0.9875 0.9873 0.9871 0.9868 0.9867
1917.000000 0.9864 0.9862 0.9860 0.9858 0.9856
1922.000000 0.9854 0.9852 0.9850 0.9849 0.9847
1927.000000 0.9845 0.9843 0.9841 0.9838 0.9835
1932.000000 0.9833 0.9830 0.9827 0.9825 0.9821
1937.000000 0.9814 0.9805 0.9797 0.9788 0.9780
1942.000000 0.9770 0.9760 0.9760 0.9760 0.9760
1947.000000 0.9761 0.9761 0.9762 0.9763 0.9764
1952.000000 0.9764 0.9765 0.9767 0.9768 0.9775
1957.000000 0.9801 0.9833 0.9861 0.9881 0.9868
1962.000000 0.9850 0.9818 0.9783 0.9743 0.9705
1967.000000 0.9681 0.9660 0.9647 0.9638 0.9630
1972.000000 0.9625 0.9618 0.9612 0.9604 0.9603
1977.000000 0.9607 0.9611 0.9616 0.9621 0.9625
1982.000000 0.9632 0.9639 0.9646 0.9651 0.9656
1987.000000 0.9656 0.9656 0.9644 0.9632 0.9611
1992.000000 0.9580 0.9555 0.9533 0.9533 0.9541
1997.000000 0.9554 0.9618 0.9682 0.9700 0.9712
2002.000000 0.9725 0.9730 0.9735 0.9739 0.9743
2007.000000 0.9745 0.9746 0.9746 0.9746 0.9745
2012.000000 0.9745 0.9744 0.9744 0.9743 0.9742
2017.000000 0.9741 0.9740 0.9739 0.9739 0.9738
2022.000000 0.9737 0.9736 0.9735 0.9732 0.9728
2027.000000 0.9725 0.9721 0.9718 0.9716 0.9713
2032.000000 0.9710 0.9705 0.9700 0.9695 0.9691
2037.000000 0.9686 0.9681 0.9675 0.9671 0.9667
2042.000000 0.9663 0.9659 0.9655 0.9651 0.9647
2047.000000 0.9643 0.9640 0.9636 0.9632 0.9628
2052.000000 0.9624 0.9620 0.9616 0.9612 0.9609
2057.000000 0.9605 0.9601 0.9597 0.9594 0.9591
2062.000000 0.9589 0.9586 0.9584 0.9581 0.9578
2067.000000 0.9575 0.9574 0.9571 0.9568 0.9565
2072.000000 0.9563 0.9560 0.9558 0.9555 0.9553
2077.000000 0.9550 0.9548 0.9545 0.9543 0.9540
2082.000000 0.9538 0.9535 0.9533 0.9530 0.9528
2087.000000 0.9525 0.9523 0.9520 0.9518 0.9515
2092.000000 0.9513 0.9510 0.9508 0.9505 0.9503
2097.000000 0.9500 0.9498 0.9495 0.9493 0.9490
2102.000000 0.9488 0.9485 0.9483 0.9480 0.9478
2107.000000 0.9474 0.9471 0.9467 0.9464 0.9461
2112.000000 0.9458 0.9454 0.9451 0.9447 0.9444
2117.000000 0.9440 0.9437 0.9433 0.9430 0.9423
2122.000000 0.9416 0.9406 0.9397 0.9388 0.9378
2127.000000 0.9368 0.9360 0.9350 0.9341 0.9331
2132.000000 0.9321 0.9315 0.9308 0.9308 0.9309
2137.000000 0.9310 0.9311 0.9312 0.9313 0.9315
2142.000000 0.9318 0.9320 0.9323 0.9323 0.9324
2147.000000 0.9324 0.9324 0.9324 0.9324 0.9321
2152.000000 0.9318 0.9315 0.9312 0.9309 0.9306
2157.000000 0.9302 0.9299 0.9295 0.9291 0.9287
2162.000000 0.9283 0.9278 0.9274 0.9270 0.9266
2167.000000 0.9261 0.9257 0.9252 0.9247 0.9242
2172.000000 0.9237 0.9233 0.9230 0.9227 0.9224
2177.000000 0.9223 0.9223 0.9223 0.9224 0.9225
2182.000000 0.9228 0.9235 0.9241 0.9247 0.9253
2187.000000 0.9258 0.9264 0.9268 0.9275 0.9278
2192.000000 0.9283 0.9287 0.9291 0.9294 0.9297
2197.000000 0.9299 0.9302 0.9304 0.9307 0.9307
2202.000000 0.9308 0.9303 0.9299 0.9294 0.9290
2207.000000 0.9285 0.9281 0.9275 0.9271 0.9265
2212.000000 0.9260 0.9253 0.9247 0.9239 0.9231
2217.000000 0.9223 0.9216 0.9207 0.9199 0.9190
2222.000000 0.9182 0.9173 0.9165 0.9156 0.9148
2227.000000 0.9139 0.9131 0.9121 0.9114 0.9105
2232.000000 0.9096 0.9088 0.9081 0.9077 0.9074
2237.000000 0.9070 0.9067 0.9063 0.9060 0.9056
2242.000000 0.9053 0.9049 0.9046 0.9042 0.9039
2247.000000 0.9035 0.9032 0.9028 0.9025 0.9023
2252.000000 0.9021 0.9018 0.9017 0.9015 0.9013
2257.000000 0.9011 0.9009 0.9007 0.9006 0.9004
2262.000000 0.9002 0.9000 0.8998 0.8996 0.8994
2267.000000 0.8993 0.8992 0.8992 0.8992 0.8992
2272.000000 0.8992 0.8992 0.8992 0.8992 0.8992
2277.000000 0.8992 0.8992 0.8992 0.8992 0.8992
2282.000000 0.8993 0.8993 0.8993 0.8994 0.8995
2287.000000 0.8997 0.8999 0.9000 0.9002 0.9003
2292.000000 0.9005 0.9006 0.9008 0.9010 0.9012
2297.000000 0.9013 0.9015 0.9016 0.9015 0.9015
2302.000000 0.9013 0.9011 0.9009 0.9007 0.9005
2307.000000 0.9002 0.9000 0.8998 0.8996 0.8992
2312.000000 0.8989 0.8982 0.8975 0.8968 0.8963
2317.000000 0.8960 0.8957 0.8953 0.8950 0.8947
2322.000000 0.8947 0.8948 0.8953 0.8957 0.8962
2327.000000 0.8966 0.8971 0.8978 0.8985 0.8997
2332.000000 0.9009 0.9015 0.9021 0.9025 0.9031
2337.000000 0.9035 0.9039 0.9038 0.9037 0.9036
2342.000000 0.9035 0.9034 0.9033 0.9031 0.9028
2347.000000 0.9027 0.9025 0.9021 0.9020 0.9017
2352.000000 0.9015 0.9012 0.9010 0.9007 0.9005
2357.000000 0.9002 0.9000 0.8997 0.8995 0.8992
2362.000000 0.8989 0.8986 0.8984 0.8981 0.8978
2367.000000 0.8975 0.8974 0.8968 0.8965 0.8960
2372.000000 0.8956 0.8952 0.8948 0.8943 0.8939
2377.000000 0.8934 0.8930 0.8925 0.8921 0.8916
2382.000000 0.8911 0.8905 0.8899 0.8893 0.8887
2387.000000 0.8881 0.8875 0.8868 0.8863 0.8857
2392.000000 0.8851 0.8844 0.8837 0.8827 0.8818
2397.000000 0.8809 0.8800 0.8790 0.8781 0.8771
2402.000000 0.8763 0.8754 0.8745 0.8735 0.8725
2407.000000 0.8717 0.8708 0.8699 0.8690 0.8680
2412.000000 0.8671 0.8661 0.8651 0.8641 0.8632
