##TITLE=1,2-BUTYLENE CHLORIDE
##JCAMP-DX=4.24
##DATA TYPE=INFRARED SPECTRUM
##CLASS=COBLENTZ
##ORIGIN=DOW CHEMICAL COMPANY
##OWNER=COBLENTZ SOCIETY
Collection (C) 2018 copyright by the U.S. Secretary of Commerce
on behalf of the United States of America. All rights reserved.
##DATE=Not specified, most likely prior to 1970
##NAMES=1,2-dichlorobutane
##CAS REGISTRY NO=616-21-7
##MOLFORM=C4 H8 Cl2
##SOURCE REFERENCE=COBLENTZ NO. 21
##$NIST SOURCE=COBLENTZ
##$NIST IMAGE=cob21
##SPECTROMETER/DATA SYSTEM=Not specified, most likely a prism, grating, or hybrid spectrometer.
##STATE=SOLUTION (10% CCl4 FOR 2.5-7.5, 10% CS2 FOR 7.5-16 MICRONS)
##PATH LENGTH=0.01 CM, 0.01 CM
$$SPECTRAL CONTAMINATION DUE TO CCl4 AROUND 1550 CM^-^1
##SAMPLING PROCEDURE=TRANSMISSION
##RESOLUTION=4
##DATA PROCESSING=DIGITIZED BY NIST FROM HARD COPY
##XUNITS=MICROMETERS
##YUNITS=TRANSMITTANCE
##XFACTOR=1.000000
##YFACTOR=1
##DELTAX=000.006682
##FIRSTX=1.998
##LASTX=15.8691
##FIRSTY=0.9
##MAXX=15.8691
##MINX=1.998
##MAXY=0.906
##MINY=0.146
##NPOINTS=2077
##XYDATA=(X++(Y..Y))
1.998000 0.9000 0.8980 0.8980 0.9000 0.8980
2.031424 0.8980 0.8980 0.8980 0.8980 0.8980
2.065000 0.8980 0.8980 0.8980 0.8980 0.8970
2.098424 0.8970 0.8950 0.8950 0.8930 0.8920
2.131000 0.8920 0.8900 0.8900 0.8900 0.8900
2.164424 0.8900 0.8880 0.8870 0.8850 0.8830
2.198000 0.8820 0.8770 0.8730 0.8720 0.8680
2.231424 0.8680 0.8670 0.8670 0.8650 0.8650
2.265000 0.8650 0.8630 0.8630 0.8630 0.8630
2.298424 0.8630 0.8630 0.8630 0.8630 0.8630
2.332000 0.8650 0.8650 0.8670 0.8670 0.8680
2.365424 0.8680 0.8700 0.8700 0.8700 0.8730
2.399000 0.8750 0.8770 0.8780 0.8780 0.8800
2.432424 0.8820 0.8830 0.8830 0.8850 0.8870
2.465000 0.8870 0.8880 0.8880 0.8900 0.8900
2.498424 0.8920 0.8920 0.8920 0.8920 0.8930
2.532000 0.8950 0.8970 0.8980 0.8980 0.8980
2.565424 0.8980 0.8980 0.8980 0.8980 0.8980
2.599000 0.8970 0.8950 0.8930 0.8930 0.8930
2.632424 0.8920 0.8920 0.8920 0.8920 0.8920
2.666000 0.8920 0.8920 0.8920 0.8920 0.8920
2.699424 0.8920 0.8900 0.8900 0.8900 0.8900
2.733000 0.8900 0.8900 0.8900 0.8880 0.8870
2.766424 0.8830 0.8780 0.8750 0.8720 0.8700
2.800000 0.8700 0.8700 0.8700 0.8700 0.8700
2.833424 0.8720 0.8730 0.8720 0.8720 0.8720
2.866000 0.8720 0.8700 0.8720 0.8700 0.8700
2.899424 0.8700 0.8700 0.8700 0.8700 0.8700
2.933000 0.8700 0.8700 0.8680 0.8670 0.8650
2.966424 0.8650 0.8650 0.8650 0.8650 0.8670
3.000000 0.8680 0.8680 0.8700 0.8680 0.8680
3.033424 0.8680 0.8680 0.8680 0.8680 0.8680
3.067000 0.8670 0.8670 0.8650 0.8650 0.8650
3.100424 0.8650 0.8650 0.8630 0.8630 0.8630
3.134000 0.8630 0.8650 0.8680 0.8700 0.8720
3.167424 0.8720 0.8720 0.8720 0.8720 0.8720
3.200000 0.8720 0.8700 0.8680 0.8670 0.8670
3.233424 0.8650 0.8620 0.8570 0.8550 0.8500
3.267000 0.8450 0.8370 0.8300 0.8230 0.8130
3.300424 0.7970 0.7740 0.7120 0.6740 0.6270
3.334000 0.5780 0.5190 0.4060 0.3620 0.3550
3.367424 0.3620 0.3720 0.4130 0.4510 0.4900
3.401000 0.5260 0.5660 0.6010 0.6490 0.6690
3.434424 0.6860 0.6920 0.6940 0.6990 0.7090
3.468000 0.7270 0.7400 0.7540 0.7790 0.8020
3.501424 0.8130 0.8220 0.8300 0.8420 0.8500
3.535000 0.8600 0.8650 0.8670 0.8700 0.8720
3.568424 0.8730 0.8770 0.8780 0.8780 0.8780
3.601000 0.8780 0.8770 0.8770 0.8770 0.8750
3.634424 0.8730 0.8720 0.8720 0.8730 0.8730
3.668000 0.8770 0.8780 0.8830 0.8850 0.8850
3.701424 0.8870 0.8870 0.8880 0.8880 0.8880
3.735000 0.8880 0.8900 0.8900 0.8920 0.8920
3.768424 0.8920 0.8920 0.8920 0.8920 0.8930
3.802000 0.8930 0.8930 0.8900 0.8900 0.8900
3.835424 0.8900 0.8900 0.8920 0.8930 0.8950
3.869000 0.8950 0.8950 0.8930 0.8900 0.8880
3.902424 0.8880 0.8880 0.8880 0.8880 0.8880
3.935000 0.8900 0.8930 0.8930 0.8930 0.8930
3.968424 0.8930 0.8930 0.8930 0.8930 0.8930
4.002000 0.8930 0.8930 0.8930 0.8920 0.8900
4.035424 0.8900 0.8880 0.8880 0.8880 0.8880
4.069000 0.8880 0.8880 0.8920 0.8920 0.8920
4.102424 0.8920 0.8920 0.8920 0.8920 0.8900
4.136000 0.8880 0.8870 0.8870 0.8900 0.8930
4.169424 0.8930 0.8950 0.8950 0.8950 0.8950
4.203000 0.8930 0.8900 0.8880 0.8880 0.8870
4.236424 0.8850 0.8830 0.8820 0.8800 0.8780
4.269000 0.8770 0.8770 0.8750 0.8730 0.8720
4.302424 0.8700 0.8680 0.8680 0.8680 0.8680
4.336000 0.8680 0.8680 0.8680 0.8680 0.8700
4.369424 0.8700 0.8720 0.8750 0.8820 0.8830
4.403000 0.8870 0.8870 0.8880 0.8880 0.8920
4.436424 0.8930 0.8930 0.8950 0.8950 0.8950
4.470000 0.8950 0.8950 0.8950 0.8950 0.8930
4.503424 0.8930 0.8930 0.8930 0.8930 0.8930
4.537000 0.8930 0.8930 0.8930 0.8900 0.8900
4.570424 0.8900 0.8900 0.8920 0.8920 0.8950
4.604000 0.8980 0.9010 0.9030 0.9030 0.9030
4.637424 0.9030 0.9030 0.9030 0.9030 0.9030
4.670000 0.9000 0.8970 0.8970 0.8950 0.8950
4.703424 0.8930 0.8920 0.8920 0.8920 0.8920
4.737000 0.8930 0.8950 0.8970 0.8980 0.9000
4.770424 0.9000 0.9000 0.9000 0.9010 0.9010
4.804000 0.9010 0.9010 0.9010 0.9010 0.9010
4.837424 0.9010 0.9010 0.9010 0.9010 0.9000
4.871000 0.9000 0.8980 0.8980 0.8980 0.8970
4.904424 0.8970 0.8970 0.8970 0.8970 0.8970
4.938000 0.8970 0.8970 0.8970 0.8970 0.8950
4.971424 0.8970 0.8970 0.8970 0.8970 0.8970
5.004000 0.8970 0.8970 0.8970 0.8950 0.8970
5.037424 0.8970 0.9000 0.9000 0.9010 0.9010
5.071000 0.9010 0.9000 0.9000 0.9000 0.9000
5.104424 0.9000 0.8980 0.8980 0.8980 0.8980
5.138000 0.8980 0.8980 0.8980 0.9000 0.9010
5.171424 0.9010 0.9030 0.9030 0.9030 0.9050
5.205000 0.9050 0.9030 0.9030 0.9030 0.9030
5.238424 0.9000 0.8980 0.8970 0.8970 0.8970
5.272000 0.8950 0.8950 0.8930 0.8930 0.8930
5.305424 0.8930 0.8930 0.8930 0.8950 0.8950
5.339000 0.8970 0.8970 0.8970 0.8970 0.8950
5.372424 0.8950 0.8970 0.8950 0.8950 0.8930
5.405000 0.8920 0.8930 0.8930 0.8930 0.8930
5.438424 0.8930 0.8950 0.8970 0.8970 0.8980
5.472000 0.8980 0.9000 0.9000 0.9010 0.9030
5.505424 0.9030 0.9030 0.9030 0.9030 0.9030
5.539000 0.9010 0.9030 0.9030 0.9030 0.9030
5.572424 0.9030 0.9030 0.9050 0.9050 0.9060
5.606000 0.9060 0.9060 0.9060 0.9060 0.9060
5.639424 0.9060 0.9050 0.9050 0.9050 0.9050
5.673000 0.9050 0.9050 0.9050 0.9050 0.9050
5.706424 0.9050 0.9050 0.9050 0.9050 0.9030
5.739000 0.9010 0.9000 0.8950 0.8930 0.8920
5.772424 0.8920 0.8920 0.8920 0.8950 0.8980
5.806000 0.9000 0.9010 0.9010 0.9030 0.9010
5.839424 0.9010 0.9030 0.9030 0.9030 0.9030
5.873000 0.9030 0.9010 0.9000 0.9000 0.8980
5.906424 0.8980 0.8970 0.8950 0.8950 0.8930
5.940000 0.8930 0.8920 0.8900 0.8880 0.8870
5.973424 0.8850 0.8850 0.8850 0.8850 0.8850
6.007000 0.8870 0.8880 0.8880 0.8870 0.8870
6.040424 0.8850 0.8830 0.8800 0.8770 0.8730
6.073000 0.8720 0.8700 0.8700 0.8680 0.8680
6.106424 0.8670 0.8670 0.8650 0.8650 0.8630
6.140000 0.8620 0.8600 0.8550 0.8500 0.8470
6.173424 0.8350 0.8280 0.8230 0.8180 0.8100
6.207000 0.8000 0.7890 0.7770 0.7640 0.7500
6.240424 0.7250 0.7120 0.6990 0.6820 0.6640
6.274000 0.6560 0.6490 0.6410 0.6360 0.6360
6.307424 0.6320 0.6310 0.6270 0.6220 0.6140
6.341000 0.6060 0.5980 0.5890 0.5810 0.5710
6.374424 0.5630 0.5540 0.5480 0.5330 0.5230
6.408000 0.5130 0.5010 0.4800 0.4750 0.4730
6.441424 0.4730 0.4730 0.4750 0.4830 0.4960
6.474000 0.5040 0.5130 0.5340 0.5560 0.5760
6.507424 0.5910 0.6020 0.6040 0.6090 0.6190
6.541000 0.6270 0.6320 0.6370 0.6440 0.6510
6.574424 0.6570 0.6660 0.6740 0.6810 0.6890
6.608000 0.6970 0.7050 0.7150 0.7240 0.7340
6.641424 0.7420 0.7490 0.7520 0.7550 0.7590
6.675000 0.7640 0.7640 0.7650 0.7700 0.7740
6.708424 0.7740 0.7770 0.7770 0.7770 0.7750
6.742000 0.7700 0.7570 0.7140 0.6870 0.6590
6.775424 0.6290 0.6020 0.5790 0.5540 0.5260
6.808000 0.4780 0.4660 0.4510 0.4510 0.4530
6.841424 0.4730 0.4930 0.5080 0.5230 0.5280
6.875000 0.5280 0.5240 0.5030 0.4630 0.4550
6.908424 0.4550 0.4550 0.4630 0.4910 0.5190
6.942000 0.5610 0.5910 0.6110 0.6270 0.6420
6.975424 0.6610 0.6820 0.7120 0.7320 0.7420
7.009000 0.7500 0.7670 0.7800 0.7970 0.8120
7.042424 0.8270 0.8300 0.8320 0.8320 0.8300
7.076000 0.8300 0.8320 0.8350 0.8350 0.8330
7.109424 0.8320 0.8270 0.8200 0.8080 0.7940
7.143000 0.7770 0.7550 0.7190 0.6990 0.6890
7.176424 0.6620 0.6610 0.6340 0.6220 0.6220
7.209000 0.6220 0.6220 0.6320 0.6820 0.7190
7.242424 0.7370 0.7550 0.7870 0.7970 0.8120
7.276000 0.8130 0.8130 0.8120 0.8120 0.8100
7.309424 0.8100 0.8100 0.8100 0.8100 0.8100
7.343000 0.8100 0.8100 0.8130 0.8180 0.8230
7.376424 0.8320 0.8370 0.8420 0.8430 0.8450
7.410000 0.8450 0.8450 0.8430 0.8420 0.8400
7.443424 0.8380 0.8370 0.8350 0.8330 0.8280
7.477000 0.8270 0.8270 0.8250 0.8230 0.8220
7.510424 0.8200 0.8180 0.8100 0.7950 0.7870
7.543000 0.7850 0.7820 0.7770 0.7720 0.7650
7.576424 0.7590 0.7540 0.7420 0.7340 0.7250
7.610000 0.7140 0.6990 0.6960 0.6870 0.6790
7.643424 0.6760 0.6740 0.6720 0.6720 0.6710
7.677000 0.6670 0.6660 0.6640 0.6620 0.6610
7.710424 0.6610 0.6540 0.6620 0.6690 0.6790
7.744000 0.6910 0.7070 0.7270 0.7450 0.7520
7.777424 0.7570 0.7620 0.7620 0.7640 0.7640
7.811000 0.7640 0.7590 0.7340 0.7270 0.7040
7.844424 0.6940 0.6660 0.6560 0.6460 0.6290
7.878000 0.6190 0.6140 0.6120 0.6120 0.6120
7.911424 0.6120 0.6140 0.6160 0.6210 0.6270
7.944000 0.6360 0.6420 0.6510 0.6610 0.6710
7.977424 0.6840 0.6990 0.7140 0.7200 0.7250
8.011000 0.7340 0.7370 0.7400 0.7420 0.7420
8.044424 0.7420 0.7400 0.7370 0.7320 0.7250
8.078000 0.7170 0.7070 0.7020 0.6970 0.6910
8.111424 0.6860 0.6820 0.6760 0.6740 0.6710
8.145000 0.6670 0.6590 0.6520 0.6420 0.6360
8.178424 0.6270 0.6140 0.6020 0.6010 0.6020
8.212000 0.6070 0.6170 0.6340 0.6520 0.6760
8.245424 0.6970 0.7190 0.7350 0.7450 0.7490
8.278000 0.7520 0.7540 0.7550 0.7570 0.7570
8.311424 0.7570 0.7590 0.7590 0.7590 0.7590
8.345000 0.7590 0.7590 0.7590 0.7590 0.7590
8.378424 0.7570 0.7390 0.7270 0.7150 0.7040
8.412000 0.6910 0.6770 0.6590 0.6490 0.6390
8.445424 0.6310 0.6260 0.6240 0.6260 0.6310
8.479000 0.6390 0.6470 0.6570 0.6660 0.6760
8.512424 0.6860 0.6960 0.7040 0.7140 0.7220
8.546000 0.7290 0.7340 0.7390 0.7450 0.7490
8.579424 0.7520 0.7540 0.7590 0.7620 0.7640
8.612000 0.7640 0.7640 0.7640 0.7640 0.7640
8.645424 0.7620 0.7620 0.7620 0.7600 0.7620
8.679000 0.7620 0.7620 0.7600 0.7620 0.7620
8.712424 0.7620 0.7640 0.7650 0.7670 0.7720
8.746000 0.7720 0.7740 0.7740 0.7740 0.7720
8.779424 0.7740 0.7740 0.7740 0.7720 0.7700
8.813000 0.7670 0.7640 0.7620 0.7590 0.7570
8.846424 0.7540 0.7520 0.7520 0.7520 0.7520
8.880000 0.7520 0.7520 0.7520 0.7520 0.7520
8.913424 0.7520 0.7520 0.7540 0.7540 0.7550
8.947000 0.7550 0.7540 0.7540 0.7540 0.7500
8.980424 0.7500 0.7440 0.7390 0.7350 0.7340
9.013000 0.7320 0.7300 0.7300 0.7300 0.7300
9.046424 0.7300 0.7300 0.7300 0.7300 0.7300
9.080000 0.7300 0.7320 0.7340 0.7390 0.7400
9.113424 0.7420 0.7490 0.7490 0.7500 0.7520
9.147000 0.7500 0.7520 0.7540 0.7540 0.7540
9.180424 0.7520 0.7520 0.7520 0.7500 0.7440
9.214000 0.7390 0.7350 0.7300 0.7240 0.7190
9.247424 0.7140 0.7070 0.7020 0.6970 0.6920
9.281000 0.6890 0.6840 0.6810 0.6760 0.6720
9.314424 0.6670 0.6620 0.6570 0.6540 0.6510
9.347000 0.6490 0.6490 0.6510 0.6510 0.6540
9.380424 0.6570 0.6660 0.6720 0.6810 0.6860
9.414000 0.6890 0.6870 0.6920 0.6940 0.6940
9.447424 0.6960 0.6960 0.6960 0.6960 0.6940
9.481000 0.6920 0.6910 0.6890 0.6890 0.6890
9.514424 0.6890 0.6920 0.7050 0.7100 0.7240
9.548000 0.7290 0.7350 0.7390 0.7400 0.7420
9.581424 0.7440 0.7470 0.7500 0.7520 0.7520
9.615000 0.7540 0.7540 0.7550 0.7550 0.7550
9.648424 0.7550 0.7550 0.7550 0.7590 0.7590
9.682000 0.7620 0.7640 0.7640 0.7650 0.7650
9.715424 0.7690 0.7720 0.7740 0.7740 0.7740
9.748000 0.7740 0.7740 0.7720 0.7720 0.7700
9.781424 0.7700 0.7690 0.7690 0.7690 0.7670
9.815000 0.7650 0.7640 0.7640 0.7640 0.7640
9.848424 0.7640 0.7620 0.7620 0.7620 0.7600
9.882000 0.7600 0.7600 0.7600 0.7600 0.7600
9.915424 0.7600 0.7600 0.7600 0.7600 0.7600
9.949000 0.7620 0.7620 0.7620 0.7620 0.7620
9.982424 0.7640 0.7640 0.7670 0.7700 0.7720
10.016000 0.7740 0.7740 0.7750 0.7770 0.7800
10.049424 0.7820 0.7840 0.7840 0.7850 0.7850
10.082000 0.7850 0.7850 0.7850 0.7870 0.7870
10.115424 0.7870 0.7870 0.7850 0.7840 0.7840
10.149000 0.7820 0.7820 0.7800 0.7790 0.7790
10.182424 0.7790 0.7790 0.7800 0.7800 0.7820
10.216000 0.7850 0.7870 0.7890 0.7890 0.7900
10.249424 0.7900 0.7920 0.7920 0.7920 0.7920
10.283000 0.7920 0.7920 0.7920 0.7900 0.7900
10.316424 0.7920 0.7920 0.7900 0.7900 0.7900
10.350000 0.7900 0.7900 0.7900 0.7900 0.7890
10.383424 0.7890 0.7870 0.7870 0.7840 0.7820
10.416000 0.7790 0.7750 0.7740 0.7700 0.7670
10.449424 0.7640 0.7620 0.7570 0.7550 0.7470
10.483000 0.7440 0.7440 0.7440 0.7440 0.7420
10.516424 0.7400 0.7390 0.7350 0.7320 0.7270
10.550000 0.7220 0.7190 0.7120 0.7070 0.6990
10.583424 0.6910 0.6790 0.6670 0.6540 0.6370
10.617000 0.6220 0.6110 0.6010 0.5930 0.5790
10.650424 0.5730 0.5640 0.5630 0.5630 0.5630
10.684000 0.5640 0.5740 0.5810 0.5890 0.5980
10.717424 0.6090 0.6260 0.6470 0.6540 0.6670
10.751000 0.6770 0.6820 0.6910 0.6960 0.7020
10.784424 0.7020 0.7000 0.6990 0.6960 0.6920
10.817000 0.6870 0.6810 0.6760 0.6690 0.6640
10.850424 0.6620 0.6590 0.6570 0.6570 0.6610
10.884000 0.6670 0.6720 0.6770 0.6820 0.6870
10.917424 0.6940 0.7020 0.7040 0.7050 0.7070
10.951000 0.7100 0.7140 0.7170 0.7200 0.7240
10.984424 0.7270 0.7300 0.7350 0.7400 0.7490
11.018000 0.7500 0.7520 0.7570 0.7620 0.7650
11.051424 0.7670 0.7700 0.7720 0.7720 0.7740
11.085000 0.7740 0.7740 0.7740 0.7740 0.7740
11.118424 0.7740 0.7740 0.7740 0.7720 0.7720
11.151000 0.7740 0.7840 0.7850 0.7920 0.7920
11.184424 0.7950 0.8020 0.8020 0.8030 0.8030
11.218000 0.8030 0.8030 0.8030 0.8030 0.8030
11.251424 0.8030 0.8020 0.7990 0.7990 0.7940
11.285000 0.7890 0.7820 0.7790 0.7750 0.7700
11.318424 0.7670 0.7650 0.7640 0.7590 0.7590
11.352000 0.7550 0.7550 0.7550 0.7550 0.7550
11.385424 0.7550 0.7550 0.7550 0.7550 0.7550
11.419000 0.7550 0.7540 0.7540 0.7520 0.7500
11.452424 0.7470 0.7450 0.7420 0.7390 0.7350
11.486000 0.7340 0.7320 0.7290 0.7250 0.7240
11.519424 0.7200 0.7170 0.7140 0.7120 0.7070
11.552000 0.7050 0.7040 0.7040 0.7020 0.7000
11.585424 0.6990 0.6970 0.6960 0.6920 0.6940
11.619000 0.6910 0.6920 0.6910 0.6890 0.6890
11.652424 0.6870 0.6870 0.6870 0.6870 0.6890
11.686000 0.6890 0.6890 0.6910 0.6910 0.6890
11.719424 0.6920 0.6940 0.6970 0.7000 0.7040
11.753000 0.7100 0.7170 0.7220 0.7270 0.7320
11.786424 0.7350 0.7400 0.7470 0.7500 0.7520
11.820000 0.7570 0.7600 0.7640 0.7670 0.7690
11.853424 0.7700 0.7740 0.7770 0.7800 0.7850
11.886000 0.7870 0.7890 0.7920 0.7940 0.7950
11.919424 0.7950 0.7970 0.7970 0.7970 0.7970
11.953000 0.7970 0.7970 0.7950 0.7920 0.7870
11.986424 0.7840 0.7790 0.7720 0.7670 0.7590
12.020000 0.7500 0.7300 0.7220 0.7100 0.7040
12.053424 0.6940 0.6820 0.6720 0.6610 0.6510
12.087000 0.6420 0.6340 0.6310 0.6270 0.6220
12.120424 0.6220 0.6210 0.6210 0.6220 0.6220
12.154000 0.6260 0.6270 0.6310 0.6360 0.6410
12.187424 0.6460 0.6520 0.6590 0.6660 0.6720
12.220000 0.6770 0.6790 0.6810 0.6810 0.6810
12.253424 0.6810 0.6790 0.6760 0.6710 0.6660
12.287000 0.6590 0.6540 0.6470 0.6420 0.6340
12.320424 0.6270 0.6260 0.6260 0.6260 0.6270
12.354000 0.6310 0.6410 0.6470 0.6560 0.6620
12.387424 0.6710 0.6770 0.6860 0.6940 0.7020
12.421000 0.7020 0.7040 0.7040 0.7050 0.7040
12.454424 0.7040 0.7040 0.7000 0.6970 0.6940
12.488000 0.6890 0.6860 0.6820 0.6790 0.6740
12.521424 0.6710 0.6670 0.6620 0.6570 0.6560
12.555000 0.6540 0.6520 0.6510 0.6470 0.6470
12.588424 0.6460 0.6460 0.6440 0.6460 0.6470
12.621000 0.6490 0.6520 0.6570 0.6620 0.6670
12.654424 0.6740 0.6820 0.6860 0.6890 0.6920
12.688000 0.6990 0.7040 0.7100 0.7150 0.7200
12.721424 0.7250 0.7300 0.7350 0.7390 0.7440
12.755000 0.7470 0.7490 0.7500 0.7540 0.7550
12.788424 0.7570 0.7600 0.7620 0.7640 0.7670
12.822000 0.7690 0.7690 0.7690 0.7690 0.7700
12.855424 0.7740 0.7750 0.7750 0.7770 0.7800
12.889000 0.7820 0.7820 0.7840 0.7850 0.7850
12.922424 0.7870 0.7870 0.7890 0.7890 0.7890
12.955000 0.7890 0.7890 0.7890 0.7890 0.7870
12.988424 0.7870 0.7850 0.7850 0.7820 0.7800
13.022000 0.7770 0.7750 0.7740 0.7720 0.7690
13.055424 0.7650 0.7650 0.7620 0.7570 0.7550
13.089000 0.7540 0.7500 0.7450 0.7450 0.7440
13.122424 0.7390 0.7340 0.7290 0.7250 0.7200
13.156000 0.7140 0.7070 0.6990 0.6870 0.6790
13.189424 0.6720 0.6610 0.6520 0.6420 0.6310
13.223000 0.6220 0.6120 0.6040 0.5960 0.5890
13.256424 0.5810 0.5740 0.5690 0.5640 0.5590
13.290000 0.5540 0.5490 0.5460 0.5430 0.5390
13.323424 0.5360 0.5330 0.5310 0.5280 0.5260
13.356000 0.5240 0.5210 0.5180 0.5140 0.5090
13.389424 0.5030 0.4900 0.4830 0.4750 0.4650
13.423000 0.4560 0.4480 0.4380 0.4280 0.4200
13.456424 0.4080 0.3970 0.3850 0.3700 0.3570
13.490000 0.3430 0.3280 0.3130 0.3000 0.2850
13.523424 0.2720 0.2590 0.2340 0.2220 0.2100
13.557000 0.1970 0.1870 0.1770 0.1690 0.1640
13.590424 0.1590 0.1570 0.1510 0.1470 0.1460
13.624000 0.1490 0.1540 0.1620 0.1710 0.1810
13.657424 0.1940 0.2070 0.2220 0.2370 0.2450
13.690000 0.2540 0.2720 0.2900 0.3080 0.3270
13.723424 0.3450 0.3630 0.3800 0.3970 0.4130
13.757000 0.4280 0.4430 0.4560 0.4700 0.4830
13.790424 0.4950 0.5010 0.5060 0.5160 0.5260
13.824000 0.5360 0.5440 0.5510 0.5580 0.5640
13.857424 0.5680 0.5690 0.5730 0.5760 0.5810
13.891000 0.5830 0.5830 0.5830 0.5790 0.5790
13.924424 0.5810 0.5880 0.5880 0.5880 0.5860
13.958000 0.5840 0.5840 0.5830 0.5830 0.5840
13.991424 0.5840 0.5880 0.5910 0.5930 0.5930
14.024000 0.5930 0.5930 0.5930 0.5940 0.5940
14.057424 0.5960 0.5980 0.5990 0.6010 0.6020
14.091000 0.6040 0.6060 0.6070 0.6070 0.6110
14.124424 0.6120 0.6120 0.6120 0.6120 0.6140
14.158000 0.6160 0.6170 0.6170 0.6190 0.6190
14.191424 0.6210 0.6210 0.6220 0.6220 0.6260
14.225000 0.6260 0.6270 0.6270 0.6310 0.6310
14.258424 0.6340 0.6370 0.6390 0.6410 0.6410
14.292000 0.6420 0.6420 0.6440 0.6440 0.6440
14.325424 0.6440 0.6460 0.6460 0.6460 0.6460
14.359000 0.6460 0.6470 0.6470 0.6470 0.6470
14.392424 0.6470 0.6470 0.6470 0.6470 0.6470
14.425000 0.6470 0.6470 0.6470 0.6470 0.6470
14.458424 0.6470 0.6470 0.6460 0.6460 0.6440
14.492000 0.6440 0.6420 0.6410 0.6410 0.6370
14.525424 0.6370 0.6360 0.6360 0.6340 0.6310
14.559000 0.6270 0.6270 0.6260 0.6240 0.6240
14.592424 0.6220 0.6210 0.6170 0.6160 0.6120
14.626000 0.6110 0.6090 0.6070 0.6060 0.6040
14.659424 0.6020 0.6010 0.5940 0.5890 0.5880
14.693000 0.5860 0.5840 0.5830 0.5790 0.5740
14.726424 0.5730 0.5680 0.5680 0.5640 0.5610
14.759000 0.5540 0.5490 0.5430 0.5380 0.5340
14.792424 0.5290 0.5260 0.5230 0.5180 0.5080
14.826000 0.5010 0.4960 0.4950 0.4950 0.4900
14.859424 0.4860 0.4830 0.4760 0.4710 0.4660
14.893000 0.4630 0.4580 0.4550 0.4510 0.4480
14.926424 0.4430 0.4400 0.4350 0.4280 0.4210
14.960000 0.4180 0.4110 0.4060 0.4000 0.3930
14.993424 0.3850 0.3770 0.3680 0.3580 0.3500
15.027000 0.3420 0.3320 0.3230 0.3150 0.3070
15.060424 0.2990 0.2900 0.2840 0.2770 0.2700
15.094000 0.2640 0.2590 0.2540 0.2450 0.2400
15.127424 0.2370 0.2300 0.2290 0.2250 0.2240
15.160000 0.2200 0.2170 0.2150 0.2140 0.2120
15.193424 0.2120 0.2100 0.2090 0.2070 0.2070
15.227000 0.2070 0.2070 0.2070 0.2090 0.2090
15.260424 0.2100 0.2120 0.2140 0.2170 0.2220
15.294000 0.2270 0.2320 0.2370 0.2420 0.2470
15.327424 0.2500 0.2520 0.2590 0.2650 0.2700
15.361000 0.2770 0.2840 0.2900 0.2950 0.3020
15.394424 0.3070 0.3120 0.3180 0.3220 0.3280
15.428000 0.3330 0.3370 0.3420 0.3470 0.3500
15.461424 0.3530 0.3580 0.3620 0.3650 0.3680
15.494000 0.3720 0.3750 0.3800 0.3820 0.3850
15.527424 0.3880 0.3920 0.3950 0.3980 0.4010
15.561000 0.4030 0.4050 0.4050 0.4060 0.4060
15.594424 0.4080 0.4080 0.4100 0.4110 0.4130
15.628000 0.4150 0.4160 0.4160 0.4160 0.4180
15.661424 0.4180 0.4180 0.4180 0.4180 0.4180
15.695000 0.4180 0.4180 0.4180 0.4180 0.4180
15.728424 0.4180 0.4180 0.4180 0.4180 0.4180
15.762000 0.4180 0.4180 0.4180 0.4180 0.4180
15.795424 0.4180 0.4180 0.4180 0.4180 0.4180
15.829000 0.4180 0.4180 0.4160 0.4160 0.4160
15.862424 0.4160 0.4160
##END=
