##TITLE=Imidazole, 1-methyl-
##JCAMP-DX=4.24
##DATA TYPE=INFRARED SPECTRUM
##CLASS=COBLENTZ III
##ORIGIN=DOW CHEMICAL COMPANY
##OWNER=Copyright (C) 1987 by the Coblentz Society
Collection (C) 2018 copyright by the U.S. Secretary of Commerce
on behalf of the United States of America. All rights reserved.
##DATE=1965/08/19
##NAMES=1-methyl-1H-imidazole
##CAS REGISTRY NO=616-47-7
##MOLFORM=C4 H6 N2
##SOURCE REFERENCE=COBLENTZ NO. 8195
##$NIST SOURCE=COBLENTZ
##$NIST IMAGE=cob8195
##SPECTROMETER/DATA SYSTEM=DOW KBr FOREPRISM-GRATING
##INSTRUMENT PARAMETERS=BLAZED AT 3.5, 12.0, 20.0 MICRON AND CHANGED AT 5.0, 7.5, 14.9 MICRON
##STATE=LIQUID (NEAT)
##PATH LENGTH=CAPILLARY
$$SPECTRAL CONTAMINATION DUE TO H2O 3400 CM^-^1
##SAMPLING PROCEDURE=TRANSMISSION
##RESOLUTION=2
##DATA PROCESSING=DIGITIZED BY COBLENTZ SOCIETY (BATCH II) FROM HARD COPY
##XUNITS=1/CM
##YUNITS=TRANSMITTANCE
##XFACTOR=1.0
##YFACTOR=1
##FIRSTX=460
##LASTX=3804
##FIRSTY=0.7687
##MAXX=3804
##MINX=460
##MAXY=0.9172
##MINY=0.1148
##NPOINTS=3345
##XYDATA=(X++(Y..Y))
460.000000 0.7687 0.7691 0.7695 0.7699 0.7702
465.000000 0.7706 0.7709 0.7713 0.7717 0.7720
470.000000 0.7724 0.7727 0.7731 0.7735 0.7739
475.000000 0.7743 0.7747 0.7750 0.7754 0.7758
480.000000 0.7762 0.7768 0.7775 0.7781 0.7787
485.000000 0.7793 0.7799 0.7805 0.7811 0.7815
490.000000 0.7819 0.7823 0.7828 0.7832 0.7836
495.000000 0.7840 0.7843 0.7844 0.7844 0.7844
500.000000 0.7844 0.7844 0.7844 0.7845 0.7845
505.000000 0.7845 0.7845 0.7845 0.7846 0.7843
510.000000 0.7840 0.7837 0.7834 0.7831 0.7828
515.000000 0.7825 0.7822 0.7819 0.7816 0.7813
520.000000 0.7810 0.7809 0.7807 0.7805 0.7804
525.000000 0.7802 0.7800 0.7799 0.7797 0.7795
530.000000 0.7794 0.7796 0.7798 0.7801 0.7803
535.000000 0.7805 0.7808 0.7810 0.7812 0.7815
540.000000 0.7817 0.7820 0.7824 0.7828 0.7832
545.000000 0.7835 0.7839 0.7843 0.7816 0.7851
550.000000 0.7855 0.7859 0.7864 0.7869 0.7874
555.000000 0.7878 0.7883 0.7888 0.7892 0.7897
560.000000 0.7899 0.7902 0.7904 0.7907 0.7909
565.000000 0.7912 0.7914 0.7917 0.7920 0.7922
570.000000 0.7925 0.7929 0.7933 0.7937 0.7941
575.000000 0.7945 0.7948 0.7952 0.7956 0.7959
580.000000 0.7961 0.7963 0.7965 0.7967 0.7968
585.000000 0.7970 0.7972 0.7974 0.7975 0.7976
590.000000 0.7976 0.7976 0.7976 0.7976 0.7977
595.000000 0.7977 0.7977 0.7977 0.7977 0.7978
600.000000 0.7978 0.7977 0.7973 0.7969 0.7960
605.000000 0.7951 0.7941 0.7931 0.7903 0.7874
610.000000 0.7845 0.7799 0.7707 0.7605 0.7492
615.000000 0.7335 0.6785 0.6098 0.5411 0.4724
620.000000 0.4328 0.4356 0.4380 0.4917 0.5455
625.000000 0.5992 0.6529 0.7066 0.7466 0.7731
630.000000 0.7922 0.7973 0.7991 0.8006 0.8019
635.000000 0.8024 0.8030 0.8035 0.8041 0.8042
640.000000 0.8044 0.8044 0.8043 0.8034 0.8039
645.000000 0.8033 0.8028 0.8022 0.8015 0.8007
650.000000 0.7996 0.7976 0.7914 0.7846 0.7770
655.000000 0.7705 0.7640 0.7571 0.7488 0.7221
660.000000 0.7071 0.6317 0.5427 0.4536 0.3645
665.000000 0.2755 0.2124 0.2070 0.2075 0.2087
670.000000 0.3044 0.4175 0.5307 0.6010 0.6276
675.000000 0.6517 0.6689 0.6852 0.7087 0.7682
680.000000 0.7916 0.7970 0.8014 0.8043 0.8073
685.000000 0.8103 0.8133 0.8164 0.8191 0.8208
690.000000 0.8225 0.8237 0.8239 0.8242 0.8244
695.000000 0.8242 0.8239 0.8236 0.8234 0.8232
700.000000 0.8253 0.8226 0.8222 0.8216 0.8210
705.000000 0.8204 0.8198 0.8188 0.8174 0.8160
710.000000 0.8136 0.8113 0.8089 0.8057 0.8025
715.000000 0.7993 0.7954 0.7907 0.7834 0.7758
720.000000 0.7688 0.7577 0.7457 0.7354 0.7189
725.000000 0.6986 0.6783 0.6580 0.6378 0.6175
730.000000 0.5972 0.5769 0.5566 0.5363 0.5097
735.000000 0.4940 0.4844 0.4759 0.4670 0.4579
740.000000 0.4520 0.4497 0.4498 0.4482 0.4527
745.000000 0.4557 0.4595 0.4681 0.4761 0.4852
750.000000 0.4944 0.5036 0.5127 0.5219 0.5310
755.000000 0.5402 0.5494 0.5585 0.5677 0.5768
760.000000 0.5860 0.5952 0.6043 0.6135 0.6226
765.000000 0.6318 0.6410 0.6501 0.6593 0.6684
770.000000 0.6776 0.6867 0.6983 0.7089 0.7181
775.000000 0.7251 0.7321 0.7386 0.7451 0.7507
780.000000 0.7560 0.7614 0.7663 0.7690 0.7718
785.000000 0.7746 0.7774 0.7792 0.7810 0.7829
790.000000 0.7847 0.7860 0.7849 0.7838 0.7807
795.000000 0.7782 0.7757 0.7721 0.7680 0.7589
800.000000 0.7432 0.7275 0.7118 0.6960 0.6803
805.000000 0.6646 0.6489 0.6332 0.6175 0.6018
810.000000 0.5861 0.5704 0.5547 0.5390 0.5233
815.000000 0.5107 0.5037 0.4950 0.4882 0.4869
820.000000 0.4876 0.4872 0.4917 0.5003 0.5091
825.000000 0.5179 0.5267 0.5355 0.5442 0.5530
830.000000 0.5618 0.5706 0.5794 0.5881 0.5970
835.000000 0.6157 0.6285 0.6418 0.6548 0.6675
840.000000 0.6745 0.6809 0.6872 0.6933 0.6976
845.000000 0.7018 0.7061 0.7103 0.7149 0.7194
850.000000 0.7239 0.7285 0.7330 0.7375 0.7421
855.000000 0.7467 0.7512 0.7556 0.7600 0.7643
860.000000 0.7687 0.7733 0.7778 0.7823 0.7869
865.000000 0.7910 0.7943 0.7975 0.8008 0.8041
870.000000 0.8071 0.8098 0.8126 0.8153 0.8180
875.000000 0.8201 0.8220 0.8238 0.8257 0.8275
880.000000 0.8291 0.8301 0.8312 0.8323 0.8334
885.000000 0.8345 0.8349 0.8351 0.8354 0.8351
890.000000 0.8362 0.8343 0.8330 0.8316 0.8301
895.000000 0.8285 0.8253 0.8201 0.8113 0.7990
900.000000 0.7647 0.6877 0.6107 0.5338 0.4568
905.000000 0.3798 0.3324 0.3321 0.3318 0.4326
910.000000 0.5289 0.6253 0.6875 0.6915 0.6968
915.000000 0.7061 0.7564 0.7763 0.7925 0.8300
920.000000 0.8419 0.8492 0.8528 0.8561 0.8581
925.000000 0.8601 0.8621 0.8639 0.8651 0.8663
930.000000 0.8674 0.8686 0.8693 0.8700 0.8707
935.000000 0.8715 0.8722 0.8729 0.8736 0.8743
940.000000 0.8750 0.8757 0.8763 0.8770 0.8772
945.000000 0.8774 0.8776 0.8778 0.8780 0.8782
950.000000 0.8784 0.8786 0.8787 0.8788 0.8790
955.000000 0.8791 0.8792 0.8793 0.8795 0.8796
960.000000 0.8797 0.8798 0.8770 0.8798 0.8797
965.000000 0.8796 0.8795 0.8794 0.8793 0.8792
970.000000 0.8791 0.8790 0.8789 0.8788 0.8787
975.000000 0.8786 0.8785 0.8784 0.8783 0.8782
980.000000 0.8781 0.8780 0.8779 0.8778 0.8776
985.000000 0.8775 0.8773 0.8772 0.8770 0.8769
990.000000 0.8767 0.8766 0.8764 0.8759 0.8754
995.000000 0.8749 0.8744 0.8738 0.8733 0.8728
1000.000000 0.8721 0.8711 0.8701 0.8690 0.8680
1005.000000 0.8670 0.8660 0.8645 0.8629 0.8614
1010.000000 0.8598 0.8583 0.8563 0.8539 0.8515
1015.000000 0.8491 0.8451 0.8403 0.8355 0.8281
1020.000000 0.8183 0.8088 0.7996 0.7888 0.7505
1025.000000 0.7113 0.6720 0.6328 0.6288 0.6337
1030.000000 0.6817 0.7297 0.7777 0.8229 0.8267
1035.000000 0.8292 0.8314 0.8330 0.8342 0.8356
1040.000000 0.8349 0.8351 0.8351 0.8348 0.8344
1045.000000 0.8333 0.8322 0.8305 0.8280 0.8253
1050.000000 0.8222 0.8187 0.8146 0.8105 0.8052
1055.000000 0.7991 0.7926 0.7850 0.7774 0.7681
1060.000000 0.7589 0.7439 0.7290 0.7184 0.7075
1065.000000 0.6788 0.6638 0.6488 0.6335 0.6182
1070.000000 0.5827 0.5379 0.4938 0.4498 0.4057
1075.000000 0.3617 0.3460 0.3453 0.3430 0.3449
1080.000000 0.3653 0.3971 0.4289 0.4607 0.4925
1085.000000 0.5243 0.5561 0.5879 0.6197 0.6514
1090.000000 0.6832 0.7053 0.7197 0.7293 0.7342
1095.000000 0.7368 0.7379 0.7372 0.7373 0.7086
1100.000000 0.6741 0.6395 0.6050 0.5704 0.5359
1105.000000 0.5013 0.4668 0.4322 0.4047 0.4034
1110.000000 0.4036 0.4568 0.5030 0.5492 0.5955
1115.000000 0.6417 0.6879 0.7341 0.7706 0.7831
1120.000000 0.7972 0.8098 0.8197 0.8268 0.8300
1125.000000 0.8318 0.8337 0.8355 0.8372 0.8386
1130.000000 0.8399 0.8413 0.8426 0.8435 0.8441
1135.000000 0.8447 0.8452 0.8458 0.8465 0.8472
1140.000000 0.8479 0.8486 0.8494 0.8511 0.8528
1145.000000 0.8543 0.8553 0.8563 0.8571 0.8578
1150.000000 0.8586 0.8593 0.8601 0.8607 0.8611
1155.000000 0.8616 0.8620 0.8625 0.8629 0.8634
1160.000000 0.8638 0.8643 0.8645 0.8647 0.8649
1165.000000 0.8651 0.8653 0.8658 0.8658 0.8655
1170.000000 0.8650 0.8645 0.8639 0.8634 0.8622
1175.000000 0.8602 0.8577 0.8563 0.8556 0.8564
1180.000000 0.8584 0.8609 0.8630 0.8648 0.8664
1185.000000 0.8678 0.8683 0.8681 0.8678 0.8675
1190.000000 0.8669 0.8664 0.8658 0.8653 0.8645
1195.000000 0.8637 0.8629 0.8622 0.8613 0.8601
1200.000000 0.8589 0.8577 0.8565 0.8549 0.8532
1205.000000 0.8515 0.8497 0.8475 0.8454 0.8432
1210.000000 0.8404 0.8360 0.8306 0.8236 0.8165
1215.000000 0.8102 0.8040 0.7978 0.7916 0.7734
1220.000000 0.7503 0.7212 0.7044 0.6875 0.6707
1225.000000 0.5402 0.4669 0.3936 0.3203 0.2636
1230.000000 0.2572 0.2595 0.2579 0.2699 0.3085
1235.000000 0.3471 0.3857 0.4244 0.4630 0.5016
1240.000000 0.5402 0.5788 0.6175 0.6577 0.6865
1245.000000 0.7094 0.7246 0.7557 0.7706 0.7855
1250.000000 0.7972 0.8058 0.8081 0.8104 0.8122
1255.000000 0.8137 0.8151 0.8160 0.8168 0.8175
1260.000000 0.8183 0.8189 0.8196 0.8198 0.8194
1265.000000 0.8211 0.8182 0.8168 0.8143 0.8094
1270.000000 0.8038 0.7973 0.7891 0.7800 0.7711
1275.000000 0.7623 0.7535 0.7323 0.7149 0.6731
1280.000000 0.6225 0.5719 0.5214 0.4708 0.4202
1285.000000 0.3957 0.3926 0.3932 0.4355 0.5047
1290.000000 0.5740 0.6432 0.7125 0.7482 0.7567
1295.000000 0.7821 0.8051 0.8148 0.8211 0.8260
1300.000000 0.8290 0.8320 0.8343 0.8365 0.8376
1305.000000 0.8384 0.8392 0.8397 0.8401 0.8406
1310.000000 0.8411 0.8416 0.8420 0.8419 0.8450
1315.000000 0.8415 0.8406 0.8397 0.8387 0.8377
1320.000000 0.8368 0.8357 0.8334 0.8312 0.8289
1325.000000 0.8271 0.8253 0.8241 0.8231 0.8285
1330.000000 0.8339 0.8363 0.8369 0.8376 0.8382
1335.000000 0.8388 0.8393 0.8399 0.8405 0.8410
1340.000000 0.8413 0.8416 0.8418 0.8413 0.8399
1345.000000 0.8324 0.8250 0.8181 0.8109 0.8027
1350.000000 0.7947 0.7875 0.7807 0.7750 0.7701
1355.000000 0.7658 0.7615 0.7572 0.7527 0.7495
1360.000000 0.7487 0.7484 0.7498 0.7537 0.7637
1365.000000 0.7734 0.7880 0.7951 0.8022 0.8075
1370.000000 0.8108 0.8119 0.8129 0.8137 0.8143
1375.000000 0.8149 0.8148 0.8147 0.8146 0.8136
1380.000000 0.8123 0.8104 0.8085 0.8074 0.8064
1385.000000 0.8064 0.8083 0.8120 0.8155 0.8190
1390.000000 0.8218 0.8244 0.8251 0.8258 0.8260
1395.000000 0.8253 0.8255 0.8248 0.8226 0.8203
1400.000000 0.8180 0.8157 0.8134 0.8095 0.8055
1405.000000 0.8009 0.7960 0.7895 0.7823 0.7729
1410.000000 0.7636 0.7541 0.7446 0.7284 0.7130
1415.000000 0.6819 0.6563 0.6262 0.5630 0.5086
1420.000000 0.5037 0.5025 0.5031 0.5400 0.5701
1425.000000 0.6003 0.6305 0.6606 0.6908 0.7186
1430.000000 0.7335 0.7417 0.7445 0.7456 0.7463
1435.000000 0.7461 0.7464 0.7418 0.7368 0.7318
1440.000000 0.7274 0.7236 0.7201 0.7166 0.7126
1445.000000 0.7083 0.7041 0.7000 0.6960 0.6920
1450.000000 0.6879 0.6852 0.6831 0.6809 0.6798
1455.000000 0.6786 0.6775 0.6764 0.6750 0.6731
1460.000000 0.6712 0.6692 0.6671 0.6650 0.6630
1465.000000 0.6603 0.6571 0.6540 0.6506 0.6471
1470.000000 0.6451 0.6440 0.6428 0.6422 0.6444
1475.000000 0.6429 0.6438 0.6447 0.6460 0.6474
1480.000000 0.6491 0.6519 0.6547 0.6574 0.6600
1485.000000 0.6608 0.6611 0.6613 0.6632 0.6591
1490.000000 0.6576 0.6557 0.6537 0.6495 0.6460
1495.000000 0.6430 0.6395 0.6313 0.6233 0.6093
1500.000000 0.5739 0.5386 0.5033 0.4679 0.4326
1505.000000 0.4016 0.3890 0.3782 0.3679 0.3598
1510.000000 0.3516 0.3358 0.2942 0.2510 0.2079
1515.000000 0.1647 0.1215 0.1176 0.1203 0.1148
1520.000000 0.1223 0.1546 0.1869 0.2192 0.2515
1525.000000 0.3313 0.3787 0.4260 0.4733 0.5206
1530.000000 0.5674 0.5849 0.6259 0.6473 0.6825
1535.000000 0.7151 0.7227 0.7303 0.7398 0.7568
1540.000000 0.7590 0.7602 0.7613 0.7625 0.7634
1545.000000 0.7654 0.7673 0.7693 0.7712 0.7731
1550.000000 0.7745 0.7758 0.7767 0.7764 0.7761
1555.000000 0.7758 0.7765 0.7751 0.7746 0.7740
1560.000000 0.7734 0.7728 0.7722 0.7714 0.7706
1565.000000 0.7698 0.7691 0.7686 0.7681 0.7675
1570.000000 0.7670 0.7665 0.7660 0.7654 0.7649
1575.000000 0.7644 0.7638 0.7632 0.7626 0.7620
1580.000000 0.7615 0.7612 0.7609 0.7606 0.7603
1585.000000 0.7605 0.7606 0.7608 0.7610 0.7614
1590.000000 0.7619 0.7624 0.7630 0.7635 0.7640
1595.000000 0.7646 0.7651 0.7658 0.7664 0.7671
1600.000000 0.7677 0.7684 0.7693 0.7701 0.7710
1605.000000 0.7718 0.7727 0.7733 0.7739 0.7744
1610.000000 0.7750 0.7753 0.7757 0.7760 0.7763
1615.000000 0.7767 0.7770 0.7774 0.7777 0.7779
1620.000000 0.7781 0.7783 0.7786 0.7788 0.7790
1625.000000 0.7792 0.7794 0.7797 0.7798 0.7800
1630.000000 0.7801 0.7802 0.7804 0.7805 0.7807
1635.000000 0.7808 0.7810 0.7810 0.7811 0.7812
1640.000000 0.7813 0.7814 0.7815 0.7815 0.7816
1645.000000 0.7817 0.7818 0.7819 0.7818 0.7815
1650.000000 0.7813 0.7810 0.7808 0.7805 0.7803
1655.000000 0.7800 0.7797 0.7790 0.7784 0.7777
1660.000000 0.7771 0.7763 0.7751 0.7739 0.7726
1665.000000 0.7714 0.7701 0.7689 0.7676 0.7662
1670.000000 0.7649 0.7635 0.7621 0.7610 0.7604
1675.000000 0.7597 0.7591 0.7594 0.7592 0.7601
1680.000000 0.7612 0.7628 0.7648 0.7670 0.7692
1685.000000 0.7721 0.7747 0.7770 0.7794 0.7817
1690.000000 0.7841 0.7862 0.7884 0.7905 0.7927
1695.000000 0.7948 0.7971 0.7995 0.8018 0.8042
1700.000000 0.8065 0.8083 0.8100 0.8118 0.8135
1705.000000 0.8152 0.8170 0.8187 0.8205 0.8222
1710.000000 0.8240 0.8258 0.8275 0.8289 0.8303
1715.000000 0.8317 0.8330 0.8344 0.8358 0.8372
1720.000000 0.8386 0.8399 0.8413 0.8427 0.8441
1725.000000 0.8454 0.8468 0.8480 0.8490 0.8500
1730.000000 0.8510 0.8520 0.8526 0.8531 0.8537
1735.000000 0.8543 0.8549 0.8554 0.8560 0.8566
1740.000000 0.8572 0.8578 0.8583 0.8589 0.8594
1745.000000 0.8600 0.8606 0.8611 0.8617 0.8622
1750.000000 0.8628 0.8633 0.8639 0.8645 0.8650
1755.000000 0.8656 0.8662 0.8668 0.8673 0.8679
1760.000000 0.8685 0.8690 0.8696 0.8702 0.8706
1765.000000 0.8709 0.8713 0.8716 0.8720 0.8723
1770.000000 0.8726 0.8730 0.8733 0.8736 0.8739
1775.000000 0.8743 0.8746 0.8749 0.8753 0.8756
1780.000000 0.8759 0.8763 0.8766 0.8767 0.8768
1785.000000 0.8768 0.8769 0.8769 0.8770 0.8770
1790.000000 0.8770 0.8771 0.8771 0.8772 0.8772
1795.000000 0.8773 0.8774 0.8777 0.8779 0.8782
1800.000000 0.8785 0.8787 0.8790 0.8793 0.8795
1805.000000 0.8798 0.8800 0.8803 0.8806 0.8808
1810.000000 0.8811 0.8814 0.8818 0.8822 0.8825
1815.000000 0.8827 0.8828 0.8829 0.8831 0.8832
1820.000000 0.8834 0.8835 0.8836 0.8838 0.8839
1825.000000 0.8840 0.8842 0.8843 0.8845 0.8847
1830.000000 0.8849 0.8850 0.8852 0.8854 0.8856
1835.000000 0.8857 0.8859 0.8861 0.8862 0.8864
1840.000000 0.8866 0.8867 0.8869 0.8871 0.8872
1845.000000 0.8874 0.8876 0.8877 0.8879 0.8879
1850.000000 0.8879 0.8879 0.8879 0.8879 0.8879
1855.000000 0.8879 0.8879 0.8879 0.8879 0.8879
1860.000000 0.8879 0.8879 0.8879 0.8879 0.8879
1865.000000 0.8878 0.8877 0.8876 0.8876 0.8875
1870.000000 0.8874 0.8873 0.8872 0.8871 0.8870
1875.000000 0.8869 0.8869 0.8868 0.8867 0.8866
1880.000000 0.8865 0.8864 0.8863 0.8863 0.8864
1885.000000 0.8864 0.8864 0.8864 0.8864 0.8865
1890.000000 0.8865 0.8865 0.8865 0.8865 0.8865
1895.000000 0.8867 0.8870 0.8872 0.8873 0.8872
1900.000000 0.8870 0.8868 0.8867 0.8865 0.8863
1905.000000 0.8862 0.8860 0.8860 0.8859 0.8858
1910.000000 0.8858 0.8857 0.8857 0.8856 0.8855
1915.000000 0.8855 0.8854 0.8854 0.8853 0.8852
1920.000000 0.8852 0.8850 0.8849 0.8848 0.8847
1925.000000 0.8845 0.8844 0.8843 0.8841 0.8840
1930.000000 0.8839 0.8837 0.8836 0.8835 0.8833
1935.000000 0.8832 0.8829 0.8825 0.8822 0.8818
1940.000000 0.8814 0.8811 0.8807 0.8804 0.8800
1945.000000 0.8797 0.8793 0.8796 0.8799 0.8802
1950.000000 0.8805 0.8803 0.8801 0.8799 0.8768
1955.000000 0.8726 0.8664 0.8635 0.8642 0.8674
1960.000000 0.8733 0.8792 0.8832 0.8836 0.8841
1965.000000 0.8845 0.8845 0.8845 0.8845 0.8846
1970.000000 0.8846 0.8846 0.8846 0.8846 0.8847
1975.000000 0.8848 0.8849 0.8850 0.8852 0.8853
1980.000000 0.8854 0.8856 0.8857 0.8859 0.8860
1985.000000 0.8863 0.8866 0.8868 0.8871 0.8874
1990.000000 0.8878 0.8902 0.8955 0.9009 0.9063
1995.000000 0.9111 0.9111 0.9111 0.9112 0.9112
2000.000000 0.9111 0.9110 0.9105 0.9107 0.9106
2005.000000 0.9104 0.9103 0.9101 0.9100 0.9099
2010.000000 0.9098 0.9096 0.9095 0.9093 0.9092
2015.000000 0.9090 0.9089 0.9087 0.9086 0.9085
2020.000000 0.9085 0.9085 0.9086 0.9086 0.9087
2025.000000 0.9087 0.9088 0.9089 0.9090 0.9090
2030.000000 0.9091 0.9091 0.9092 0.9093 0.9094
2035.000000 0.9095 0.9096 0.9097 0.9098 0.9099
2040.000000 0.9100 0.9101 0.9102 0.9103 0.9104
2045.000000 0.9105 0.9106 0.9107 0.9109 0.9110
2050.000000 0.9111 0.9112 0.9113 0.9113 0.9114
2055.000000 0.9114 0.9114 0.9114 0.9115 0.9115
2060.000000 0.9115 0.9115 0.9116 0.9116 0.9116
2065.000000 0.9116 0.9117 0.9117 0.9118 0.9118
2070.000000 0.9118 0.9118 0.9119 0.9119 0.9119
2075.000000 0.9119 0.9120 0.9120 0.9121 0.9121
2080.000000 0.9121 0.9121 0.9122 0.9122 0.9122
2085.000000 0.9122 0.9123 0.9123 0.9124 0.9123
2090.000000 0.9123 0.9123 0.9123 0.9122 0.9122
2095.000000 0.9121 0.9121 0.9120 0.9120 0.9119
2100.000000 0.9119 0.9118 0.9118 0.9117 0.9116
2105.000000 0.9114 0.9112 0.9110 0.9109 0.9107
2110.000000 0.9105 0.9103 0.9102 0.9100 0.9098
2115.000000 0.9096 0.9095 0.9093 0.9091 0.9088
2120.000000 0.9086 0.9084 0.9082 0.9079 0.9077
2125.000000 0.9074 0.9072 0.9070 0.9068 0.9065
2130.000000 0.9062 0.9059 0.9056 0.9053 0.9051
2135.000000 0.9048 0.9045 0.9042 0.9040 0.9037
2140.000000 0.9034 0.9030 0.9027 0.9022 0.9018
2145.000000 0.9013 0.9009 0.9006 0.9003 0.9000
2150.000000 0.8998 0.8995 0.8993 0.8990 0.8988
2155.000000 0.8986 0.8985 0.8985 0.8985 0.8985
2160.000000 0.8985 0.8985 0.8985 0.8985 0.8986
2165.000000 0.8986 0.8987 0.8988 0.8989 0.8990
2170.000000 0.8991 0.8991 0.8992 0.8993 0.8994
2175.000000 0.8995 0.8996 0.8996 0.8997 0.8998
2180.000000 0.9000 0.9001 0.9003 0.9004 0.9006
2185.000000 0.9007 0.9008 0.9009 0.9011 0.9012
2190.000000 0.9014 0.9015 0.9017 0.9018 0.9020
2195.000000 0.9021 0.9023 0.9024 0.9026 0.9027
2200.000000 0.9029 0.9030 0.9032 0.9033 0.9035
2205.000000 0.9036 0.9038 0.9039 0.9041 0.9042
2210.000000 0.9044 0.9045 0.9047 0.9048 0.9050
2215.000000 0.9051 0.9053 0.9054 0.9056 0.9057
2220.000000 0.9059 0.9060 0.9062 0.9063 0.9065
2225.000000 0.9066 0.9068 0.9069 0.9071 0.9073
2230.000000 0.9075 0.9077 0.9079 0.9081 0.9084
2235.000000 0.9086 0.9088 0.9090 0.9093 0.9094
2240.000000 0.9095 0.9096 0.9098 0.9099 0.9100
2245.000000 0.9101 0.9103 0.9104 0.9105 0.9106
2250.000000 0.9107 0.9107 0.9108 0.9106 0.9104
2255.000000 0.9102 0.9101 0.9099 0.9098 0.9096
2260.000000 0.9095 0.9096 0.9098 0.9100 0.9103
2265.000000 0.9105 0.9108 0.9110 0.9113 0.9117
2270.000000 0.9122 0.9124 0.9127 0.9130 0.9133
2275.000000 0.9135 0.9137 0.9137 0.9137 0.9137
2280.000000 0.9138 0.9138 0.9138 0.9137 0.9137
2285.000000 0.9135 0.9133 0.9130 0.9128 0.9121
2290.000000 0.9115 0.9108 0.9102 0.9096 0.9091
2295.000000 0.9085 0.9080 0.9074 0.9069 0.9064
2300.000000 0.9060 0.9055 0.9051 0.9046 0.9042
2305.000000 0.9035 0.9029 0.9023 0.9017 0.9010
2310.000000 0.9004 0.9002 0.9001 0.9003 0.9005
2315.000000 0.9009 0.9014 0.9046 0.9079 0.9109
2320.000000 0.9140 0.9154 0.9168 0.9169 0.9170
2325.000000 0.9171 0.9172 0.9169 0.9167 0.9165
2330.000000 0.9163 0.9161 0.9159 0.9157 0.9155
2335.000000 0.9153 0.9151 0.9149 0.9147 0.9145
2340.000000 0.9143 0.9140 0.9138 0.9136 0.9134
2345.000000 0.9132 0.9130 0.9127 0.9125 0.9122
2350.000000 0.9120 0.9117 0.9115 0.9112 0.9110
2355.000000 0.9107 0.9104 0.9101 0.9099 0.9096
2360.000000 0.9094 0.9091 0.9089 0.9086 0.9084
2365.000000 0.9082 0.9080 0.9078 0.9076 0.9074
2370.000000 0.9073 0.9071 0.9069 0.9067 0.9066
2375.000000 0.9064 0.9063 0.9061 0.9059 0.9057
2380.000000 0.9056 0.9054 0.9052 0.9050 0.9048
2385.000000 0.9045 0.9043 0.9041 0.9039 0.9037
2390.000000 0.9035 0.9033 0.9031 0.9029 0.9027
2395.000000 0.9025 0.9023 0.9021 0.9020 0.9018
2400.000000 0.9017 0.9015 0.9013 0.9011 0.9010
2405.000000 0.9008 0.9007 0.9005 0.9003 0.9001
2410.000000 0.9000 0.8998 0.8997 0.8995 0.8993
2415.000000 0.8991 0.8990 0.8988 0.8987 0.8985
2420.000000 0.8984 0.8982 0.8980 0.8978 0.8977
2425.000000 0.8975 0.8974 0.8971 0.8969 0.8965
2430.000000 0.8962 0.8959 0.8956 0.8953 0.8950
2435.000000 0.8945 0.8941 0.8936 0.8931 0.8925
2440.000000 0.8920 0.8915 0.8910 0.8904 0.8899
2445.000000 0.8893 0.8887 0.8880 0.8874 0.8867
2450.000000 0.8861 0.8855 0.8849 0.8844 0.8840
2455.000000 0.8838 0.8837 0.8835 0.8834 0.8832
2460.000000 0.8831 0.8830 0.8829 0.8828 0.8827
2465.000000 0.8829 0.8832 0.8835 0.8838 0.8842
2470.000000 0.8846 0.8851 0.8856 0.8862 0.8868
2475.000000 0.8874 0.8881 0.8887 0.8894 0.8898
2480.000000 0.8903 0.8906 0.8909 0.8912 0.8915
