##TITLE=GLYCERYL DICHLOROHYDRIN
##JCAMP-DX=4.24
##DATA TYPE=INFRARED SPECTRUM
##CLASS=COBLENTZ
##ORIGIN=DOW CHEMICAL COMPANY
##OWNER=COBLENTZ SOCIETY
Collection (C) 2018 copyright by the U.S. Secretary of Commerce
on behalf of the United States of America. All rights reserved.
##DATE=1960
##NAMES=2,3-dichloro-1-propanol
##CAS REGISTRY NO=616-23-9
##MOLFORM=C3 H6 Cl2 O
##SOURCE REFERENCE=COBLENTZ NO. 947
##$NIST SOURCE=COBLENTZ
##$NIST IMAGE=cob947
##SPECTROMETER/DATA SYSTEM=Not specified, most likely a prism, grating, or hybrid spectrometer.
##STATE=SOLUTION (10% CCl4 FOR 2.5-7.5, 10% CS2 FOR 7.5-16 MICRON)
##PATH LENGTH=0.01 CM, 0.01 CM
$$SPECTRAL CONTAMINATION DUE CCl4 AROUND 1550 CM^-^1
##SAMPLING PROCEDURE=TRANSMISSION
##RESOLUTION=4
##DATA PROCESSING=DIGITIZED BY NIST FROM HARD COPY
##XUNITS=MICROMETERS
##YUNITS=TRANSMITTANCE
##XFACTOR=1.000000
##YFACTOR=1
##DELTAX=000.006680
##FIRSTX=2.013
##LASTX=15.929
##FIRSTY=0.852
##MAXX=15.929
##MINX=2.013
##MAXY=0.971
##MINY=0.201
##NPOINTS=2084
##XYDATA=(X++(Y..Y))
2.013000 0.8520 0.8520 0.8520 0.8520 0.8520
2.046418 0.8520 0.8520 0.8520 0.8520 0.8520
2.080000 0.8540 0.8540 0.8540 0.8540 0.8540
2.113418 0.8550 0.8570 0.8570 0.8590 0.8600
2.147000 0.8600 0.8640 0.8640 0.8640 0.8640
2.180418 0.8640 0.8620 0.8570 0.8550 0.8540
2.214000 0.8520 0.8500 0.8500 0.8500 0.8520
2.247418 0.8540 0.8540 0.8590 0.8600 0.8620
2.281000 0.8640 0.8650 0.8650 0.8650 0.8640
2.314418 0.8640 0.8640 0.8640 0.8640 0.8640
2.347000 0.8640 0.8640 0.8640 0.8650 0.8670
2.380418 0.8690 0.8690 0.8700 0.8720 0.8720
2.414000 0.8720 0.8720 0.8720 0.8720 0.8720
2.447418 0.8720 0.8740 0.8740 0.8740 0.8740
2.481000 0.8740 0.8720 0.8720 0.8740 0.8740
2.514418 0.8740 0.8740 0.8740 0.8750 0.8750
2.548000 0.8770 0.8750 0.8770 0.8770 0.8790
2.581418 0.8800 0.8800 0.8800 0.8800 0.8800
2.615000 0.8800 0.8800 0.8800 0.8790 0.8740
2.648418 0.8740 0.8670 0.8600 0.8500 0.8420
2.681000 0.8310 0.8220 0.8040 0.7980 0.7780
2.714418 0.7410 0.7130 0.6730 0.6400 0.5920
2.748000 0.5640 0.5490 0.5460 0.5480 0.5490
2.781418 0.5540 0.5670 0.5810 0.5920 0.5970
2.815000 0.5890 0.5660 0.5280 0.5030 0.4910
2.848418 0.4800 0.4700 0.4580 0.4530 0.4500
2.882000 0.4450 0.4430 0.4330 0.4300 0.4280
2.915418 0.4230 0.4220 0.4230 0.4250 0.4280
2.949000 0.4330 0.4430 0.4500 0.4580 0.4700
2.982418 0.4810 0.4960 0.5190 0.5330 0.5510
3.015000 0.5660 0.5820 0.5990 0.6090 0.6200
3.048418 0.6390 0.6520 0.6700 0.6820 0.7010
3.082000 0.7080 0.7200 0.7310 0.7480 0.7530
3.115418 0.7630 0.7730 0.7910 0.8010 0.8110
3.149000 0.8120 0.8140 0.8210 0.8240 0.8290
3.182418 0.8360 0.8420 0.8460 0.8490 0.8500
3.216000 0.8500 0.8520 0.8540 0.8550 0.8570
3.249418 0.8600 0.8640 0.8690 0.8690 0.8690
3.283000 0.8640 0.8620 0.8540 0.8490 0.8340
3.316418 0.8220 0.7990 0.7590 0.7130 0.6700
3.349000 0.6320 0.5990 0.5910 0.5860 0.5910
3.382418 0.6050 0.6300 0.6520 0.6750 0.7010
3.416000 0.7400 0.7400 0.7280 0.7130 0.7080
3.449418 0.7050 0.7080 0.7310 0.7430 0.7580
3.483000 0.7990 0.8240 0.8420 0.8440 0.8490
3.516418 0.8520 0.8540 0.8620 0.8690 0.8740
3.550000 0.8750 0.8800 0.8800 0.8840 0.8850
3.583418 0.8850 0.8850 0.8850 0.8850 0.8850
3.617000 0.8850 0.8850 0.8850 0.8850 0.8870
3.650418 0.8900 0.8950 0.8990 0.9020 0.9030
3.683000 0.9050 0.9070 0.9080 0.9080 0.9080
3.716418 0.9080 0.9100 0.9100 0.9100 0.9100
3.750000 0.9100 0.9100 0.9120 0.9120 0.9120
3.783418 0.9130 0.9130 0.9130 0.9130 0.9150
3.817000 0.9170 0.9180 0.9200 0.9200 0.9220
3.850418 0.9230 0.9230 0.9230 0.9230 0.9230
3.884000 0.9250 0.9250 0.9250 0.9250 0.9250
3.917418 0.9250 0.9250 0.9250 0.9270 0.9280
3.951000 0.9300 0.9300 0.9300 0.9300 0.9320
3.984418 0.9330 0.9350 0.9370 0.9370 0.9380
4.017000 0.9400 0.9420 0.9420 0.9420 0.9420
4.050418 0.9420 0.9420 0.9420 0.9420 0.9420
4.084000 0.9430 0.9450 0.9450 0.9450 0.9450
4.117418 0.9450 0.9470 0.9470 0.9470 0.9470
4.151000 0.9500 0.9500 0.9500 0.9500 0.9500
4.184418 0.9500 0.9500 0.9500 0.9500 0.9480
4.218000 0.9480 0.9470 0.9470 0.9450 0.9450
4.251418 0.9430 0.9420 0.9400 0.9380 0.9380
4.285000 0.9370 0.9370 0.9350 0.9350 0.9350
4.318418 0.9350 0.9370 0.9370 0.9370 0.9370
4.351000 0.9380 0.9400 0.9430 0.9450 0.9450
4.384418 0.9500 0.9500 0.9530 0.9550 0.9560
4.418000 0.9560 0.9580 0.9580 0.9600 0.9600
4.451418 0.9600 0.9610 0.9630 0.9630 0.9630
4.485000 0.9630 0.9630 0.9630 0.9630 0.9630
4.518418 0.9650 0.9650 0.9630 0.9630 0.9630
4.552000 0.9630 0.9630 0.9630 0.9610 0.9610
4.585418 0.9610 0.9610 0.9610 0.9610 0.9610
4.619000 0.9610 0.9610 0.9610 0.9610 0.9630
4.652418 0.9630 0.9630 0.9630 0.9610 0.9610
4.686000 0.9610 0.9600 0.9610 0.9610 0.9610
4.719418 0.9610 0.9600 0.9600 0.9600 0.9560
4.752000 0.9560 0.9560 0.9560 0.9560 0.9560
4.785418 0.9580 0.9580 0.9600 0.9610 0.9610
4.819000 0.9610 0.9610 0.9610 0.9610 0.9610
4.852418 0.9610 0.9610 0.9610 0.9610 0.9610
4.886000 0.9610 0.9610 0.9600 0.9600 0.9600
4.919418 0.9600 0.9600 0.9600 0.9610 0.9610
4.953000 0.9610 0.9610 0.9610 0.9610 0.9630
4.986418 0.9630 0.9630 0.9630 0.9630 0.9630
5.020000 0.9630 0.9630 0.9630 0.9630 0.9630
5.053418 0.9630 0.9630 0.9630 0.9630 0.9630
5.086000 0.9630 0.9630 0.9630 0.9630 0.9630
5.119418 0.9630 0.9630 0.9630 0.9630 0.9630
5.153000 0.9650 0.9650 0.9650 0.9650 0.9650
5.186418 0.9650 0.9650 0.9650 0.9650 0.9660
5.220000 0.9660 0.9660 0.9650 0.9650 0.9650
5.253418 0.9650 0.9650 0.9650 0.9650 0.9650
5.287000 0.9650 0.9650 0.9650 0.9650 0.9650
5.320418 0.9630 0.9610 0.9610 0.9610 0.9610
5.354000 0.9610 0.9610 0.9610 0.9610 0.9610
5.387418 0.9610 0.9630 0.9630 0.9610 0.9610
5.420000 0.9610 0.9610 0.9630 0.9630 0.9610
5.453418 0.9610 0.9630 0.9630 0.9630 0.9630
5.487000 0.9630 0.9630 0.9630 0.9650 0.9650
5.520418 0.9650 0.9650 0.9650 0.9650 0.9650
5.554000 0.9650 0.9650 0.9650 0.9650 0.9650
5.587418 0.9660 0.9700 0.9700 0.9710 0.9710
5.621000 0.9710 0.9710 0.9700 0.9700 0.9680
5.654418 0.9680 0.9660 0.9650 0.9630 0.9610
5.688000 0.9600 0.9580 0.9600 0.9600 0.9580
5.721418 0.9600 0.9610 0.9600 0.9580 0.9560
5.754000 0.9550 0.9550 0.9550 0.9560 0.9550
5.787418 0.9530 0.9530 0.9510 0.9510 0.9450
5.821000 0.9420 0.9370 0.9370 0.9350 0.9350
5.854418 0.9330 0.9270 0.9250 0.9230 0.9220
5.888000 0.9220 0.9220 0.9230 0.9230 0.9250
5.921418 0.9250 0.9270 0.9270 0.9270 0.9320
5.955000 0.9320 0.9320 0.9320 0.9320 0.9320
5.988418 0.9270 0.9250 0.9230 0.9220 0.9200
6.022000 0.9150 0.9050 0.9030 0.9000 0.9000
6.055418 0.8990 0.8970 0.8970 0.8950 0.8940
6.088000 0.8900 0.8820 0.8740 0.8670 0.8640
6.121418 0.8620 0.8550 0.8550 0.8520 0.8460
6.155000 0.8440 0.8370 0.8320 0.8290 0.8260
6.188418 0.8120 0.8020 0.7840 0.7710 0.7660
6.222000 0.7530 0.7430 0.7330 0.7200 0.7050
6.255418 0.7000 0.6900 0.6830 0.6750 0.6730
6.289000 0.6700 0.6650 0.6630 0.6600 0.6550
6.322418 0.6520 0.6400 0.6300 0.6220 0.6140
6.356000 0.6020 0.6000 0.5860 0.5710 0.5560
6.389418 0.5410 0.5330 0.5230 0.5140 0.5110
6.422000 0.5110 0.5090 0.5110 0.5140 0.5210
6.455418 0.5310 0.5520 0.5610 0.5720 0.5920
6.489000 0.6100 0.6240 0.6350 0.6450 0.6550
6.522418 0.6600 0.6650 0.6730 0.6820 0.6870
6.556000 0.6950 0.7030 0.7110 0.7210 0.7300
6.589418 0.7410 0.7450 0.7540 0.7640 0.7830
6.623000 0.7910 0.7940 0.8040 0.8140 0.8160
6.656418 0.8170 0.8220 0.8260 0.8270 0.8340
6.690000 0.8360 0.8420 0.8440 0.8440 0.8460
6.723418 0.8460 0.8460 0.8440 0.8320 0.8110
6.756000 0.8010 0.7810 0.7710 0.7540 0.7380
6.789418 0.7210 0.7100 0.7000 0.6800 0.6630
6.823000 0.6530 0.6450 0.6440 0.6440 0.6420
6.856418 0.6420 0.6400 0.6350 0.6300 0.6170
6.890000 0.6090 0.6020 0.6000 0.5960 0.5940
6.923418 0.5940 0.5970 0.6020 0.6020 0.6100
6.957000 0.6140 0.6200 0.6290 0.6500 0.6550
6.990418 0.6700 0.6880 0.7050 0.7110 0.7160
7.024000 0.7250 0.7260 0.7280 0.7280 0.7280
7.057418 0.7280 0.7260 0.7260 0.7210 0.7130
7.090000 0.7030 0.6920 0.6830 0.6720 0.6630
7.123418 0.6550 0.6420 0.6340 0.6240 0.6200
7.157000 0.6000 0.5990 0.5940 0.5920 0.5870
7.190418 0.5840 0.5820 0.5820 0.5820 0.5840
7.224000 0.5920 0.5960 0.6100 0.6250 0.6400
7.257418 0.6550 0.6700 0.6800 0.6830 0.6850
7.291000 0.6850 0.6850 0.6850 0.6830 0.6800
7.324418 0.6800 0.6820 0.6830 0.6900 0.7000
7.358000 0.7100 0.7180 0.7250 0.7310 0.7330
7.391418 0.7400 0.7460 0.7500 0.7500 0.7500
7.424000 0.7500 0.7480 0.7480 0.7460 0.7430
7.457418 0.7400 0.7400 0.7380 0.7360 0.7350
7.491000 0.7350 0.7330 0.7330 0.7310 0.7310
7.524418 0.7210 0.7110 0.7100 0.7100 0.7130
7.558000 0.7180 0.7230 0.7280 0.7350 0.7380
7.591418 0.7400 0.7410 0.7450 0.7450 0.7450
7.625000 0.7460 0.7460 0.7460 0.7450 0.7450
7.658418 0.7430 0.7360 0.7310 0.7230 0.7150
7.692000 0.7050 0.6900 0.6780 0.6700 0.6630
7.725418 0.6620 0.6620 0.6600 0.6600 0.6580
7.758000 0.6580 0.6580 0.6580 0.6600 0.6620
7.791418 0.6630 0.6670 0.6700 0.6730 0.6770
7.825000 0.6830 0.6880 0.6930 0.7010 0.7030
7.858418 0.7050 0.7110 0.7150 0.7160 0.7210
7.892000 0.7230 0.7230 0.7230 0.7230 0.7210
7.925418 0.7150 0.7050 0.7000 0.6930 0.6870
7.959000 0.6820 0.6800 0.6750 0.6680 0.6670
7.992418 0.6450 0.6400 0.6290 0.6200 0.6140
8.026000 0.6120 0.6050 0.6040 0.6040 0.6040
8.059418 0.6070 0.6090 0.6120 0.6150 0.6150
8.092000 0.6170 0.6150 0.6050 0.6020 0.5910
8.125418 0.5810 0.5710 0.5610 0.5560 0.5540
8.159000 0.5540 0.5610 0.5690 0.5810 0.5920
8.192418 0.6100 0.6290 0.6490 0.6530 0.6700
8.226000 0.6770 0.6820 0.6830 0.6850 0.6870
8.259418 0.6920 0.6950 0.7000 0.7010 0.7030
8.293000 0.7100 0.7150 0.7160 0.7230 0.7250
8.326418 0.7280 0.7310 0.7330 0.7410 0.7460
8.360000 0.7510 0.7540 0.7540 0.7580 0.7610
8.393418 0.7630 0.7640 0.7660 0.7690 0.7730
8.427000 0.7740 0.7760 0.7810 0.7830 0.7840
8.460418 0.7880 0.7910 0.7910 0.7930 0.7960
8.493000 0.7980 0.7980 0.7980 0.7980 0.7960
8.526418 0.7890 0.7880 0.7840 0.7810 0.7780
8.560000 0.7740 0.7710 0.7680 0.7660 0.7630
8.593418 0.7630 0.7640 0.7690 0.7730 0.7740
8.627000 0.7790 0.7860 0.8010 0.8020 0.8040
8.660418 0.8140 0.8170 0.8220 0.8260 0.8270
8.694000 0.8320 0.8360 0.8410 0.8440 0.8470
8.727418 0.8540 0.8540 0.8550 0.8550 0.8600
8.761000 0.8620 0.8640 0.8640 0.8640 0.8640
8.794418 0.8650 0.8650 0.8650 0.8650 0.8650
8.827000 0.8640 0.8620 0.8550 0.8540 0.8500
8.860418 0.8410 0.8340 0.8240 0.8190 0.8060
8.894000 0.8010 0.7890 0.7790 0.7680 0.7610
8.927418 0.7430 0.7310 0.7200 0.7060 0.6900
8.961000 0.6800 0.6670 0.6530 0.6390 0.6250
8.994418 0.6100 0.6000 0.5890 0.5790 0.5690
9.028000 0.5590 0.5510 0.5430 0.5390 0.5210
9.061418 0.5090 0.5000 0.4900 0.4800 0.4560
9.095000 0.4400 0.4230 0.4120 0.4020 0.3990
9.128418 0.3940 0.3920 0.3940 0.3950 0.4000
9.161000 0.4020 0.4130 0.4220 0.4330 0.4430
9.194418 0.4530 0.4630 0.4710 0.4830 0.4900
9.228000 0.4950 0.5030 0.5060 0.5090 0.5090
9.261418 0.5110 0.5080 0.5060 0.5040 0.5010
9.295000 0.5010 0.5000 0.4910 0.4830 0.4780
9.328418 0.4700 0.4600 0.4500 0.4380 0.4300
9.362000 0.4030 0.3970 0.3700 0.3470 0.3210
9.395418 0.2810 0.2610 0.2500 0.2330 0.2230
9.429000 0.2200 0.2160 0.2150 0.2150 0.2200
9.462418 0.2230 0.2330 0.2410 0.2510 0.2610
9.495000 0.2730 0.2840 0.3010 0.3190 0.3310
9.528418 0.3390 0.3520 0.3620 0.3820 0.4000
9.562000 0.4070 0.4230 0.4320 0.4550 0.4630
9.595418 0.4750 0.4850 0.4960 0.5130 0.5190
9.629000 0.5240 0.5310 0.5360 0.5440 0.5520
9.662418 0.5560 0.5620 0.5660 0.5660 0.5710
9.696000 0.5740 0.5760 0.5760 0.5820 0.5840
9.729418 0.5920 0.5940 0.6020 0.6040 0.6100
9.763000 0.6140 0.6170 0.6190 0.6240 0.6340
9.796418 0.6420 0.6530 0.6600 0.6650 0.6700
9.829000 0.6800 0.6920 0.7010 0.7030 0.7130
9.862418 0.7210 0.7300 0.7330 0.7450 0.7540
9.896000 0.7590 0.7660 0.7690 0.7740 0.7760
9.929418 0.7780 0.7810 0.7810 0.7830 0.7830
9.963000 0.7830 0.7840 0.7840 0.7840 0.7860
9.996418 0.7860 0.7860 0.7860 0.7860 0.7860
10.030000 0.7860 0.7860 0.7840 0.7840 0.7830
10.063418 0.7790 0.7760 0.7690 0.7630 0.7530
10.097000 0.7410 0.7310 0.7180 0.7030 0.6920
10.130418 0.6820 0.6700 0.6600 0.6520 0.6400
10.163000 0.6300 0.6190 0.6070 0.5940 0.5810
10.196418 0.5690 0.5610 0.5520 0.5490 0.5430
10.230000 0.5340 0.5310 0.5240 0.5180 0.5130
10.263418 0.5080 0.5000 0.4900 0.4810 0.4700
10.297000 0.4560 0.4510 0.4470 0.4450 0.4450
10.330418 0.4480 0.4500 0.4600 0.4700 0.4880
10.364000 0.5190 0.5510 0.5590 0.5840 0.6100
10.397418 0.6270 0.6530 0.6720 0.6920 0.7100
10.431000 0.7200 0.7230 0.7410 0.7510 0.7590
10.464418 0.7660 0.7790 0.7880 0.8010 0.8020
10.497000 0.8060 0.8140 0.8160 0.8210 0.8240
10.530418 0.8260 0.8310 0.8340 0.8360 0.8370
10.564000 0.8420 0.8440 0.8440 0.8460 0.8460
10.597418 0.8440 0.8440 0.8420 0.8410 0.8370
10.631000 0.8340 0.8260 0.8190 0.8110 0.8020
10.664418 0.7910 0.7790 0.7690 0.7540 0.7310
10.698000 0.7130 0.7010 0.6720 0.6530 0.6300
10.731418 0.6100 0.6000 0.5810 0.5620 0.5540
10.765000 0.5440 0.5390 0.5340 0.5330 0.5330
10.798418 0.5360 0.5410 0.5460 0.5510 0.5540
10.831000 0.5610 0.5690 0.5790 0.5990 0.6040
10.864418 0.6250 0.6400 0.6600 0.6700 0.6900
10.898000 0.7150 0.7350 0.7510 0.7660 0.7860
10.931418 0.8010 0.8040 0.8160 0.8220 0.8260
10.965000 0.8320 0.8370 0.8420 0.8440 0.8470
10.998418 0.8500 0.8520 0.8520 0.8540 0.8550
11.032000 0.8550 0.8550 0.8550 0.8540 0.8520
11.065418 0.8520 0.8500 0.8460 0.8440 0.8420
11.099000 0.8410 0.8410 0.8410 0.8410 0.8410
11.132418 0.8410 0.8410 0.8390 0.8390 0.8390
11.165000 0.8390 0.8370 0.8360 0.8360 0.8340
11.198418 0.8340 0.8310 0.8270 0.8240 0.8240
11.232000 0.8220 0.8160 0.8140 0.8090 0.8020
11.265418 0.8010 0.8020 0.7940 0.7930 0.7910
11.299000 0.7880 0.7860 0.7860 0.7860 0.7840
11.332418 0.7840 0.7830 0.7830 0.7830 0.7830
11.366000 0.7830 0.7840 0.7830 0.7830 0.7830
11.399418 0.7830 0.7830 0.7840 0.7830 0.7830
11.433000 0.7830 0.7830 0.7830 0.7830 0.7830
11.466418 0.7830 0.7810 0.7810 0.7810 0.7790
11.499000 0.7780 0.7740 0.7730 0.7690 0.7660
11.532418 0.7640 0.7630 0.7560 0.7540 0.7530
11.566000 0.7480 0.7460 0.7430 0.7400 0.7360
11.599418 0.7330 0.7310 0.7280 0.7250 0.7230
11.633000 0.7200 0.7200 0.7180 0.7160 0.7160
11.666418 0.7160 0.7160 0.7160 0.7160 0.7180
11.700000 0.7180 0.7210 0.7230 0.7250 0.7260
11.733418 0.7310 0.7350 0.7360 0.7450 0.7460
11.767000 0.7510 0.7530 0.7540 0.7540 0.7610
11.800418 0.7660 0.7710 0.7740 0.7830 0.7910
11.834000 0.7940 0.8020 0.8020 0.8040 0.8120
11.867418 0.8170 0.8220 0.8260 0.8290 0.8360
11.900000 0.8410 0.8440 0.8460 0.8470 0.8520
11.933418 0.8540 0.8590 0.8600 0.8640 0.8650
11.967000 0.8650 0.8690 0.8720 0.8720 0.8740
12.000418 0.8740 0.8750 0.8770 0.8770 0.8790
12.034000 0.8770 0.8790 0.8790 0.8800 0.8820
12.067418 0.8820 0.8820 0.8820 0.8820 0.8840
12.101000 0.8840 0.8840 0.8850 0.8850 0.8870
12.134418 0.8870 0.8870 0.8870 0.8870 0.8870
12.168000 0.8870 0.8870 0.8870 0.8870 0.8870
12.201418 0.8870 0.8850 0.8870 0.8870 0.8870
12.234000 0.8870 0.8870 0.8870 0.8870 0.8870
12.267418 0.8870 0.8850 0.8850 0.8820 0.8820
12.301000 0.8800 0.8800 0.8790 0.8790 0.8770
12.334418 0.8750 0.8750 0.8750 0.8740 0.8740
12.368000 0.8740 0.8720 0.8720 0.8720 0.8720
12.401418 0.8720 0.8700 0.8700 0.8690 0.8670
12.435000 0.8670 0.8650 0.8650 0.8650 0.8650
12.468418 0.8640 0.8640 0.8640 0.8640 0.8640
12.502000 0.8620 0.8620 0.8620 0.8600 0.8600
12.535418 0.8590 0.8570 0.8570 0.8570 0.8570
12.568000 0.8550 0.8550 0.8550 0.8540 0.8540
12.601418 0.8520 0.8520 0.8490 0.8470 0.8460
12.635000 0.8440 0.8440 0.8420 0.8420 0.8410
12.668418 0.8390 0.8390 0.8390 0.8370 0.8360
12.702000 0.8360 0.8340 0.8320 0.8310 0.8260
12.735418 0.8260 0.8240 0.8220 0.8210 0.8160
12.769000 0.8160 0.8140 0.8120 0.8110 0.8090
12.802418 0.8070 0.8060 0.8060 0.8060 0.8040
12.836000 0.8040 0.8040 0.8040 0.8020 0.8020
12.869418 0.8020 0.8020 0.8020 0.8020 0.8020
12.902000 0.8020 0.8020 0.8010 0.8010 0.8010
12.935418 0.7990 0.7990 0.7990 0.7980 0.7980
12.969000 0.7960 0.7960 0.7940 0.7930 0.7910
13.002418 0.7890 0.7890 0.7860 0.7840 0.7830
13.036000 0.7810 0.7780 0.7740 0.7710 0.7640
13.069418 0.7610 0.7540 0.7500 0.7430 0.7350
13.103000 0.7330 0.7250 0.7210 0.7130 0.7080
13.136418 0.7010 0.6950 0.6870 0.6820 0.6770
13.170000 0.6720 0.6650 0.6620 0.6570 0.6530
13.203418 0.6450 0.6420 0.6390 0.6350 0.6320
13.236000 0.6290 0.6250 0.6240 0.6170 0.6150
13.269418 0.6140 0.6040 0.6040 0.6020 0.5940
13.303000 0.5860 0.5820 0.5740 0.5710 0.5610
13.336418 0.5540 0.5460 0.5340 0.5280 0.5190
13.370000 0.5030 0.5010 0.5000 0.4800 0.4630
13.403418 0.4430 0.4330 0.4180 0.4050 0.3990
13.437000 0.3900 0.3800 0.3720 0.3650 0.3600
13.470418 0.3540 0.3520 0.3490 0.3470 0.3460
13.504000 0.3440 0.3440 0.3440 0.3460 0.3490
13.537418 0.3520 0.3540 0.3620 0.3670 0.3790
13.570000 0.3820 0.3920 0.4000 0.4050 0.4120
13.603418 0.4220 0.4320 0.4450 0.4510 0.4600
13.637000 0.4650 0.4750 0.4860 0.4950 0.5000
13.670418 0.5130 0.5160 0.5230 0.5310 0.5360
13.704000 0.5440 0.5460 0.5520 0.5560 0.5560
13.737418 0.5610 0.5610 0.5620 0.5640 0.5660
13.771000 0.5660 0.5670 0.5670 0.5670 0.5660
13.804418 0.5660 0.5640 0.5640 0.5640 0.5620
13.838000 0.5620 0.5610 0.5610 0.5610 0.5590
13.871418 0.5590 0.5590 0.5570 0.5570 0.5570
13.904000 0.5570 0.5570 0.5570 0.5570 0.5590
13.937418 0.5590 0.5590 0.5610 0.5620 0.5640
13.971000 0.5640 0.5640 0.5660 0.5670 0.5670
14.004418 0.5690 0.5710 0.5720 0.5720 0.5740
14.038000 0.5740 0.5740 0.5760 0.5770 0.5770
14.071418 0.5790 0.5790 0.5790 0.5790 0.5790
14.105000 0.5790 0.5790 0.5790 0.5770 0.5760
14.138418 0.5760 0.5740 0.5720 0.5720 0.5690
14.172000 0.5660 0.5620 0.5610 0.5570 0.5540
14.205418 0.5540 0.5490 0.5490 0.5460 0.5440
14.238000 0.5410 0.5360 0.5310 0.5290 0.5240
14.271418 0.5190 0.5140 0.5130 0.5030 0.5030
14.305000 0.5010 0.5000 0.4910 0.4850 0.4810
14.338418 0.4750 0.4700 0.4630 0.4580 0.4510
14.372000 0.4430 0.4380 0.4380 0.4280 0.4180
14.405418 0.4120 0.4050 0.4000 0.3920 0.3890
14.439000 0.3820 0.3740 0.3690 0.3600 0.3500
14.472418 0.3390 0.3320 0.3210 0.3140 0.3020
14.506000 0.2990 0.2930 0.2860 0.2790 0.2740
14.539418 0.2690 0.2630 0.2590 0.2530 0.2510
14.572000 0.2480 0.2430 0.2310 0.2300 0.2280
14.605418 0.2260 0.2250 0.2210 0.2200 0.2180
14.639000 0.2160 0.2130 0.2130 0.2110 0.2100
14.672418 0.2100 0.2080 0.2060 0.2060 0.2060
14.706000 0.2050 0.2050 0.2050 0.2050 0.2050
14.739418 0.2050 0.2030 0.2030 0.2030 0.2030
14.773000 0.2030 0.2010 0.2010 0.2010 0.2010
14.806418 0.2010 0.2010 0.2010 0.2010 0.2030
14.840000 0.2030 0.2030 0.2050 0.2050 0.2050
14.873418 0.2050 0.2060 0.2080 0.2110 0.2130
14.906000 0.2160 0.2180 0.2210 0.2250 0.2300
14.939418 0.2330 0.2380 0.2410 0.2480 0.2500
14.973000 0.2530 0.2630 0.2680 0.2710 0.2780
15.006418 0.2830 0.2890 0.2960 0.2990 0.3010
15.040000 0.3020 0.3060 0.3070 0.3110 0.3140
15.073418 0.3160 0.3190 0.3210 0.3220 0.3240
15.107000 0.3240 0.3270 0.3310 0.3310 0.3340
15.140418 0.3360 0.3390 0.3410 0.3410 0.3420
15.174000 0.3420 0.3440 0.3460 0.3490 0.3500
15.207418 0.3520 0.3540 0.3550 0.3570 0.3590
15.240000 0.3590 0.3590 0.3600 0.3600 0.3620
15.273418 0.3640 0.3640 0.3670 0.3690 0.3690
15.307000 0.3690 0.3700 0.3700 0.3700 0.3720
15.340418 0.3720 0.3720 0.3740 0.3740 0.3740
15.374000 0.3740 0.3740 0.3740 0.3740 0.3740
15.407418 0.3740 0.3740 0.3740 0.3740 0.3740
15.441000 0.3740 0.3750 0.3750 0.3750 0.3750
15.474418 0.3750 0.3750 0.3750 0.3750 0.3770
15.508000 0.3770 0.3770 0.3770 0.3770 0.3770
15.541418 0.3770 0.3770 0.3770 0.3770 0.3750
15.575000 0.3750 0.3750 0.3750 0.3750 0.3750
15.608418 0.3750 0.3750 0.3750 0.3750 0.3750
15.641000 0.3750 0.3750 0.3740 0.3740 0.3740
15.674418 0.3720 0.3720 0.3720 0.3720 0.3720
15.708000 0.3720 0.3700 0.3700 0.3700 0.3700
15.741418 0.3700 0.3700 0.3700 0.3700 0.3700
15.775000 0.3700 0.3700 0.3700 0.3700 0.3700
15.808418 0.3700 0.3700 0.3720 0.3700 0.3700
15.842000 0.3700 0.3700 0.3700 0.3700 0.3700
15.875418 0.3700 0.3700 0.3700 0.3700 0.3700
15.909000 0.3700 0.3700 0.3700 0.3720
##END=
