##TITLE=THIOUREA
##JCAMP-DX=4.24
##DATA TYPE=INFRARED SPECTRUM
##CLASS=COBLENTZ III
##ORIGIN=DOW CORNING CORP.
##OWNER=COBLENTZ SOCIETY
Collection (C) 2018 copyright by the U.S. Secretary of Commerce
on behalf of the United States of America. All rights reserved.
##DATE=1966
##CAS REGISTRY NO=62-56-6
##MOLFORM=C H4 N2 S
##SOURCE REFERENCE=COBLENTZ NO. 4841
##$NIST SOURCE=COBLENTZ
##$NIST IMAGE=cob4841
##SPECTROMETER/DATA SYSTEM=PERKIN-ELMER 521 (GRATING)
##INSTRUMENT PARAMETERS=FILTERS AT 3150, 2500, 2000, 1150, 700, 410; GRATING CHANGES AT 2000, 630 CM^-^1
##STATE=SOLID (MINERAL OIL MULL)
##PATH LENGTH=
$$SPECTRAL CONTAMINATIN DUE TO OIL AROUND 2900 CM^-^1
##SAMPLING PROCEDURE=TRANSMISSION
##RESOLUTION=4
##DATA PROCESSING=DIGITIZED BY NIST FROM HARD COPY (FROM TWO SEGMENTS)
##XUNITS=1/CM
##YUNITS=TRANSMITTANCE
##XFACTOR=1.000000
##YFACTOR=1
##DELTAX=0.984145
##FIRSTX=234.445
##LASTX=3792.13
##FIRSTY=0.868
##MAXX=3792.13
##MINX=234.445
##MAXY=0.967
##MINY=0.123
##NPOINTS=3616
##XYDATA=(X++(Y..Y))
234.445000 0.8680 0.8680 0.8680 0.8680 0.8680
239.365727 0.8670 0.8670 0.8650 0.8650 0.8640
244.286454 0.8640 0.8640 0.8640 0.8640 0.8640
249.207180 0.8640 0.8640 0.8640 0.8640 0.8640
254.127907 0.8630 0.8630 0.8630 0.8630 0.8630
259.048634 0.8630 0.8630 0.8630 0.8630 0.8630
263.969361 0.8630 0.8630 0.8630 0.8640 0.8640
268.890088 0.8650 0.8670 0.8710 0.8720 0.8730
273.810814 0.8730 0.8750 0.8750 0.8770 0.8790
278.731541 0.8800 0.8810 0.8830 0.8830 0.8840
283.652268 0.8870 0.8880 0.8890 0.8890 0.8890
288.572995 0.8910 0.8910 0.8920 0.8920 0.8930
293.493722 0.8930 0.8930 0.8930 0.8930 0.8920
298.414448 0.8920 0.8920 0.8920 0.8920 0.8920
303.335175 0.8920 0.8920 0.8910 0.8910 0.8910
308.255902 0.8910 0.8910 0.8890 0.8890 0.8880
313.176629 0.8880 0.8880 0.8870 0.8870 0.8850
318.097355 0.8850 0.8850 0.8840 0.8840 0.8830
323.018082 0.8810 0.8810 0.8800 0.8790 0.8770
327.938809 0.8770 0.8760 0.8760 0.8750 0.8750
332.859536 0.8730 0.8730 0.8730 0.8730 0.8720
337.780263 0.8720 0.8710 0.8710 0.8690 0.8690
342.700989 0.8680 0.8670 0.8640 0.8630 0.8600
347.621716 0.8590 0.8560 0.8550 0.8510 0.8510
352.542443 0.8480 0.8460 0.8440 0.8440 0.8420
357.463170 0.8400 0.8400 0.8360 0.8320 0.8290
362.383897 0.8260 0.8250 0.8240 0.8210 0.8180
367.304623 0.8160 0.8160 0.8140 0.8130 0.8100
372.225350 0.8080 0.8060 0.8050 0.8040 0.8010
377.146077 0.8010 0.8000 0.8000 0.7980 0.7970
382.066804 0.7970 0.7980 0.8020 0.7970 0.7930
386.987531 0.7860 0.7770 0.7730 0.7660 0.7610
391.908257 0.7550 0.7500 0.7440 0.7430 0.7380
396.828984 0.7240 0.7160 0.7140 0.7080 0.7000
401.749711 0.6930 0.6880 0.6840 0.6800 0.6760
406.670438 0.6690 0.6640 0.6550 0.6450 0.6261
411.591165 0.6020 0.5830 0.5710 0.5580 0.5540
416.511891 0.5540 0.5580 0.5670 0.5700 0.5700
421.432618 0.5650 0.5590 0.5540 0.5420 0.5380
426.353345 0.5350 0.5280 0.5190 0.5041 0.5020
431.274072 0.4920 0.4810 0.4760 0.4690 0.4630
436.194798 0.4570 0.4520 0.4480 0.4370 0.4290
441.115525 0.4250 0.4200 0.4160 0.4080 0.4010
446.036252 0.3970 0.3970 0.3950 0.3890 0.3810
450.956979 0.3740 0.3670 0.3630 0.3610 0.3580
455.877706 0.3570 0.3540 0.3530 0.3500 0.3470
460.798432 0.3460 0.3440 0.3430 0.3430 0.3430
465.719159 0.3430 0.3430 0.3440 0.3440 0.3460
470.639886 0.3460 0.3470 0.3470 0.3480 0.3500
475.560613 0.3510 0.3510 0.3530 0.3530 0.3530
480.481340 0.3530 0.3500 0.3460 0.3430 0.3400
485.402066 0.3360 0.3320 0.3280 0.3270 0.3270
490.322793 0.3270 0.3280 0.3300 0.3320 0.3340
495.243520 0.3360 0.3380 0.3390 0.3420 0.3430
500.164247 0.3440 0.3460 0.3480 0.3510 0.3540
505.084974 0.3540 0.3570 0.3590 0.3630 0.3670
510.005700 0.3710 0.3750 0.3770 0.3780 0.3790
514.926427 0.3820 0.3850 0.3890 0.3900 0.3970
519.847154 0.4020 0.4080 0.4120 0.4170 0.4200
524.767881 0.4250 0.4260 0.4340 0.4380 0.4440
529.688608 0.4480 0.4550 0.4590 0.4650 0.4710
534.609334 0.4770 0.4800 0.4850 0.4920 0.4960
539.530061 0.5030 0.5160 0.5180 0.5190 0.5260
544.450788 0.5300 0.5360 0.5400 0.5460 0.5480
549.371515 0.5500 0.5590 0.5660 0.5690 0.5730
554.292241 0.5770 0.5830 0.5900 0.5930 0.5950
559.212968 0.6010 0.6050 0.6090 0.6160 0.6180
564.133695 0.6250 0.6320 0.6340 0.6380 0.6420
569.054422 0.6460 0.6510 0.6530 0.6640 0.6670
573.975149 0.6680 0.6730 0.6760 0.6790 0.6850
578.895875 0.6890 0.6920 0.6960 0.7000 0.7030
583.816602 0.7080 0.7110 0.7160 0.7190 0.7220
588.737329 0.7300 0.7340 0.7350 0.7360 0.7380
593.658056 0.7390 0.7420 0.7460 0.7470 0.7480
598.578783 0.7480 0.7500 0.7500 0.7500 0.7480
603.499509 0.7470 0.7460 0.7430 0.7400 0.7350
608.420236 0.7270 0.7260 0.7190 0.7070 0.7000
613.340963 0.6950 0.6870 0.6800 0.6770 0.6760
618.261690 0.6760 0.6720 0.6680 0.6630 0.6600
623.182417 0.6570 0.6560 0.6550 0.6530 0.6520
628.103143 0.6490 0.6480 0.6460 0.6460 0.6450
633.023870 0.6450 0.6450 0.6450 0.6450 0.6460
637.944597 0.6490 0.6590 0.6610 0.6730 0.6920
642.865324 0.7020 0.7150 0.7280 0.7439 0.7550
647.786051 0.7650 0.7780 0.7900 0.8010 0.8180
652.706777 0.8220 0.8260 0.8330 0.8370 0.8380
657.627504 0.8410 0.8420 0.8450 0.8510 0.8520
662.548231 0.8530 0.8560 0.8570 0.8590 0.8590
667.468958 0.8600 0.8600 0.8640 0.8750 0.8760
672.389684 0.8770 0.8790 0.8790 0.8800 0.8840
677.310411 0.8930 0.9120 0.9200 0.9260 0.9270
682.231138 0.9280 0.9280 0.9300 0.9300 0.9310
687.151865 0.9310 0.9310 0.9310 0.9300 0.9280
692.072592 0.9280 0.9280 0.9270 0.9260 0.9240
696.993318 0.9230 0.9220 0.9200 0.9160 0.9140
701.914045 0.9110 0.9100 0.9030 0.8990 0.8950
706.834772 0.8930 0.8890 0.8810 0.8710 0.8680
711.755499 0.8610 0.8440 0.8400 0.8330 0.8171
716.676226 0.8040 0.7910 0.7770 0.7580 0.7350
721.596952 0.7041 0.6831 0.6641 0.6481 0.6331
726.517679 0.6250 0.6160 0.5790 0.5231 0.4930
731.438406 0.4641 0.4341 0.4340 0.4838 0.5079
736.359133 0.5320 0.5570 0.5580 0.6339 0.6889
741.279860 0.7738 0.7969 0.8179 0.8329 0.8489
746.200586 0.8600 0.8650 0.8730 0.8800 0.8890
751.121313 0.8920 0.8930 0.8960 0.8960 0.9030
756.042040 0.9060 0.9070 0.9080 0.9100 0.9110
760.962767 0.9110 0.9100 0.9100 0.9100 0.9080
765.883494 0.9080 0.9070 0.9070 0.9060 0.9040
770.804220 0.9040 0.9040 0.9040 0.9040 0.9060
775.724947 0.9060 0.9070 0.9080 0.9080 0.9100
780.645674 0.9110 0.9120 0.9140 0.9160 0.9180
785.566401 0.9200 0.9230 0.9240 0.9260 0.9280
790.487127 0.9300 0.9300 0.9310 0.9310 0.9300
795.407854 0.9280 0.9270 0.9260 0.9240 0.9230
800.328581 0.9230 0.9230 0.9240 0.9260 0.9270
805.249308 0.9300 0.9320 0.9340 0.9350 0.9360
810.170035 0.9380 0.9380 0.9380 0.9390 0.9390
815.090761 0.9400 0.9420 0.9420 0.9420 0.9420
820.011488 0.9400 0.9400 0.9390 0.9390 0.9380
824.932215 0.9380 0.9380 0.9380 0.9380 0.9380
829.852942 0.9380 0.9360 0.9360 0.9350 0.9350
834.773669 0.9340 0.9310 0.9240 0.9230 0.9190
839.694395 0.9160 0.9150 0.9140 0.9110 0.9100
844.615122 0.9080 0.9080 0.9080 0.9080 0.9080
849.535849 0.9070 0.9070 0.9060 0.9040 0.9040
854.456576 0.9030 0.9030 0.9030 0.9030 0.9030
859.377303 0.9020 0.9020 0.9000 0.8990 0.8990
864.298029 0.8970 0.8960 0.8950 0.8930 0.8930
869.218756 0.8920 0.8870 0.8840 0.8810 0.8800
874.139483 0.8770 0.8730 0.8730 0.8720 0.8720
879.060210 0.8710 0.8680 0.8670 0.8650 0.8640
883.980937 0.8600 0.8510 0.8480 0.8450 0.8410
888.901663 0.8380 0.8380 0.8370 0.8370 0.8360
893.822390 0.8340 0.8340 0.8330 0.8330 0.8330
898.743117 0.8330 0.8320 0.8290 0.8280 0.8260
903.663844 0.8250 0.8250 0.8220 0.8170 0.8160
908.584570 0.8140 0.8090 0.8090 0.8060 0.8010
913.505297 0.7980 0.7970 0.7950 0.7940 0.7940
918.426024 0.7900 0.7890 0.7870 0.7870 0.7860
923.346751 0.7850 0.7790 0.7780 0.7730 0.7700
928.267478 0.7700 0.7670 0.7660 0.7650 0.7630
933.188204 0.7620 0.7620 0.7610 0.7610 0.7590
938.108931 0.7590 0.7580 0.7570 0.7570 0.7570
943.029658 0.7550 0.7550 0.7540 0.7540 0.7530
947.950385 0.7510 0.7510 0.7480 0.7470 0.7440
952.871112 0.7420 0.7400 0.7400 0.7390 0.7380
957.791838 0.7380 0.7360 0.7350 0.7350 0.7350
962.712565 0.7340 0.7340 0.7340 0.7320 0.7310
967.633292 0.7310 0.7310 0.7300 0.7300 0.7280
972.554019 0.7280 0.7280 0.7300 0.7300 0.7310
977.474746 0.7320 0.7340 0.7350 0.7360 0.7360
982.395472 0.7380 0.7380 0.7380 0.7380 0.7380
987.316199 0.7380 0.7380 0.7380 0.7360 0.7360
992.236926 0.7350 0.7350 0.7350 0.7350 0.7340
997.157653 0.7340 0.7320 0.7300 0.7280 0.7270
1002.078380 0.7260 0.7260 0.7240 0.7220 0.7200
1006.999106 0.7190 0.7190 0.7160 0.7120 0.7120
1011.919833 0.7110 0.7100 0.7070 0.7070 0.7060
1016.840560 0.7030 0.7030 0.7020 0.7000 0.6990
1021.761287 0.6960 0.6950 0.6930 0.6930 0.6880
1026.682013 0.6810 0.6790 0.6790 0.6770 0.6750
1031.602740 0.6720 0.6710 0.6690 0.6690 0.6680
1036.523467 0.6670 0.6650 0.6640 0.6600 0.6530
1041.444194 0.6490 0.6460 0.6420 0.6400 0.6370
1046.364921 0.6370 0.6340 0.6300 0.6260 0.6220
1051.285647 0.6180 0.6120 0.6060 0.6040 0.6020
1056.206374 0.6010 0.6010 0.6000 0.5930 0.5820
1061.127101 0.5750 0.5730 0.5700 0.5650 0.5590
1066.047828 0.5420 0.5390 0.5280 0.5230 0.5071
1070.968555 0.5020 0.4930 0.4890 0.4810 0.4710
1075.889281 0.4570 0.4450 0.4380 0.4241 0.4041
1080.810008 0.4010 0.4010 0.4020 0.4040 0.4080
1085.730735 0.4100 0.4160 0.4240 0.4320 0.4360
1090.651462 0.4550 0.4710 0.4950 0.5070 0.5140
1095.572189 0.5240 0.5300 0.5420 0.5480 0.5540
1100.492915 0.5660 0.5750 0.5820 0.5870 0.5890
1105.413642 0.5900 0.5950 0.5980 0.6040 0.6100
1110.334369 0.6160 0.6180 0.6180 0.6200 0.6200
1115.255096 0.6200 0.6210 0.6210 0.6210 0.6220
1120.175823 0.6220 0.6240 0.6240 0.6240 0.6240
1125.096549 0.6220 0.6200 0.6180 0.6170 0.6140
1130.017276 0.6140 0.6130 0.6130 0.6130 0.6130
1134.938003 0.6130 0.6130 0.6120 0.6120 0.6120
1139.858730 0.6100 0.6100 0.6100 0.6090 0.6090
1144.779456 0.6090 0.6090 0.6090 0.6080 0.6080
1149.700183 0.6080 0.6060 0.6060 0.6060 0.6060
1154.620910 0.6080 0.6080 0.6090 0.6090 0.6090
1159.541637 0.6090 0.6090 0.6100 0.6120 0.6120
1164.462364 0.6120 0.6130 0.6130 0.6140 0.6160
1169.383090 0.6160 0.6180 0.6200 0.6210 0.6220
1174.303817 0.6240 0.6280 0.6300 0.6320 0.6320
1179.224544 0.6330 0.6330 0.6360 0.6360 0.6370
1184.145271 0.6370 0.6380 0.6380 0.6400 0.6400
1189.065998 0.6410 0.6410 0.6410 0.6410 0.6420
1193.986724 0.6420 0.6420 0.6420 0.6420 0.6420
1198.907451 0.6420 0.6420 0.6420 0.6420 0.6440
1203.828178 0.6440 0.6450 0.6450 0.6460 0.6460
1208.748905 0.6480 0.6480 0.6490 0.6490 0.6490
1213.669632 0.6510 0.6510 0.6510 0.6510 0.6510
1218.590358 0.6520 0.6520 0.6520 0.6520 0.6520
1223.511085 0.6520 0.6520 0.6520 0.6530 0.6530
1228.431812 0.6530 0.6530 0.6550 0.6550 0.6550
1233.352539 0.6550 0.6530 0.6530 0.6530 0.6530
1238.273266 0.6530 0.6530 0.6520 0.6520 0.6520
1243.193992 0.6520 0.6520 0.6520 0.6520 0.6520
1248.114719 0.6520 0.6520 0.6530 0.6530 0.6530
1253.035446 0.6530 0.6530 0.6530 0.6530 0.6550
1257.956173 0.6550 0.6550 0.6550 0.6560 0.6550
1262.876899 0.6550 0.6550 0.6560 0.6560 0.6560
1267.797626 0.6560 0.6560 0.6550 0.6550 0.6550
1272.718353 0.6550 0.6550 0.6530 0.6530 0.6520
1277.639080 0.6520 0.6520 0.6520 0.6510 0.6510
1282.559807 0.6490 0.6480 0.6460 0.6460 0.6450
1287.480533 0.6410 0.6410 0.6400 0.6370 0.6360
1292.401260 0.6340 0.6330 0.6320 0.6300 0.6290
1297.321987 0.6280 0.6280 0.6260 0.6250 0.6220
1302.242714 0.6210 0.6210 0.6210 0.6210 0.6210
1307.163441 0.6210 0.6210 0.6210 0.6210 0.6210
1312.084167 0.6210 0.6210 0.6210 0.6210 0.6210
1317.004894 0.6200 0.6200 0.6200 0.6170 0.6160
1321.925621 0.6130 0.6080 0.6050 0.6020 0.6020
1326.846348 0.6000 0.6000 0.5980 0.5970 0.5950
1331.767075 0.5890 0.5810 0.5700 0.5660 0.5630
1336.687801 0.5590 0.5460 0.5380 0.5310 0.5270
1341.608528 0.5240 0.5240 0.5190 0.5120 0.5080
1346.529255 0.5040 0.5030 0.5000 0.4930 0.4880
1351.449982 0.4800 0.4760 0.4710 0.4690 0.4670
1356.370709 0.4610 0.4550 0.4380 0.4290 0.4040
1361.291435 0.3950 0.3790 0.3631 0.3471 0.3360
1366.212162 0.3300 0.3270 0.3260 0.3200 0.2800
1371.132889 0.2670 0.2550 0.2440 0.2410 0.2400
1376.053616 0.2400 0.2410 0.2490 0.2520 0.2630
1380.974342 0.2810 0.2890 0.2960 0.3070 0.3309
1385.895069 0.3460 0.3570 0.3780 0.3860 0.3940
1390.815796 0.4000 0.4010 0.4000 0.3950 0.3900
1395.736523 0.3860 0.3770 0.3620 0.3470 0.3300
1400.657250 0.3140 0.3000 0.2890 0.2830 0.2710
1405.577976 0.2680 0.2610 0.2560 0.2510 0.2460
1410.498703 0.2450 0.2440 0.2440 0.2440 0.2450
1415.419430 0.2460 0.2510 0.2550 0.2630 0.2650
1420.340157 0.2760 0.2790 0.2840 0.2890 0.3000
1425.260884 0.3110 0.3240 0.3380 0.3440 0.3550
1430.181610 0.3620 0.3660 0.3660 0.3650 0.3630
1435.102337 0.3540 0.3260 0.3190 0.3110 0.2950
1440.023064 0.2790 0.2630 0.2560 0.2490 0.2380
1444.943791 0.2250 0.2160 0.2100 0.2080 0.1980
1449.864518 0.1910 0.1850 0.1770 0.1740 0.1710
1454.785244 0.1700 0.1690 0.1690 0.1670 0.1670
1459.705971 0.1670 0.1690 0.1690 0.1700 0.1700
1464.626698 0.1730 0.1740 0.1770 0.1810 0.1850
1469.547425 0.1870 0.1900 0.1930 0.2000 0.2100
1474.468152 0.2220 0.2400 0.2570 0.2800 0.3100
1479.388878 0.3739 0.4339 0.4869 0.5149 0.5479
1484.309605 0.5650 0.5810 0.6050 0.6340 0.6460
1489.230332 0.6770 0.6930 0.7120 0.7240 0.7310
1494.151059 0.7420 0.7530 0.7620 0.7670 0.7780
1499.071785 0.7830 0.7910 0.7950 0.8000 0.8040
1503.992512 0.8080 0.8100 0.8170 0.8260 0.8300
1508.913239 0.8320 0.8340 0.8360 0.8360 0.8360
1513.833966 0.8370 0.8380 0.8380 0.8400 0.8400
1518.754693 0.8400 0.8400 0.8400 0.8400 0.8400
1523.675419 0.8400 0.8380 0.8380 0.8370 0.8360
1528.596146 0.8360 0.8340 0.8330 0.8330 0.8330
1533.516873 0.8320 0.8320 0.8320 0.8300 0.8290
1538.437600 0.8280 0.8200 0.8170 0.8140 0.8120
1543.358327 0.8060 0.8050 0.8040 0.8020 0.8000
1548.279053 0.8000 0.7970 0.7940 0.7900 0.7810
1553.199780 0.7750 0.7690 0.7660 0.7650 0.7610
1558.120507 0.7580 0.7510 0.7460 0.7400 0.7380
1563.041234 0.7340 0.7280 0.7260 0.7190 0.7180
1567.961961 0.7180 0.7120 0.7070 0.6891 0.6830
1572.882687 0.6770 0.6710 0.6680 0.6640 0.6600
1577.803414 0.6510 0.6410 0.6280 0.6160 0.6010
1582.724141 0.5930 0.5860 0.5690 0.5620 0.5340
1587.644868 0.5300 0.5031 0.4890 0.4641 0.4520
1592.565595 0.4370 0.4180 0.4000 0.3890 0.3690
1597.486321 0.3610 0.3390 0.3081 0.2751 0.2690
1602.407048 0.2570 0.2520 0.2510 0.2510 0.2510
1607.327775 0.2510 0.2520 0.2530 0.2570 0.2590
1612.248502 0.2610 0.2630 0.2650 0.2690 0.2720
1617.169228 0.2750 0.2790 0.2830 0.2870 0.2910
1622.089955 0.2990 0.3020 0.3150 0.3310 0.3729
1627.010682 0.3950 0.4140 0.4718 0.5149 0.5459
1631.931409 0.5770 0.5980 0.6200 0.6370 0.6480
1636.852136 0.6770 0.7109 0.7479 0.7939 0.8249
1641.772862 0.8340 0.8450 0.8520 0.8570 0.8730
1646.693589 0.8830 0.8890 0.8990 0.9100 0.9150
1651.614316 0.9190 0.9190 0.9200 0.9200 0.9230
1656.535043 0.9260 0.9280 0.9310 0.9340 0.9360
1661.455770 0.9470 0.9480 0.9550 0.9570 0.9580
1666.376496 0.9580 0.9590 0.9590 0.9610 0.9610
1671.297223 0.9630 0.9630 0.9650 0.9650 0.9650
1676.217950 0.9650 0.9660 0.9660 0.9660 0.9670
1681.138677 0.9670 0.9670 0.9670 0.9670 0.9670
1686.059404 0.9670 0.9670 0.9670 0.9670 0.9670
1690.980130 0.9670 0.9670 0.9670 0.9670 0.9670
1695.900857 0.9670 0.9670 0.9670 0.9660 0.9660
1700.821584 0.9660 0.9660 0.9650 0.9650 0.9650
1705.742311 0.9650 0.9650 0.9650 0.9650 0.9650
1710.663038 0.9650 0.9630 0.9630 0.9630 0.9630
1715.583764 0.9630 0.9650 0.9650 0.9650 0.9650
1720.504491 0.9630 0.9630 0.9630 0.9630 0.9630
1725.425218 0.9630 0.9630 0.9620 0.9620 0.9620
1730.345945 0.9610 0.9610 0.9590 0.9590 0.9590
1735.266671 0.9580 0.9580 0.9580 0.9570 0.9570
1740.187398 0.9550 0.9550 0.9540 0.9530 0.9510
1745.108125 0.9510 0.9510 0.9510 0.9510 0.9500
1750.028852 0.9500 0.9510 0.9510 0.9510 0.9500
1754.949579 0.9500 0.9500 0.9500 0.9500 0.9500
1759.870305 0.9480 0.9500 0.9480 0.9480 0.9470
1764.791032 0.9470 0.9460 0.9440 0.9440 0.9440
1769.711759 0.9440 0.9430 0.9440 0.9430 0.9430
1774.632486 0.9430 0.9430 0.9430 0.9430 0.9430
1779.553213 0.9430 0.9420 0.9430 0.9430 0.9420
1784.473939 0.9420 0.9420 0.9400 0.9400 0.9400
1789.394666 0.9400 0.9400 0.9390 0.9390 0.9390
1794.315393 0.9380 0.9380 0.9360 0.9360 0.9360
1799.236120 0.9350 0.9350 0.9340 0.9340 0.9320
1804.156847 0.9320 0.9320 0.9320 0.9310 0.9310
1809.077573 0.9300 0.9300 0.9280 0.9280 0.9280
1813.998300 0.9270 0.9270 0.9270 0.9270 0.9280
1818.919027 0.9280 0.9300 0.9320 0.9340 0.9340
1823.839754 0.9360 0.9360 0.9360 0.9380 0.9380
1828.760481 0.9400 0.9400 0.9400 0.9420 0.9420
1833.681207 0.9420 0.9420 0.9420 0.9430 0.9420
1838.601934 0.9420 0.9420 0.9430 0.9420 0.9420
1843.522661 0.9420 0.9420 0.9420 0.9420 0.9420
1848.443388 0.9420 0.9400 0.9420 0.9420 0.9420
1853.364114 0.9400 0.9400 0.9400 0.9400 0.9400
1858.284841 0.9400 0.9400 0.9400 0.9390 0.9390
1863.205568 0.9390 0.9380 0.9380 0.9380 0.9380
1868.126295 0.9380 0.9360 0.9360 0.9350 0.9350
1873.047022 0.9340 0.9350 0.9340 0.9340 0.9340
1877.967748 0.9340 0.9340 0.9340 0.9340 0.9340
1882.888475 0.9340 0.9340 0.9340 0.9340 0.9340
1887.809202 0.9320 0.9320 0.9320 0.9340 0.9340
1892.729929 0.9340 0.9340 0.9340 0.9340 0.9320
1897.650656 0.9320 0.9320 0.9320 0.9320 0.9320
1902.571382 0.9310 0.9310 0.9310 0.9310 0.9310
1907.492109 0.9310 0.9300 0.9300 0.9280 0.9280
1912.412836 0.9280 0.9280 0.9280 0.9280 0.9280
1917.333563 0.9280 0.9300 0.9280 0.9280 0.9280
1922.254290 0.9280 0.9270 0.9270 0.9270 0.9260
1927.175016 0.9260 0.9260 0.9270 0.9260 0.9240
1932.095743 0.9240 0.9240 0.9240 0.9240 0.9240
1937.016470 0.9230 0.9230 0.9230 0.9230 0.9240
1941.937197 0.9240 0.9240 0.9240 0.9240 0.9240
1946.857924 0.9240 0.9240 0.9240 0.9230 0.9220
1951.778650 0.9220 0.9200 0.9200 0.9200 0.9220
1956.699377 0.9200 0.9200 0.9200 0.9200 0.9200
1961.620104 0.9200 0.9200 0.9190 0.9190 0.9180
1966.540831 0.9180 0.9190 0.9190 0.9190 0.9180
1971.461557 0.9180 0.9180 0.9180 0.9180 0.9160
1976.382284 0.9160 0.9160 0.9150 0.9150 0.9140
1981.303011 0.9140 0.9120 0.9120 0.9120 0.9110
1986.223738 0.9110 0.9100 0.9100 0.9080 0.9080
1991.144465 0.9070 0.9070 0.9060 0.9060 0.9060
1996.065191 0.9060 0.9060 0.9060 0.9040 0.9040
2000.985918 0.9035 0.9030 0.9030 0.9030 0.9015
2005.906645 0.9000 0.8995 0.8990 0.8980 0.8970
2010.827372 0.8965 0.8960 0.8955 0.8950 0.8950
2015.748099 0.8950 0.8940 0.8930 0.8920 0.8910
2020.668825 0.8910 0.8910 0.8900 0.8890 0.8885
2025.589552 0.8880 0.8880 0.8880 0.8875 0.8870
2030.510279 0.8870 0.8870 0.8870 0.8870 0.8870
2035.431006 0.8870 0.8875 0.8880 0.8895 0.8910
2040.351733 0.8920 0.8930 0.8930 0.8930 0.8940
2045.272459 0.8950 0.8950 0.8950 0.8955 0.8960
2050.193186 0.8960 0.8960 0.8960 0.8960 0.8960
2055.113913 0.8960 0.8960 0.8960 0.8960 0.8960
2060.034640 0.8955 0.8950 0.8950 0.8950 0.8950
2064.955367 0.8950 0.8940 0.8930 0.8930 0.8930
2069.876093 0.8925 0.8920 0.8915 0.8909 0.8889
2074.796820 0.8870 0.8855 0.8839 0.8819 0.8799
2079.717547 0.8784 0.8770 0.8765 0.8760 0.8760
2084.638274 0.8760 0.8755 0.8749 0.8734 0.8720
2089.559000 0.8720 0.8720 0.8715 0.8710 0.8710
2094.479727 0.8710 0.8700 0.8690 0.8690 0.8690
2099.400454 0.8690 0.8690 0.8685 0.8680 0.8680
2104.321181 0.8680 0.8680 0.8680 0.8680 0.8680
2109.241908 0.8685 0.8690 0.8690 0.8690 0.8700
2114.162634 0.8710 0.8710 0.8710 0.8721 0.8731
2119.083361 0.8741 0.8750 0.8750 0.8750 0.8750
2124.004088 0.8750 0.8750 0.8750 0.8750 0.8750
2128.924815 0.8750 0.8750 0.8750 0.8750 0.8750
2133.845542 0.8749 0.8739 0.8730 0.8730 0.8730
2138.766268 0.8730 0.8730 0.8730 0.8730 0.8730
2143.686995 0.8730 0.8725 0.8720 0.8715 0.8710
2148.607722 0.8710 0.8710 0.8710 0.8710 0.8710
2153.528449 0.8710 0.8710 0.8710 0.8710 0.8710
2158.449176 0.8710 0.8710 0.8710 0.8709 0.8699
2163.369902 0.8691 0.8701 0.8709 0.8699 0.8690
2168.290629 0.8690 0.8690 0.8685 0.8680 0.8680
2173.211356 0.8680 0.8680 0.8680 0.8680 0.8680
2178.132083 0.8680 0.8680 0.8680 0.8680 0.8680
2183.052810 0.8680 0.8680 0.8680 0.8675 0.8670
2187.973536 0.8670 0.8670 0.8670 0.8670 0.8670
2192.894263 0.8670 0.8670 0.8670 0.8670 0.8671
2197.814990 0.8676 0.8678 0.8663 0.8651 0.8661
2202.735717 0.8670 0.8670 0.8670 0.8670 0.8670
2207.656444 0.8670 0.8670 0.8670 0.8670 0.8670
2212.577170 0.8670 0.8670 0.8670 0.8670 0.8669
2217.497897 0.8659 0.8649 0.8644 0.8640 0.8640
2222.418624 0.8640 0.8640 0.8640 0.8640 0.8640
2227.339351 0.8640 0.8640 0.8640 0.8639 0.8634
2232.260077 0.8630 0.8630 0.8630 0.8630 0.8630
