##TITLE=Cyclopropanecarboxamide
##JCAMP-DX=4.24
##DATA TYPE=INFRARED SPECTRUM
##ORIGIN=EPA-IR VAPOR PHASE LIBRARY
##OWNER=SRD/NIST
Collection (C) 2018 copyright by the U.S. Secretary of Commerce
on behalf of the United States of America. All rights reserved.
##CAS REGISTRY NO=6228-73-5
##MOLFORM=C 4 H 7 N O
##$NIST SOURCE=MSDC-IR
##STATE=gas
##XUNITS=1/CM
##YUNITS=ABSORBANCE
##XFACTOR=1.
##YFACTOR=0.001
##DELTAX=1.92898
##FIRSTX=549.8
##LASTX=4000.7
##FIRSTY=4.6914
##MAXX=4000.7
##MINX=549.759
##MAXY=0.0876714
##MINY=0
##NPOINTS=1790
##XYDATA=(X++(Y..Y))
549.759 4.6914 4.5514 4.3714 4.2714 4.0614 4.0614 3.7914 3.4314 3.4314 3.6914
569.049 3.8414 3.7614 4.1014 4.5014 4.7814 5.1714 5.7714 6.1114 6.5314 6.9914
588.339 7.3414 7.7114 8.0214 8.3014 8.2814 8.2914 8.4514 8.6214 9.0014 8.6114
607.628 7.9214 7.8214 7.9714 7.9314 7.4114 6.7914 6.0114 5.4014 5.1214 4.7114
626.918 4.1314 3.6814 3.3114 3.1014 3.0014 2.8314 2.6514 2.4614 2.4114 2.2814
646.208 2.1114 2.1014 2.1114 2.0814 2.0614 1.9714 1.9114 2.0414 1.8914 1.7414
665.498 1.7914 1.7414 1.7914 1.8514 1.9014 1.9714 2.0814 2.2214 2.3614 2.4414
684.787 2.5414 2.6414 2.8514 3.0614 3.0614 3.3114 3.6814 3.8614 4.1514 4.4814
704.077 4.6914 4.7614 5.0114 5.5014 5.8314 6.2014 6.6214 6.9014 7.3314 7.6214
723.367 7.7514 7.9114 8.1514 8.4714 8.5914 8.8114 9.1814 9.3714 9.5914 9.7814
742.657 9.8214 9.7714 9.5214 9.4614 9.4614 9.3914 9.3914 9.3514 9.4314 9.5114
761.947 9.5114 9.3714 9.1014 8.9914 8.8314 8.7114 8.5714 8.3814 8.2314 8.0914
781.236 7.9614 7.8714 7.8314 7.6614 7.5914 7.5214 7.3514 7.2514 7.1614 6.9714
800.526 6.8514 6.9214 6.9714 6.8714 6.9114 6.9514 7.0014 7.0914 7.2514 7.3414
819.816 7.3814 7.6514 7.8514 7.8614 7.6314 7.2114 7.0114 7.0114 6.8214 6.5814
839.106 6.3714 6.2614 6.2514 6.0614 5.8914 5.7914 5.6014 5.4314 5.4214 5.4514
858.395 5.3014 5.0714 5.1114 5.2714 5.2014 4.9014 4.8214 4.8114 4.8214 4.8614
877.685 4.6914 4.5214 4.5614 4.8114 4.9514 4.8914 4.8314 5.0414 5.4714 5.9514
896.975 6.6014 7.3414 8.0214 8.8814 10.1414 11.5214 12.9814 14.2614 15.0914 15.4114
916.265 15.4714 15.4314 15.4214 15.5814 15.8314 16.2014 15.7514 14.6814 14.0214 13.4714
935.555 12.8414 11.9814 10.7814 9.5814 8.3514 7.0714 6.1314 5.3814 4.7214 4.3214
954.844 3.9714 3.6314 3.4014 3.2814 3.1914 3.1214 2.9514 2.8214 2.9814 3.0114
974.134 2.8614 2.8814 2.8714 2.8614 2.9614 3.1114 3.1614 3.1114 2.9814 3.0914
993.424 3.3814 3.5514 3.6314 3.6614 3.7514 3.8114 3.7814 3.9114 4.0114 4.1614
1012.714 4.3314 4.3214 4.4714 4.9314 5.1714 5.3314 5.7214 5.8114 5.8214 5.8714
1032.003 5.9814 6.0414 6.1414 6.5314 7.0614 7.4314 7.5614 7.6514 7.7714 8.0914
1051.293 8.0814 7.8814 7.8914 7.9014 7.7914 7.6414 7.6114 7.6514 7.6214 7.5114
1070.583 7.5414 7.2014 6.3314 5.5414 5.1114 5.1914 5.2514 5.0114 4.7614 4.7714
1089.873 5.2714 5.6214 5.5614 5.7614 5.9914 5.9714 6.2114 6.3614 6.0614 5.7314
1109.163 5.5914 5.4714 5.5114 5.2314 4.6514 4.6414 4.5214 4.2614 3.8014 3.0114
1128.452 2.7514 2.6614 2.2014 1.8714 1.8914 1.8814 1.8114 2.0614 1.9614 1.9714
1147.742 2.1314 2.1614 1.9114 1.4014 1.5114 1.7414 2.0314 2.1914 2.1114 2.1214
1167.032 2.2514 2.2114 2.2114 2.3114 2.3114 2.3014 2.4114 2.8014 3.0714 3.1214
1186.322 3.2614 3.5714 3.8714 4.2814 4.5214 4.9714 5.5914 5.9014 6.2814 6.9014
1205.611 7.5514 7.9714 8.7814 9.7314 10.7814 11.6014 12.7414 14.5214 16.0614 17.5014
1224.901 18.9114 20.5914 22.2714 23.8014 25.4114 26.7814 27.6714 28.3714 28.8514 29.1114
1244.191 29.5014 29.8414 30.2114 29.9514 29.0514 28.6614 28.3614 27.5714 26.3814 24.9614
1263.481 23.2114 21.4414 20.1314 18.9914 18.1714 17.5814 16.8014 15.9914 15.3214 14.6714
1282.771 13.9514 13.1714 12.6514 12.1814 11.4714 10.7814 10.0914 9.5314 8.8914 8.0714
1302.060 7.4014 6.7414 6.1514 5.6014 5.1314 4.8714 4.7314 4.6414 4.5314 4.4214
1321.350 4.3814 4.3514 4.3014 4.3114 4.3614 4.4114 4.4314 4.4414 4.5014 4.6014
1340.640 4.6814 4.7414 4.7914 4.9414 5.0814 5.2214 5.3514 5.4514 5.5914 5.7214
1359.930 5.8614 6.0214 6.2214 6.4814 6.8214 7.3014 8.0114 8.8714 9.9314 11.3214
1379.219 13.0714 15.1314 17.4714 20.1314 23.0714 25.9914 28.8114 31.4714 33.7714 35.8114
1398.509 37.6514 39.1714 40.2314 40.5814 40.5214 40.7114 41.0614 40.7914 39.2914 37.0914
1417.799 34.6914 31.9314 28.9214 25.7714 22.5314 19.3814 16.4014 13.7914 11.7014 10.0914
1437.089 8.8614 7.9614 7.3914 6.9314 6.5514 6.2714 5.9914 5.8014 5.6814 5.5514
1456.378 5.3114 5.0514 4.9414 4.8614 4.7614 4.5714 4.3814 4.2014 3.9914 3.8614
1475.668 3.7614 3.6314 3.4914 3.3914 3.3014 3.2714 3.2214 3.1714 3.1014 3.0314
1494.958 2.9514 2.8914 2.7914 2.6514 2.5714 2.5314 2.5314 2.4714 2.4014 2.3214
1514.248 2.3114 2.2614 2.1914 2.2414 2.2814 2.3114 2.3214 2.3214 2.3914 2.4314
1533.538 2.4814 2.5014 2.5614 2.6814 2.7514 2.8714 3.0714 3.2014 3.4314 3.8114
1552.827 4.2014 4.7414 5.4214 6.2814 7.3314 8.7514 10.5414 12.6214 15.1414 18.0714
1572.117 21.1514 24.1914 26.9114 29.0314 30.3614 31.0614 31.6314 33.3014 35.2014 34.8714
1591.407 33.8414 33.4914 33.4514 33.2914 32.4314 30.6714 28.0714 24.9014 21.5414 18.2914
1610.697 15.4214 13.0514 11.0614 9.3814 8.0614 7.0114 6.2514 5.7114 5.2514 4.9314
1629.986 4.7314 4.5814 4.5314 4.4714 4.4314 4.4714 4.5614 4.6714 4.7914 4.9714
1649.276 5.1614 5.3314 5.5314 5.7314 5.8514 6.0614 6.3014 6.4614 6.7314 6.9614
1668.566 7.1614 7.4414 7.8114 8.2514 8.7214 9.3414 10.0014 10.8014 11.9214 13.2514
1687.856 14.7914 16.6714 18.9314 21.5514 24.6414 28.1214 31.9814 36.4214 41.3314 46.6814
1707.146 52.2114 57.9414 63.6914 69.2614 74.5214 79.3014 83.1814 85.8614 87.0014 86.6414
1726.435 85.3814 84.3514 84.7414 86.4914 87.6714 86.5114 82.9414 77.6814 71.6414 65.1114
1745.725 58.2814 51.4314 44.8714 38.7714 33.2514 28.3414 23.9414 20.1114 16.7914 13.9914
1765.015 11.6314 9.7514 8.2814 7.1014 6.2314 5.5814 5.1014 4.7714 4.5014 4.2714
1784.305 4.1214 3.9914 3.9114 3.8514 3.7614 3.6614 3.5514 3.3914 3.2514 3.1414
1803.594 3.0114 2.9014 2.7514 2.5814 2.4614 2.3814 2.2614 2.1614 2.1014 2.0414
1822.884 1.9814 1.9414 1.9214 1.8814 1.8014 1.7514 1.7114 1.6714 1.6914 1.6514
1842.174 1.6014 1.5814 1.5414 1.5314 1.5514 1.4514 1.3814 1.4214 1.3914 1.2914
1861.464 1.2214 1.2114 1.1714 1.066 1.0215 1.0201 0.9747 0.8961 0.8394 0.8413
1880.754 0.8461 0.8165 0.7813 0.7367 0.7417 0.7393 0.7665 0.7888 0.7394 0.7188
1900.043 0.6965 0.6877 0.6853 0.7025 0.6938 0.7026 0.7274 0.6981 0.7063 0.691
1919.333 0.6314 0.6039 0.6254 0.6985 0.7418 0.724 0.6952 0.7138 0.75 0.7341
1938.623 0.7392 0.7768 0.773 0.7856 0.8442 0.8198 0.7778 0.8248 0.8762 0.8643
1957.913 0.8324 0.8011 0.8113 0.8611 0.8908 0.8896 0.896 0.8956 0.8728 0.8655
1977.202 0.8388 0.8325 0.8566 0.859 0.8721 0.8704 0.829 0.7758 0.7367 0.7232
1996.492 0.7024 0.6918 0.6477 0.6048 0.6055 0.5812 0.5449 0.5544 0.5082 0.468
2015.782 0.5077 0.5151 0.4901 0.4756 0.4609 0.4107 0.393 0.4229 0.4187 0.3773
2035.072 0.3799 0.3888 0.3797 0.3708 0.37 0.3657 0.387 0.3932 0.4039 0.4406
2054.362 0.4328 0.4752 0.4971 0.4538 0.5016 0.5564 0.5358 0.5345 0.5678 0.5724
2073.651 0.5848 0.6492 0.7038 0.718 0.6562 0.6731 0.7728 0.7891 0.7499 0.7627
2092.941 0.8374 0.8449 0.8611 0.9023 0.8552 0.8231 0.7966 0.756 0.7658 0.7799
2112.231 0.7339 0.7 0.713 0.6768 0.6649 0.6999 0.7364 0.7337 0.745 0.7463
2131.521 0.7093 0.7379 0.7262 0.6989 0.6754 0.6499 0.6938 0.6874 0.6862 0.7221
2150.810 0.682 0.6747 0.676 0.6461 0.6956 0.7281 0.6694 0.6457 0.6258 0.6047
2170.100 0.5717 0.4542 0.4876 0.5545 0.5288 0.5142 0.5067 0.4942 0.4619 0.5023
2189.390 0.4841 0.4671 0.4517 0.3923 0.4233 0.4544 0.4412 0.4281 0.4277 0.4146
2208.680 0.4217 0.4749 0.4579 0.4265 0.4141 0.3724 0.4069 0.4224 0.3722 0.3428
2227.970 0.3789 0.4271 0.4012 0.3764 0.3501 0.2942 0.3351 0.3888 0.3828 0.4086
2247.259 0.411 0.3838 0.3848 0.3812 0.3518 0.368 0.4107 0.3789 0.3357 0.3616
2266.549 0.3861 0.3353 0.3287 0.3825 0.3961 0.3775 0.3612 0.337 0.3545 0.3812
2285.839 0.3639 0.4063 0.4409 0.4264 0.4455 0.441 0.444 0.4697 0.4664 0.4528
2305.129 0.4371 0.4662 0.5058 0.5165 0.5493 0.6401 0.7117 0.7006 0.6626 0.62
2324.418 0.6011 0.659 0.6657 0.6331 0.6609 0.6619 0.6064 0.6185 0.6151 0.5926
2343.708 0.58 0.521 0.5369 0.5275 0.5034 0.502 0.4873 0.5537 0.5062 0.3883
2362.998 0.3714 0.3715 0.368 0.3438 0.3363 0.3155 0.2623 0.2639 0.343 0.3625
2382.288 0.3261 0.3037 0.2335 0.2239 0.2905 0.3152 0.3512 0.3633 0.3184 0.2769
2401.578 0.1887 0.14769 0.2077 0.2535 0.2663 0.227 0.2068 0.1999 0.2351 0.25
2420.867 0.2871 0.3283 0.2351 0.2154 0.2782 0.3028 0.2539 0.2347 0.2917 0.3713
2440.157 0.3534 0.3171 0.2692 0.2468 0.2966 0.3373 0.3441 0.2829 0.3261 0.3708
2459.447 0.3872 0.4443 0.4242 0.385 0.3551 0.3301 0.3621 0.3728 0.3293 0.3806
2478.737 0.4584 0.4728 0.4597 0.4503 0.3985 0.3809 0.4668 0.499 0.4593 0.4397
2498.026 0.4468 0.4684 0.4886 0.4606 0.4385 0.3856 0.3003 0.3011 0.305 0.2912
2517.316 0.3488 0.3268 0.2644 0.2692 0.3223 0.294 0.2783 0.3168 0.2917 0.2515
2536.606 0.2261 0.2608 0.2519 0.15384 0.16915 0.2228 0.1263 0.13894 0.16762 0.13013
2555.896 0.15929 0.15615 0.1518 0.184 0.14434 0.16819 0.2197 0.12871 0.08563 0.14296
2575.186 0.1839 0.1918 0.2066 0.2078 0.15417 0.1795 0.2717 0.2102 0.09404 0.1449
2594.475 0.2759 0.2593 0.1875 0.237 0.2592 0.2445 0.2719 0.2774 0.2749 0.2701
2613.765 0.3344 0.3318 0.2559 0.2895 0.3252 0.3652 0.3651 0.3855 0.3516 0.2959
2633.055 0.3005 0.3412 0.3757 0.3386 0.2961 0.2981 0.342 0.3328 0.3928 0.4793
2652.345 0.4465 0.375 0.3773 0.4429 0.408 0.3163 0.2954 0.2885 0.2665 0.2721
2671.634 0.2802 0.2128 0.2157 0.232 0.212 0.2037 0.1717 0.2038 0.2307 0.1952
2690.924 0.14743 0.183 0.2144 0.2554 0.2415 0.1959 0.2678 0.227 0.2055 0.2278
2710.214 0.2382 0.2268 0.1903 0.2003 0.1365 0.10193 0.1552 0.16833 0.1904 0.1804
2729.504 0.2712 0.3358 0.2425 0.2127 0.2112 0.1769 0.16327 0.2359 0.15167 0.0051
2748.794 0.08624 0.2249 0.2492 0.2015 0.1843 0.11289 0.15105 0.2501 0.1971 0.14908
2768.083 0.2223 0.3341 0.3533 0.3064 0.3338 0.4129 0.3892 0.332 0.3408 0.3407
2787.373 0.3006 0.2935 0.3431 0.4432 0.5176 0.4529 0.3734 0.378 0.3451 0.3158
2806.663 0.3272 0.3204 0.3347 0.3948 0.46 0.5498 0.5745 0.5701 0.5629 0.5493
2825.953 0.5869 0.5569 0.5527 0.6236 0.635 0.6419 0.6727 0.6676 0.7294 0.7038
2845.242 0.6427 0.6175 0.6362 0.6326 0.5399 0.4811 0.4823 0.4955 0.5064 0.5799
2864.532 0.5677 0.4599 0.4252 0.5165 0.5557 0.4969 0.4271 0.4453 0.4471 0.3883
2883.822 0.4186 0.4977 0.5598 0.4916 0.4626 0.4494 0.455 0.4702 0.4638 0.5038
2903.112 0.4383 0.4507 0.4598 0.449 0.4312 0.3989 0.4317 0.3825 0.2791 0.2739
2922.401 0.3425 0.3532 0.3668 0.338 0.3471 0.4418 0.3929 0.3379 0.3774 0.3226
2941.691 0.3274 0.4472 0.397 0.3083 0.3967 0.4853 0.458 0.4857 0.5023 0.5746
2960.981 0.6743 0.5729 0.5384 0.6433 0.7367 0.7614 0.8873 0.9872 0.9764 1.0459
2980.271 1.1614 1.3114 1.4714 1.6914 1.9014 2.1314 2.4214 2.8114 3.2714 3.6614
2999.561 4.1614 4.8514 5.5414 6.2414 7.0514 7.8914 8.5314 9.0414 9.5914 10.1614
3018.850 10.7714 11.3714 11.7214 11.8714 11.7414 11.3614 11.1614 11.0414 10.7614 10.2414
3038.140 9.5114 8.8014 8.2014 7.6614 7.1314 6.5714 5.9314 5.2914 4.7314 4.2714
3057.430 3.8714 3.4714 3.0514 2.7414 2.6114 2.3114 2.0214 1.9614 1.9614 2.0114
3076.720 2.1014 2.1914 2.2414 2.3414 2.4514 2.7114 2.8814 2.9014 2.9914 3.1114
3096.009 3.2314 3.3714 3.3214 3.1514 3.1714 3.2314 3.1114 3.0414 3.0314 2.9414
3115.299 2.7914 2.4214 2.0914 1.8014 1.5814 1.4514 1.1514 0.9748 0.9008 0.7967
3134.589 0.734 0.7005 0.6853 0.6738 0.6805 0.6931 0.6438 0.6084 0.637 0.5735
3153.879 0.566 0.6619 0.7459 0.7185 0.598 0.5937 0.6623 0.6876 0.6202 0.5449
3173.169 0.559 0.5965 0.5612 0.5256 0.5399 0.5845 0.4639 0.3692 0.4668 0.5701
3192.458 0.5728 0.4389 0.2726 0.1756 0.2813 0.3914 0.3444 0.287 0.2684 0.2342
3211.748 0.1809 0.15834 0.18 0.2264 0.3004 0.3511 0.1883 0.09187 0.2444 0.2747
3231.038 0.2482 0.2911 0.2552 0.1985 0.13292 0.0581 0.10857 0.2234 0.3066 0.3433
3250.328 0.2928 0.2294 0.286 0.3295 0.2297 0.17023 0.1746 0.1869 0.14702 0.078214
3269.617 0.14364 0.259 0.2858 0.252 0.3238 0.2719 0.16241 0.2219 0.2881 0.2264
3288.907 0.13067 0.2279 0.316 0.3176 0.3915 0.3407 0.2957 0.3135 0.3176 0.4669
3308.197 0.5205 0.4172 0.483 0.5895 0.4733 0.4527 0.4784 0.4095 0.4444 0.525
3327.487 0.5219 0.4561 0.3895 0.3832 0.4141 0.4381 0.4226 0.4862 0.52 0.3812
3346.777 0.4281 0.4503 0.4385 0.4299 0.3891 0.4517 0.4794 0.6278 0.7257 0.7165
3366.066 0.6641 0.6136 0.6216 0.7347 0.815 0.8645 0.9302 1.0814 1.2514 1.2914
3385.356 1.3714 1.4614 1.6414 1.8814 2.2014 2.4114 2.6514 2.9814 3.3114 3.7014
3404.646 4.0014 4.3514 4.8714 5.2714 5.6014 6.0914 6.5914 6.8514 7.0514 7.5614
3423.936 8.1014 8.4514 8.7114 9.0114 9.3314 9.5014 9.5114 9.3114 8.9014 8.5914
3443.225 8.4114 8.1614 7.7114 7.0914 6.5714 6.3914 6.1214 5.6114 5.0814 4.3714
3462.515 3.5514 2.9114 2.5514 2.2114 1.9714 1.8514 1.7114 1.5514 1.4314 1.5114
3481.805 1.6114 1.5714 1.6214 1.7514 1.8414 1.9514 2.0214 2.1014 2.2114 2.3714
3501.095 2.4414 2.5814 2.7914 2.9214 3.1114 3.2814 3.4514 3.6514 3.8614 4.1914
3520.385 4.4514 4.5114 4.5614 4.6714 4.8214 4.9714 5.0714 5.2414 5.5214 5.7714
3539.674 6.0614 6.3714 6.6014 6.7914 6.8814 6.9514 7.1014 7.1614 7.1114 6.9414
3558.964 6.7114 6.5514 6.4214 6.1714 5.9114 5.9114 5.8114 5.3214 4.8614 4.4914
3578.254 4.0014 3.4414 2.8814 2.4614 2.1714 1.8114 1.4714 1.3514 1.2514 1.1014
3597.544 0.9461 0.8774 0.7558 0.5873 0.5016 0.4211 0.4163 0.4353 0.3357 0.1839
3616.833 0.173 0.2593 0.2588 0.2085 0.2763 0.2963 0.3078 0.2969 0.2432 0.2272
3636.123 0.2863 0.2829 0.1792 0.2004 0.2573 0.2577 0.269 0.2892 0.3751 0.2988
3655.413 0.1824 0.2735 0.2375 0.12118 0.0788 0.12147 0.2519 0.3188 0.1814 0.0573
3674.703 0.10577 0.1852 0.16602 0.078919 0.09647 0.1891 0.1815 0.13626 0.15011 0.2048
3693.993 0.1946 0.11888 0.10271 0.1552 0.196 0.14413 0.08826 0.16492 0.1902 0.1814
3713.282 0.233 0.2223 0.1934 0.2601 0.2532 0.1236 0.15534 0.244 0.14257 0.076961
3732.572 0.1715 0.2372 0.2032 0.1937 0.2594 0.2847 0.2598 0.2396 0.299 0.2612
3751.862 0.13211 0.1593 0.15009 0.1561 0.198 0.1986 0.17133 0.2212 0.2096 0.10313
3771.152 0.12916 0.2251 0.2553 0.1853 0.173 0.225 0.2713 0.2995 0.15542 0.2188
3790.441 0.2782 0.14372 0.16645 0.10243 0.11179 0.12041 0.041 0.009 0.0438 0.0297
3809.731 0.0189 0.0258 0.08734 0.2393 0.2317 0.06467 0.09495 0.1766 0.15058 0.256
3829.021 0.3682 0.368 0.2914 0.2884 0.2539 0.194 0.3038 0.2998 0.3009 0.3802
3848.311 0.1856 0.08446 0.16025 0.14756 0.2111 0.3191 0.2646 0.3187 0.3542 0.2398
3867.601 0.2345 0.1763 0.14841 0.3711 0.4532 0.288 0.2805 0.2533 0.2411 0.261
3886.890 0.2017 0.237 0.2758 0.2356 0.1786 0.0495 0.1772 0.3099 0.3023 0.224
3906.180 0.13907 0.3063 0.2723 0.15094 0.2416 0.3238 0.3387 0.3077 0.2043 0.2489
3925.470 0.3033 0.2891 0.1412 0 0.1111 0.2569 0.3169 0.2873 0.3279 0.3663
3944.760 0.2261 0.14602 0.1925 0.15712 0.14233 0.1894 0.1106 0.0479 0.15655 0.3005
3964.049 0.2047 0.16786 0.2508 0.2344 0.16637 0.2491 0.3512 0.2859 0.2844 0.2751
3983.339 0.2786 0.2336 0.2651 0.1952 0.081316 0.10022 0.1862 0.277 0.3717 0.3918
##END=
