##TITLE=ETHYL NITRATE
##JCAMP-DX=4.24
##DATA TYPE=INFRARED SPECTRUM
##CLASS=COBLENTZ
##ORIGIN=DOW CHEMICAL COMPANY
##OWNER=COBLENTZ SOCIETY
Collection (C) 2018 copyright by the U.S. Secretary of Commerce
on behalf of the United States of America. All rights reserved.
##DATE=1964/12/29
##CAS REGISTRY NO=625-58-1
##MOLFORM=C2 H5 N O3
##SOURCE REFERENCE=COBLENTZ NO. 6990
##$NIST SOURCE=COBLENTZ
##$NIST IMAGE=cob6990
##SPECTROMETER/DATA SYSTEM=DOW KBr FOREPRISM
##INSTRUMENT PARAMETERS=GRATING BLAZED AT 3.5, 12.0, 20.0 MICRONS AND CHANGED AT 5.0, 7.5, 14.9 MICRONS
##STATE=GAS (30 mmHg DILUTED TO A TOTAL PRESSURE OF 600 mmHg WITH N2)
##PATH LENGTH=5 CM
##SAMPLING PROCEDURE=TRANSMISSION
##RESOLUTION=4
##DATA PROCESSING=DIGITIZED BY NIST FROM HARD COPY (FROM TWO SEGMENTS)
##XUNITS=1/CM
##YUNITS=TRANSMITTANCE
##XFACTOR=1.000000
##YFACTOR=1
##DELTAX=0.879767
##FIRSTX=456.012
##LASTX=3805.28
##FIRSTY=0.958
##MAXX=3805.28
##MINX=456.012
##MAXY=0.994
##MINY=0
##NPOINTS=3808
##XYDATA=(X++(Y..Y))
456.012000 0.9580 0.9580 0.9580 0.9600 0.9600
460.410833 0.9610 0.9610 0.9620 0.9620 0.9640
464.809666 0.9640 0.9640 0.9640 0.9640 0.9650
469.208499 0.9650 0.9650 0.9650 0.9650 0.9650
473.607331 0.9660 0.9660 0.9660 0.9660 0.9660
478.006164 0.9660 0.9680 0.9690 0.9680 0.9680
482.404997 0.9680 0.9680 0.9660 0.9660 0.9660
486.803830 0.9660 0.9660 0.9660 0.9660 0.9650
491.202663 0.9660 0.9660 0.9660 0.9650 0.9650
495.601496 0.9650 0.9650 0.9640 0.9640 0.9650
500.000329 0.9650 0.9650 0.9680 0.9680 0.9680
504.399161 0.9680 0.9680 0.9680 0.9680 0.9680
508.797994 0.9680 0.9690 0.9680 0.9680 0.9660
513.196827 0.9660 0.9660 0.9660 0.9650 0.9640
517.595660 0.9640 0.9640 0.9640 0.9640 0.9640
521.994493 0.9640 0.9640 0.9640 0.9650 0.9650
526.393326 0.9640 0.9640 0.9640 0.9640 0.9640
530.792159 0.9640 0.9640 0.9640 0.9640 0.9620
535.190992 0.9620 0.9620 0.9610 0.9610 0.9610
539.589824 0.9610 0.9610 0.9600 0.9580 0.9580
543.988657 0.9580 0.9580 0.9570 0.9570 0.9550
548.387490 0.9530 0.9510 0.9500 0.9470 0.9440
552.786323 0.9430 0.9390 0.9360 0.9350 0.9310
557.185156 0.9280 0.9260 0.9250 0.9240 0.9220
561.583989 0.9220 0.9250 0.9260 0.9260 0.9260
565.982822 0.9250 0.9250 0.9240 0.9240 0.9220
570.381654 0.9210 0.9210 0.9220 0.9240 0.9250
574.780487 0.9260 0.9280 0.9310 0.9330 0.9350
579.179320 0.9370 0.9430 0.9460 0.9460 0.9470
583.578153 0.9480 0.9480 0.9510 0.9530 0.9570
587.976986 0.9580 0.9600 0.9610 0.9650 0.9660
592.375819 0.9680 0.9680 0.9690 0.9710 0.9710
596.774652 0.9720 0.9710 0.9720 0.9730 0.9730
601.173484 0.9750 0.9750 0.9750 0.9750 0.9750
605.572317 0.9750 0.9730 0.9730 0.9710 0.9690
609.971150 0.9680 0.9660 0.9660 0.9650 0.9610
614.369983 0.9610 0.9600 0.9580 0.9550 0.9540
618.768816 0.9510 0.9440 0.9390 0.9350 0.9310
623.167649 0.9250 0.9180 0.9130 0.9060 0.8930
627.566482 0.8840 0.8750 0.8451 0.8231 0.8041
631.965315 0.7900 0.7760 0.7610 0.7440 0.7220
636.364147 0.6921 0.6751 0.6700 0.6571 0.6510
640.762980 0.6480 0.6460 0.6450 0.6410 0.6380
645.161813 0.6380 0.6460 0.6460 0.6490 0.6460
649.560646 0.6460 0.6450 0.6450 0.6480 0.6600
653.959479 0.6800 0.7029 0.7289 0.7549 0.7819
658.358312 0.8020 0.8170 0.8440 0.8620 0.8680
662.757145 0.8740 0.8780 0.8840 0.8860 0.8880
667.155977 0.8890 0.8890 0.8890 0.8890 0.8880
671.554810 0.8880 0.8860 0.8850 0.8850 0.8850
675.953643 0.8840 0.8820 0.8780 0.8770 0.8740
680.352476 0.8680 0.8630 0.8560 0.8510 0.8450
684.751309 0.8380 0.8330 0.8230 0.8160 0.8110
689.150142 0.8000 0.7870 0.7711 0.7541 0.7371
693.548975 0.7140 0.6910 0.6860 0.6800 0.6780
697.947807 0.6750 0.6750 0.6770 0.6770 0.6780
702.346640 0.6780 0.6800 0.6800 0.6800 0.6810
706.745473 0.6810 0.6840 0.6860 0.6930 0.7040
711.144306 0.7100 0.7110 0.7140 0.7310 0.7480
715.543139 0.7689 0.7939 0.8259 0.8599 0.8998
719.941972 0.9400 0.9460 0.9550 0.9600 0.9610
724.340805 0.9640 0.9650 0.9660 0.9660 0.9650
728.739638 0.9650 0.9640 0.9640 0.9620 0.9620
733.138470 0.9600 0.9580 0.9570 0.9570 0.9570
737.537303 0.9550 0.9530 0.9470 0.9420 0.9360
741.936136 0.9350 0.9330 0.9250 0.9180 0.9140
746.334969 0.9080 0.8990 0.8960 0.8850 0.8770
750.733802 0.8740 0.8660 0.8560 0.8520 0.8450
755.132635 0.8380 0.8340 0.8260 0.8220 0.8190
759.531468 0.8150 0.7831 0.7332 0.7071 0.7060
763.930300 0.7100 0.7200 0.7320 0.7550 0.7650
768.329133 0.7660 0.7710 0.7760 0.7770 0.7770
772.727966 0.7790 0.7800 0.7820 0.7870 0.7940
777.126799 0.7970 0.7980 0.8050 0.8130 0.8240
781.525632 0.8310 0.8380 0.8450 0.8550 0.8660
785.924465 0.8740 0.8780 0.8910 0.8920 0.9020
790.323298 0.9080 0.9100 0.9140 0.9140 0.9150
794.722130 0.9150 0.9150 0.9150 0.9170 0.9180
799.120963 0.9210 0.9220 0.9240 0.9250 0.9250
803.519796 0.9250 0.9240 0.9240 0.9240 0.9240
807.918629 0.9240 0.9210 0.9170 0.9150 0.9140
812.317462 0.9140 0.9130 0.9070 0.9040 0.9020
816.716295 0.9000 0.8960 0.8950 0.8920 0.8850
821.115128 0.8780 0.8770 0.8710 0.8571 0.8480
825.513960 0.8330 0.8170 0.8060 0.7970 0.7720
829.912793 0.7361 0.7111 0.6781 0.6421 0.5932
834.311626 0.5660 0.5390 0.4820 0.4221 0.3651
838.710459 0.3101 0.2492 0.1822 0.1003 0.0920
843.109292 0.0820 0.0660 0.0520 0.0460 0.0370
847.508125 0.0340 0.0310 0.0280 0.0260 0.0220
851.906958 0.0170 0.0160 0.0130 0.0130 0.0120
856.305791 0.0120 0.0120 0.0120 0.0130 0.0150
860.704623 0.0160 0.0160 0.0170 0.0200 0.0220
865.103456 0.0300 0.0330 0.0370 0.0440 0.0510
869.502289 0.0591 0.1020 0.1180 0.1420 0.1730
873.901122 0.2060 0.2409 0.2709 0.3218 0.3868
878.299955 0.4150 0.4420 0.4780 0.5649 0.5840
882.698788 0.6040 0.6200 0.6350 0.6460 0.6530
887.097621 0.6620 0.6630 0.6620 0.6570 0.6420
891.496453 0.6270 0.6170 0.5981 0.5721 0.5581
895.895286 0.5440 0.5200 0.4960 0.4780 0.4660
900.294119 0.4460 0.4340 0.4270 0.4220 0.4170
904.692952 0.4080 0.3720 0.3130 0.2880 0.2860
909.091785 0.3149 0.3150 0.3000 0.2711 0.2491
913.490618 0.2490 0.2530 0.2600 0.2710 0.2840
917.889451 0.2910 0.3000 0.3110 0.3319 0.3569
922.288283 0.3860 0.4000 0.4010 0.4080 0.4170
926.687116 0.4300 0.4450 0.4659 0.4820 0.6016
931.085949 0.6630 0.6970 0.7140 0.7260 0.7440
935.484782 0.7580 0.7620 0.7760 0.7820 0.7930
939.883615 0.7980 0.8080 0.8130 0.8170 0.8240
944.282448 0.8280 0.8340 0.8340 0.8380 0.8460
948.681281 0.8550 0.8620 0.8710 0.8810 0.8930
953.080114 0.9000 0.9140 0.9220 0.9320 0.9370
957.478946 0.9390 0.9460 0.9500 0.9510 0.9530
961.877779 0.9540 0.9540 0.9570 0.9570 0.9570
966.276612 0.9570 0.9570 0.9550 0.9540 0.9530
970.675445 0.9510 0.9500 0.9480 0.9470 0.9460
975.074278 0.9440 0.9420 0.9390 0.9370 0.9360
979.473111 0.9310 0.9250 0.9220 0.9200 0.9180
983.871944 0.9150 0.9130 0.9070 0.9040 0.9020
988.270776 0.8970 0.8960 0.8890 0.8840 0.8810
992.669609 0.8750 0.8700 0.8620 0.8530 0.8440
997.068442 0.8380 0.8340 0.8260 0.8081 0.7841
1001.467275 0.7690 0.7510 0.7350 0.7140 0.6950
1005.866108 0.6750 0.6421 0.6340 0.6051 0.5642
1010.264941 0.5400 0.5170 0.4740 0.4400 0.4040
1014.663774 0.3611 0.3291 0.2931 0.2681 0.2282
1019.062606 0.1770 0.1370 0.1350 0.1310 0.1250
1023.461439 0.1220 0.1210 0.1200 0.1200 0.1180
1027.860272 0.1180 0.1180 0.1200 0.1220 0.1330
1032.259105 0.1420 0.1430 0.1440 0.1500 0.1570
1036.657938 0.1620 0.1760 0.1970 0.2220 0.2520
1041.056771 0.2859 0.3249 0.3639 0.4039 0.4568
1045.455604 0.5710 0.6260 0.6780 0.7250 0.7649
1049.854436 0.7939 0.8090 0.8190 0.8310 0.8350
1054.253269 0.8420 0.8460 0.8520 0.8530 0.8550
1058.652102 0.8560 0.8590 0.8620 0.8620 0.8630
1063.050935 0.8620 0.8630 0.8630 0.8640 0.8660
1067.449768 0.8660 0.8670 0.8670 0.8670 0.8640
1071.848601 0.8630 0.8630 0.8620 0.8570 0.8550
1076.247434 0.8520 0.8450 0.8400 0.8350 0.8300
1080.646267 0.8240 0.8170 0.8120 0.8080 0.8040
1085.045099 0.8020 0.8010 0.8000 0.8000 0.7980
1089.443932 0.7980 0.7970 0.7930 0.7870 0.7840
1093.842765 0.7830 0.7840 0.7940 0.8020 0.8130
1098.241598 0.8170 0.8200 0.8200 0.8220 0.8240
1102.640431 0.8260 0.8280 0.8330 0.8350 0.8380
1107.039264 0.8410 0.8420 0.8440 0.8440 0.8410
1111.438097 0.8280 0.8220 0.8170 0.8120 0.8020
1115.836929 0.7950 0.7940 0.7930 0.7910 0.7930
1120.235762 0.7940 0.7970 0.8010 0.8060 0.8120
1124.634595 0.8150 0.8170 0.8170 0.8110 0.8050
1129.033428 0.7980 0.7970 0.7980 0.8060 0.8160
1133.432261 0.8310 0.8400 0.8560 0.8700 0.8780
1137.831094 0.8920 0.9020 0.9140 0.9150 0.9150
1142.229927 0.9150 0.9150 0.9150 0.9150 0.9140
1146.628759 0.9140 0.9140 0.9130 0.9100 0.9080
1151.027592 0.9060 0.9040 0.9040 0.9040 0.9040
1155.426425 0.9040 0.9060 0.9060 0.9070 0.9070
1159.825258 0.9080 0.9070 0.9080 0.9080 0.9100
1164.224091 0.9100 0.9100 0.9100 0.9130 0.9140
1168.622924 0.9140 0.9170 0.9220 0.9280 0.9330
1173.021757 0.9330 0.9350 0.9350 0.9360 0.9370
1177.420590 0.9370 0.9370 0.9370 0.9370 0.9390
1181.819422 0.9400 0.9430 0.9430 0.9430 0.9420
1186.218255 0.9400 0.9400 0.9390 0.9370 0.9360
1190.617088 0.9350 0.9350 0.9330 0.9330 0.9330
1195.015921 0.9330 0.9330 0.9330 0.9330 0.9350
1199.414754 0.9360 0.9370 0.9370 0.9390 0.9400
1203.813587 0.9400 0.9420 0.9430 0.9440 0.9440
1208.212420 0.9460 0.9480 0.9500 0.9500 0.9470
1212.611252 0.9470 0.9470 0.9460 0.9440 0.9430
1217.010085 0.9420 0.9420 0.9420 0.9370 0.9360
1221.408918 0.9360 0.9360 0.9350 0.9350 0.9360
1225.807751 0.9360 0.9360 0.9360 0.9360 0.9360
1230.206584 0.9350 0.9350 0.9350 0.9330 0.9310
1234.605417 0.9260 0.9240 0.9210 0.9180 0.9170
1239.004250 0.9150 0.9150 0.9140 0.9140 0.9130
1243.403082 0.9100 0.9080 0.9060 0.9030 0.9020
1247.801915 0.9000 0.8950 0.8920 0.8860 0.8800
1252.200748 0.8730 0.8700 0.8630 0.8530 0.8440
1256.599581 0.8310 0.8190 0.8050 0.7910 0.7770
1260.998414 0.7570 0.7370 0.7170 0.6841 0.6750
1265.397247 0.6530 0.6200 0.5720 0.5430 0.5130
1269.796080 0.4551 0.3971 0.3372 0.2802 0.2202
1274.194913 0.1609 0.1000 0.0680 0.0370 0.0270
1278.593745 0.0150 0.0130 0.0120 0.0080 0.0060
1282.992578 0.0060 0.0060 0.0060 0.0060 0.0060
1287.391411 0.0060 0.0060 0.0060 0.0080 0.0080
1291.790244 0.0080 0.0080 0.0080 0.0080 0.0080
1296.189077 0.0080 0.0090 0.0110 0.0120 0.0160
1300.587910 0.1130 0.1170 0.1350 0.1690 0.2129
1304.986743 0.2679 0.3309 0.3968 0.4668 0.5835
1309.385575 0.6371 0.6850 0.7200 0.7500 0.7760
1313.784408 0.7980 0.8160 0.8330 0.8440 0.8530
1318.183241 0.8590 0.8680 0.8750 0.8910 0.8990
1322.582074 0.9040 0.9080 0.9140 0.9170 0.9210
1326.980907 0.9240 0.9260 0.9280 0.9290 0.9310
1331.379740 0.9310 0.9320 0.9320 0.9350 0.9350
1335.778573 0.9350 0.9360 0.9360 0.9360 0.9360
1340.177405 0.9350 0.9350 0.9330 0.9330 0.9320
1344.576238 0.9320 0.9310 0.9290 0.9280 0.9260
1348.975071 0.9240 0.9200 0.9150 0.9100 0.9060
1353.373904 0.8990 0.8930 0.8850 0.8750 0.8700
1357.772737 0.8620 0.8490 0.8350 0.8190 0.8020
1362.171570 0.7860 0.7610 0.7430 0.7310 0.7250
1366.570403 0.7200 0.7170 0.7150 0.7150 0.7130
1370.969235 0.7070 0.7040 0.6960 0.6930 0.6930
1375.368068 0.6820 0.6700 0.6570 0.6520 0.6520
1379.766901 0.6550 0.6600 0.6710 0.6820 0.6960
1384.165734 0.7070 0.7130 0.7250 0.7280 0.7310
1388.564567 0.7330 0.7350 0.7350 0.7350 0.7330
1392.963400 0.7350 0.7440 0.7500 0.7530 0.7530
1397.362233 0.7530 0.7540 0.7550 0.7600 0.7650
1401.761066 0.7720 0.7800 0.7880 0.7950 0.8000
1406.159898 0.8050 0.8120 0.8160 0.8170 0.8230
1410.558731 0.8300 0.8310 0.8350 0.8370 0.8420
1414.957564 0.8460 0.8510 0.8520 0.8520 0.8520
1419.356397 0.8530 0.8550 0.8590 0.8590 0.8590
1423.755230 0.8570 0.8550 0.8550 0.8530 0.8530
1428.154063 0.8530 0.8520 0.8480 0.8450 0.8420
1432.552896 0.8410 0.8400 0.8350 0.8330 0.8230
1436.951728 0.8110 0.7970 0.7910 0.7840 0.7790
1441.350561 0.7690 0.7580 0.7420 0.7250 0.7100
1445.749394 0.7060 0.6920 0.6800 0.6700 0.6531
1450.148227 0.6380 0.6330 0.6190 0.6090 0.6090
1454.547060 0.6230 0.6240 0.6240 0.6200 0.6110
1458.945893 0.6050 0.6090 0.6200 0.6230 0.6270
1463.344726 0.6300 0.6340 0.6380 0.6450 0.6480
1467.743558 0.6590 0.6640 0.6700 0.6770 0.6820
1472.142391 0.6890 0.6920 0.6950 0.6970 0.7020
1476.541224 0.7070 0.7100 0.7140 0.7180 0.7260
1480.940057 0.7390 0.7400 0.7430 0.7500 0.7600
1485.338890 0.7650 0.7770 0.7820 0.7880 0.7930
1489.737723 0.7950 0.8010 0.8090 0.8130 0.8160
1494.136556 0.8190 0.8230 0.8270 0.8340 0.8380
1498.535389 0.8520 0.8560 0.8620 0.8670 0.8740
1502.934221 0.8910 0.8930 0.8950 0.8950 0.8960
1507.333054 0.8950 0.8930 0.8960 0.9030 0.9130
1511.731887 0.9150 0.9150 0.9170 0.9180 0.9200
1516.130720 0.9200 0.9150 0.9150 0.9140 0.9130
1520.529553 0.9110 0.9100 0.9080 0.9100 0.9100
1524.928386 0.9110 0.9110 0.9110 0.9130 0.9140
1529.327219 0.9150 0.9170 0.9170 0.9170 0.9180
1533.726051 0.9180 0.9200 0.9200 0.9200 0.9200
1538.124884 0.9180 0.9170 0.9080 0.9060 0.9070
1542.523717 0.9080 0.9100 0.9110 0.9130 0.9140
1546.922550 0.9140 0.9140 0.9140 0.9140 0.9130
1551.321383 0.9130 0.9130 0.9110 0.9100 0.9080
1555.720216 0.9040 0.9040 0.9020 0.9000 0.8990
1560.119049 0.9000 0.9000 0.9030 0.9040 0.9070
1564.517881 0.9080 0.9100 0.9100 0.9100 0.9100
1568.916714 0.9110 0.9130 0.9140 0.9140 0.9150
1573.315547 0.9140 0.9130 0.9110 0.9100 0.9110
1577.714380 0.9150 0.9170 0.9180 0.9210 0.9240
1582.113213 0.9240 0.9240 0.9250 0.9260 0.9260
1586.512046 0.9280 0.9290 0.9320 0.9330 0.9350
1590.910879 0.9350 0.9350 0.9350 0.9330 0.9330
1595.309712 0.9330 0.9330 0.9320 0.9310 0.9290
1599.708544 0.9260 0.9220 0.9180 0.9150 0.9110
1604.107377 0.9070 0.9040 0.8990 0.8930 0.8910
1608.506210 0.8860 0.8820 0.8740 0.8550 0.8440
1612.905043 0.8380 0.8340 0.8280 0.8190 0.8000
1617.303876 0.7800 0.7620 0.7470 0.7330 0.7180
1621.702709 0.7000 0.6800 0.6531 0.6191 0.5841
1626.101542 0.5650 0.5510 0.5370 0.5080 0.4770
1630.500374 0.4600 0.3432 0.3210 0.3001 0.2731
1634.899207 0.2328 0.1689 0.1370 0.1250 0.1150
1639.298040 0.0990 0.0780 0.0570 0.0340 0.0220
1643.696873 0.0130 0.0060 0.0020 0.0000 0.0000
1648.095706 0.0000 0.0000 0.0000 0.0000 0.0000
1652.494539 0.0000 0.0000 0.0000 0.0000 0.0000
1656.893372 0.0000 0.0000 0.0000 0.0000 0.0000
1661.292204 0.0000 0.0000 0.0000 0.0000 0.0000
1665.691037 0.0000 0.0000 0.0000 0.0000 0.0000
1670.089870 0.0000 0.0000 0.0010 0.0010 0.0020
1674.488703 0.0020 0.0060 0.0150 0.0280 0.0370
1678.887536 0.0420 0.0491 0.1240 0.1440 0.1710
1683.286369 0.2000 0.2349 0.2729 0.3149 0.3579
1687.685202 0.4051 0.4521 0.4822 0.6040 0.6420
1692.084034 0.6910 0.7290 0.7610 0.7859 0.8059
1696.482867 0.8230 0.8350 0.8450 0.8550 0.8630
1700.881700 0.8710 0.8810 0.8910 0.8930 0.8930
1705.280533 0.8950 0.8960 0.8990 0.9000 0.9030
1709.679366 0.9060 0.9070 0.9100 0.9110 0.9130
1714.078199 0.9140 0.9140 0.9140 0.9150 0.9150
1718.477032 0.9150 0.9150 0.9150 0.9170 0.9170
1722.875865 0.9170 0.9170 0.9170 0.9150 0.9140
1727.274697 0.9140 0.9110 0.9080 0.9060 0.9040
1731.673530 0.9020 0.9000 0.8970 0.8960 0.8930
1736.072363 0.8920 0.8910 0.8880 0.8850 0.8840
1740.471196 0.8820 0.8810 0.8770 0.8750 0.8740
1744.870029 0.8730 0.8710 0.8710 0.8710 0.8730
1749.268862 0.8750 0.8800 0.8810 0.8850 0.8910
1753.667695 0.8920 0.8930 0.8930 0.8950 0.8960
1758.066527 0.8990 0.9000 0.9030 0.9070 0.9100
1762.465360 0.9140 0.9170 0.9200 0.9220 0.9240
1766.864193 0.9250 0.9250 0.9260 0.9290 0.9320
1771.263026 0.9350 0.9360 0.9360 0.9390 0.9430
1775.661859 0.9440 0.9460 0.9470 0.9480 0.9500
1780.060692 0.9510 0.9530 0.9550 0.9550 0.9570
1784.459525 0.9600 0.9600 0.9620 0.9620 0.9640
1788.858357 0.9650 0.9650 0.9660 0.9660 0.9680
1793.257190 0.9680 0.9690 0.9690 0.9710 0.9710
1797.656023 0.9710 0.9730 0.9720 0.9730 0.9730
1802.054856 0.9750 0.9750 0.9760 0.9760 0.9770
1806.453689 0.9770 0.9770 0.9790 0.9790 0.9790
1810.852522 0.9800 0.9800 0.9800 0.9800 0.9800
1815.251355 0.9800 0.9800 0.9800 0.9800 0.9800
1819.650188 0.9790 0.9790 0.9770 0.9770 0.9770
1824.049020 0.9760 0.9760 0.9750 0.9750 0.9750
1828.447853 0.9730 0.9730 0.9730 0.9720 0.9720
1832.846686 0.9710 0.9710 0.9710 0.9690 0.9680
1837.245519 0.9660 0.9660 0.9640 0.9640 0.9620
1841.644352 0.9610 0.9580 0.9580 0.9600 0.9600
1846.043185 0.9600 0.9610 0.9620 0.9620 0.9620
1850.442018 0.9620 0.9610 0.9600 0.9600 0.9580
1854.840850 0.9570 0.9550 0.9550 0.9550 0.9550
1859.239683 0.9550 0.9570 0.9600 0.9600 0.9610
1863.638516 0.9600 0.9600 0.9600 0.9610 0.9610
1868.037349 0.9620 0.9620 0.9640 0.9660 0.9680
1872.436182 0.9680 0.9690 0.9690 0.9710 0.9710
1876.835015 0.9710 0.9720 0.9720 0.9720 0.9720
1881.233848 0.9720 0.9720 0.9720 0.9720 0.9720
1885.632680 0.9720 0.9720 0.9720 0.9720 0.9730
1890.031513 0.9730 0.9750 0.9760 0.9770 0.9770
1894.430346 0.9770 0.9790 0.9790 0.9790 0.9790
1898.829179 0.9790 0.9790 0.9790 0.9790 0.9790
1903.228012 0.9790 0.9790 0.9770 0.9770 0.9770
1907.626845 0.9760 0.9760 0.9760 0.9750 0.9730
1912.025678 0.9720 0.9720 0.9720 0.9710 0.9690
1916.424510 0.9680 0.9680 0.9680 0.9680 0.9680
1920.823343 0.9660 0.9660 0.9650 0.9660 0.9660
1925.222176 0.9660 0.9660 0.9660 0.9660 0.9660
1929.621009 0.9660 0.9660 0.9660 0.9660 0.9660
1934.019842 0.9660 0.9660 0.9680 0.9690 0.9710
1938.418675 0.9710 0.9720 0.9720 0.9730 0.9750
1942.817508 0.9770 0.9770 0.9790 0.9790 0.9790
1947.216341 0.9800 0.9800 0.9820 0.9820 0.9830
1951.615173 0.9830 0.9830 0.9840 0.9840 0.9840
1956.014006 0.9840 0.9840 0.9840 0.9840 0.9840
1960.412839 0.9830 0.9830 0.9830 0.9830 0.9840
1964.811672 0.9840 0.9840 0.9840 0.9840 0.9840
1969.210505 0.9840 0.9840 0.9860 0.9860 0.9860
1973.609338 0.9860 0.9860 0.9860 0.9840 0.9840
1978.008171 0.9840 0.9840 0.9840 0.9860 0.9860
1982.407003 0.9860 0.9860 0.9860 0.9860 0.9860
1986.805836 0.9840 0.9840 0.9840 0.9840 0.9840
1991.204669 0.9840 0.9840 0.9840 0.9840 0.9840
1995.603502 0.9840 0.9860 0.9870 0.9870 0.9880
2000.002335 0.9880 0.9880 0.9880 0.9880 0.9880
2004.401168 0.9880 0.9880 0.9875 0.9870 0.9870
2008.800001 0.9870 0.9870 0.9870 0.9865 0.9860
2013.198833 0.9860 0.9860 0.9860 0.9860 0.9860
2017.597666 0.9860 0.9860 0.9860 0.9860 0.9860
2021.996499 0.9865 0.9870 0.9870 0.9870 0.9870
2026.395332 0.9870 0.9870 0.9870 0.9870 0.9870
2030.794165 0.9870 0.9870 0.9870 0.9870 0.9870
2035.192998 0.9870 0.9865 0.9860 0.9860 0.9860
2039.591831 0.9850 0.9840 0.9835 0.9830 0.9830
2043.990664 0.9830 0.9830 0.9830 0.9830 0.9830
2048.389496 0.9830 0.9830 0.9830 0.9830 0.9830
2052.788329 0.9830 0.9830 0.9830 0.9835 0.9840
2057.187162 0.9840 0.9840 0.9840 0.9840 0.9840
2061.585995 0.9840 0.9850 0.9860 0.9860 0.9860
2065.984828 0.9860 0.9860 0.9860 0.9860 0.9865
2070.383661 0.9870 0.9870 0.9870 0.9870 0.9870
2074.782494 0.9870 0.9870 0.9870 0.9870 0.9870
2079.181326 0.9870 0.9870 0.9870 0.9870 0.9870
2083.580159 0.9865 0.9860 0.9865 0.9870 0.9870
2087.978992 0.9870 0.9870 0.9870 0.9875 0.9880
2092.377825 0.9890 0.9900 0.9905 0.9910 0.9910
2096.776658 0.9910 0.9910 0.9910 0.9905 0.9900
2101.175491 0.9900 0.9900 0.9900 0.9900 0.9890
2105.574324 0.9880 0.9880 0.9880 0.9880 0.9880
2109.973156 0.9890 0.9900 0.9900 0.9900 0.9900
2114.371989 0.9900 0.9900 0.9900 0.9900 0.9900
2118.770822 0.9900 0.9900 0.9900 0.9900 0.9891
2123.169655 0.9880 0.9880 0.9880 0.9880 0.9880
2127.568488 0.9880 0.9880 0.9875 0.9870 0.9875
2131.967321 0.9880 0.9875 0.9870 0.9870 0.9870
2136.366154 0.9870 0.9870 0.9870 0.9870 0.9865
2140.764987 0.9860 0.9860 0.9860 0.9851 0.9841
2145.163819 0.9840 0.9840 0.9840 0.9840 0.9840
2149.562652 0.9840 0.9849 0.9859 0.9860 0.9860
2153.961485 0.9860 0.9860 0.9860 0.9860 0.9860
2158.360318 0.9860 0.9865 0.9870 0.9875 0.9880
2162.759151 0.9880 0.9880 0.9880 0.9880 0.9880
2167.157984 0.9880 0.9889 0.9899 0.9900 0.9900
2171.556817 0.9891 0.9881 0.9875 0.9870 0.9870
2175.955649 0.9870 0.9870 0.9870 0.9870 0.9870
2180.354482 0.9865 0.9860 0.9865 0.9870 0.9865
2184.753315 0.9860 0.9860 0.9860 0.9860 0.9860
2189.152148 0.9851 0.9841 0.9835 0.9830 0.9825
2193.550981 0.9820 0.9811 0.9801 0.9800 0.9800
2197.949814 0.9800 0.9800 0.9800 0.9800 0.9800
2202.348647 0.9800 0.9800 0.9800 0.9809 0.9819
2206.747479 0.9820 0.9820 0.9829 0.9839 0.9849
2211.146312 0.9859 0.9860 0.9860 0.9865 0.9870
2215.545145 0.9870 0.9870 0.9870 0.9870 0.9875
2219.943978 0.9880 0.9889 0.9899 0.9900 0.9900
2224.342811 0.9900 0.9900 0.9900 0.9900 0.9900
2228.741644 0.9900 0.9900 0.9900 0.9900 0.9900
2233.140477 0.9891 0.9881 0.9880 0.9880 0.9880
2237.539309 0.9880 0.9880 0.9880 0.9880 0.9880
