##TITLE=N-Methylallylamine
##JCAMP-DX=4.24
##DATA TYPE=INFRARED SPECTRUM
##ORIGIN=EPA-IR VAPOR PHASE LIBRARY
##OWNER=SRD/NIST
Collection (C) 2018 copyright by the U.S. Secretary of Commerce
on behalf of the United States of America. All rights reserved.
##CAS REGISTRY NO=627-37-2
##MOLFORM=C 4 H 9 N
##$NIST SOURCE=MSDC-IR
##STATE=gas
##XUNITS=1/CM
##YUNITS=ABSORBANCE
##XFACTOR=1.
##YFACTOR=0.001
##DELTAX=1.92898
##FIRSTX=549.8
##LASTX=4000.7
##FIRSTY=5.08
##MAXX=4000.7
##MINX=549.759
##MAXY=0.33267
##MINY=0.0007845
##NPOINTS=1790
##XYDATA=(X++(Y..Y))
549.759 5.08 4.95 5.17 5.67 5.95 6.02 6.19 6.46 6.83 7.11
569.049 7.13 7.33 7.65 7.82 8.16 8.8 9.21 9.27 9.68 10.24
588.339 10.43 10.8 11.42 11.73 11.95 12.35 13.26 13.94 14.32 14.98
607.628 15.76 16.6 17.22 17.87 18.6 19.31 20.24 21.22 22.25 23.25
626.918 24.15 25.11 26.06 27.26 28.5 29.47 30.83 32.26 33.51 34.8
646.208 36.16 37.68 39.08 40.42 41.91 43.21 44.65 46.4 47.81 49.23
665.498 50.63 51.94 53.36 54.59 55.92 57.38 58.57 59.74 60.78 62.13
684.787 63.42 64.31 65.31 66.08 66.78 67.33 67.84 68.33 68.65 68.57
704.077 68.49 68.28 67.62 67.08 66.58 65.8 64.7 63.26 61.6 60.22
723.367 58.74 56.87 54.85 52.81 50.84 48.88 46.83 44.83 43.06 41.2
742.657 39.37 37.69 35.95 34.35 33.16 32.09 30.79 29.46 28.18 27.09
761.947 26.1 25.35 24.56 23.61 22.79 22.03 21.29 20.47 19.78 19.18
781.236 18.52 17.98 17.4 16.54 15.98 15.49 14.93 14.59 14.17 13.84
800.526 13.41 12.84 12.36 11.82 11.58 11.4 10.96 10.7 10.62 10.56
819.816 10.4 10.33 10.3 9.99 9.93 10.2 10.37 10.46 10.43 10.43
839.106 10.61 10.92 10.96 11.05 11.29 11.51 11.69 11.69 11.92 11.94
858.395 12.02 12.38 12.45 12.38 12.4 12.51 12.7 12.66 12.66 12.87
877.685 12.95 12.84 12.71 12.93 13.11 13.23 13.3 13.27 13.24 13.3
896.975 13.45 13.58 13.74 13.84 13.87 13.96 14.15 14.61 14.8 15.04
916.265 15.61 16.04 16.62 17.23 17.71 18.13 18.51 18.88 19.08 19.23
935.555 19.39 19.25 19.01 18.93 18.81 18.49 18.01 17.56 17.03 16.23
954.844 15.31 14.43 13.74 12.86 11.69 10.81 10.34 9.77 8.92 8.35
974.134 7.9 7.46 7.2 7 6.82 6.62 6.44 6.31 6.12 5.81
993.424 5.82 6.11 6.25 6.19 6.23 6.51 6.9 7.16 7.38 7.69
1012.714 8.11 8.71 9.21 9.53 9.87 10.44 11.37 12.08 12.53 12.94
1032.003 13.88 15.3 16.07 16.62 17.55 18.73 19.57 20.44 21.48 22.62
1051.293 23.87 24.78 25.61 26.37 27.24 27.99 28.12 28.15 28.34 28.25
1070.583 28.22 28.59 28.94 29.12 29.02 28.7 28.11 27.43 26.77 26.42
1089.873 26.44 26.67 27.04 27.86 29.21 30.57 32.28 33.72 35.25 37.58
1109.163 39.6 41.37 44.16 47.48 50.51 53.34 56.41 59.53 62.67 65.68
1128.452 68.07 70.16 72.27 74.8 77.43 79.2 80.19 80.3 79.48 77.88
1147.742 75.61 73.61 71.54 69 66.53 64.4 62.02 59.38 56.34 52.35
1167.032 47.58 42.65 37.49 32.35 28 24.07 20.51 17.85 15.64 13.67
1186.322 11.98 10.38 9.09 7.82 6.92 6.23 5.32 4.55 3.79 3.44
1205.611 3.26 2.9 2.59 2.31 2.22 2.05 1.65 1.45 1.53 1.53
1224.901 1.72 2.18 2.68 3.06 3.3 3.69 4.14 4.2 4.14 4.62
1244.191 4.94 4.94 5.12 5.32 5.41 5.77 5.87 5.4 5.32 5.35
1263.481 5.14 5.2 5.49 5.63 5.94 6.31 6.31 6.38 6.72 6.9
1282.771 7.16 7.43 7.57 7.85 8.18 8.51 8.75 8.93 9 9.01
1302.060 8.99 8.91 8.91 8.99 9.06 9.12 9.19 9.22 9.26 9.36
1321.350 9.6 9.99 10.48 11.07 11.76 12.53 13.35 14.1 14.89 15.76
1340.640 16.77 17.88 18.83 19.65 20.59 21.69 22.75 23.57 24.29 25.03
1359.930 25.72 26.4 27.16 28.05 28.99 29.76 30.25 30.49 30.43 30
1379.219 29.47 29.23 28.72 27.39 25.95 25.34 25.4 25.34 24.65 23.22
1398.509 21.48 19.71 18.16 17.06 16.4 16.14 16.26 16.72 17.36 18.22
1417.799 19.46 20.94 22.58 24.59 27.07 29.9 33.11 36.61 40.3 44.01
1437.089 47.96 51.71 54.99 57.95 60.98 63.86 66.37 68.82 71.61 74.35
1456.378 76.88 78.96 80.09 80.63 80.46 79.43 77.64 75.29 72.61 69.63
1475.668 66.69 64.22 62.22 60.09 57.42 53.99 49.93 45.61 41.1 36.77
1494.958 32.72 29.01 25.88 23.17 20.86 18.95 17.3 15.81 14.49 13.36
1514.248 12.31 11.3 10.46 9.89 9.29 8.69 8.24 7.82 7.52 7.31
1533.538 6.99 6.61 6.38 6.18 5.95 5.79 5.68 5.55 5.37 5.23
1552.827 5.2 5.12 4.92 4.85 4.91 4.81 4.6 4.49 4.47 4.46
1572.117 4.43 4.36 4.32 4.12 3.87 3.88 3.83 3.67 3.73 3.62
1591.407 3.55 3.62 3.48 3.36 3.27 3.24 3.35 3.34 3.32 3.34
1610.697 3.31 3.16 3.04 2.93 2.79 2.92 3.01 3 2.99 2.86
1629.986 2.76 2.69 2.6 2.7 2.78 2.75 2.62 2.55 2.56 2.59
1649.276 2.62 2.61 2.53 2.47 2.51 2.51 2.34 2.34 2.32 2.17
1668.566 2.17 2.12 2.11 2.17 2.14 2.04 1.97 1.92 1.86 1.92
1687.856 1.87 1.73 1.74 1.71 1.59 1.53 1.52 1.51 1.44 1.35
1707.146 1.24 1.14 1.19 1.24 1.22 1.18 1.08 0.976 0.9318 0.8909
1726.435 0.9246 0.947 0.9709 0.9409 0.9639 0.9406 0.8427 0.8137 0.7845 0.8363
1745.725 0.923 0.8946 0.8923 0.9825 0.9488 0.9132 0.9106 0.9277 0.9565 0.9736
1765.015 0.9486 0.9807 1.1 1.16 1.11 1.02 1.1 1.21 1.22 1.22
1784.305 1.32 1.33 1.28 1.32 1.38 1.47 1.47 1.47 1.55 1.62
1803.594 1.63 1.68 1.6 1.6 1.8 1.87 1.85 1.85 1.9 1.92
1822.884 1.98 2.1 2.12 2.14 2.15 2.17 2.21 2.18 2.07 2.01
1842.174 2.12 2.22 2.18 2.11 2.13 2.18 2.13 2 1.91 1.91
1861.464 1.9 1.81 1.77 1.79 1.74 1.64 1.62 1.59 1.55 1.51
1880.754 1.41 1.39 1.41 1.4 1.4 1.38 1.3 1.18 1.16 1.15
1900.043 1.17 1.2 1.17 1.16 1.18 1.22 1.19 1.13 1.15 1.19
1919.333 1.18 1.1 1.05 1.07 1.07 1.03 0.9919 0.9898 1.02 0.9837
1938.623 0.9925 1.11 1.14 1.1 1.1 1.11 1.07 1.1 1.16 1.14
1957.913 1.11 1.13 1.1 1.03 1.03 1.14 1.22 1.25 1.24 1.23
1977.202 1.25 1.25 1.24 1.28 1.32 1.28 1.23 1.26 1.33 1.36
1996.492 1.35 1.33 1.37 1.38 1.38 1.37 1.37 1.47 1.56 1.57
2015.782 1.57 1.58 1.61 1.6 1.63 1.69 1.74 1.77 1.76 1.82
2035.072 1.91 2.02 1.96 1.89 1.96 1.98 2.01 1.99 1.97 2.02
2054.362 2.03 2.07 2.11 2.12 2.16 2.19 2.23 2.17 2.15 2.18
2073.651 2.2 2.24 2.25 2.18 2.18 2.26 2.19 2.09 2.09 2.06
2092.941 2.03 2 2.01 2.01 1.97 1.85 1.79 1.78 1.73 1.65
2112.231 1.56 1.48 1.5 1.49 1.38 1.36 1.39 1.39 1.43 1.4
2131.521 1.34 1.43 1.43 1.37 1.37 1.41 1.42 1.4 1.42 1.45
2150.810 1.47 1.5 1.51 1.57 1.63 1.65 1.74 1.77 1.73 1.74
2170.100 1.71 1.73 1.83 1.87 1.88 1.87 1.85 1.82 1.87 1.94
2189.390 1.95 1.99 1.98 2.01 2.03 1.99 1.97 1.94 1.98 2.02
2208.680 1.95 1.92 1.99 2 1.94 1.93 1.9 1.89 1.85 1.83
2227.970 1.81 1.81 1.89 1.82 1.71 1.75 1.84 1.88 1.85 1.86
2247.259 1.84 1.81 1.86 1.86 1.85 1.82 1.82 1.85 1.8 1.8
2266.549 1.86 1.87 1.84 1.77 1.77 1.82 1.76 1.77 1.82 1.8
2285.839 1.86 1.89 1.92 1.91 1.87 1.95 1.93 1.9 1.95 1.93
2305.129 1.96 2 2.02 2.01 1.98 2 2.04 2.06 2.09 2.04
2324.418 2.05 2.19 2.29 2.29 2.28 2.33 2.41 2.44 2.4 2.37
2343.708 2.4 2.51 2.58 2.54 2.52 2.56 2.57 2.61 2.55 2.4
2362.998 2.41 2.5 2.53 2.52 2.48 2.45 2.47 2.49 2.4 2.44
2382.288 2.54 2.57 2.57 2.57 2.59 2.54 2.54 2.54 2.53 2.68
2401.578 2.76 2.69 2.65 2.62 2.7 2.71 2.68 2.67 2.63 2.72
2420.867 2.72 2.67 2.73 2.72 2.67 2.69 2.7 2.67 2.63 2.62
2440.157 2.69 2.76 2.61 2.61 2.73 2.77 2.74 2.76 2.76 2.65
2459.447 2.69 2.69 2.65 2.73 2.75 2.71 2.81 2.86 2.8 2.74
2478.737 2.79 2.89 3.01 3.08 3.13 3.22 3.22 3.36 3.43 3.36
2498.026 3.43 3.61 3.76 3.83 3.83 3.91 4.03 4.1 4.14 4.17
2517.316 4.22 4.31 4.44 4.45 4.45 4.45 4.49 4.48 4.5 4.59
2536.606 4.64 4.76 4.82 4.8 4.91 4.96 5.04 5.21 5.19 5.15
2555.896 5.22 5.39 5.54 5.57 5.6 5.76 5.88 5.95 6.09 6.2
2575.186 6.24 6.35 6.56 6.69 6.74 6.82 6.97 7.07 7.21 7.35
2594.475 7.5 7.63 7.78 8 8.18 8.35 8.45 8.54 8.73 8.88
2613.765 9.02 9.23 9.44 9.66 9.8 9.96 10.13 10.26 10.47 10.59
2633.055 10.75 11.03 11.27 11.46 11.67 11.93 12.18 12.33 12.5 12.81
2652.345 13.21 13.59 13.89 14.22 14.57 14.87 15.22 15.68 16.12 16.61
2671.634 17.06 17.4 17.91 18.42 18.87 19.42 19.92 20.26 20.69 21.24
2690.924 21.77 22.23 22.57 23.05 23.56 23.94 24.28 24.68 25.07 25.5
2710.214 26.02 26.52 26.88 27.24 27.64 28.22 28.73 29.24 29.8 30.22
2729.504 30.84 31.58 32.23 33.03 33.95 34.88 36.04 37.39 38.86 40.59
2748.794 42.51 44.62 47.02 49.8 52.9 56.25 60.1 64.52 69.28 74.39
2768.083 80.04 86.32 93.16 100.33 107.95 116.04 124.36 132.65 140.7 148.56
2787.373 156.17 163.2 169.73 175.93 180.95 184.53 187.36 189.56 191.01 191.7
2806.663 191.44 190.17 187.92 184.7 181.26 177.54 173.37 169.43 165.61 161.89
2825.953 158.55 155.65 153.15 151.16 149.85 149.24 149.16 149.52 150.32 151.61
2845.242 153.2 154.89 156.97 159.5 162.13 164.57 167.25 170.18 172.96 175.54
2864.532 178.47 181.8 185.13 188.58 192.17 195.35 198.07 200.28 201.81 202.96
2883.822 204.53 206.55 208.58 210.79 213.33 216 217.9 218.93 219.16 219.08
2903.112 219.5 220.41 222.09 224.46 227.14 230.24 234.13 238.69 243.54 249.1
2922.401 255.35 262.09 269.34 276.99 284.36 291.49 298.27 303.97 309.11 313.59
2941.691 317.32 320.9 323.99 326.47 328.61 330.3 331.74 332.67 332.57 331.98
2960.981 330.93 329.29 327.21 323.01 313.3 299.29 285.99 274.48 263.45 252.51
2980.271 240.87 227.82 213.45 197.64 180.75 163.74 147.11 131.48 117.07 104.11
2999.561 92.78 82.53 73.63 66.18 59.53 53.77 48.88 44.52 40.68 37.52
3018.850 34.75 32.31 30.4 28.65 26.93 25.51 24.44 23.6 22.75 21.7
3038.140 20.89 20.33 19.62 19.09 18.7 18.14 17.64 17.27 17 16.66
3057.430 16.26 15.84 15.66 15.4 14.97 14.88 14.59 14.08 13.84 13.63
3076.720 13.47 13.15 12.74 12.59 12.33 12.07 11.81 11.37 10.99 10.77
3096.009 10.51 10.1 9.73 9.48 9.15 8.99 8.89 8.58 8.33 8.14
3115.299 7.81 7.43 7.21 7.19 7.07 6.9 6.77 6.54 6.32 6.18
3134.589 6.12 6.09 6.1 6.09 6.08 5.93 5.79 5.84 5.91 5.91
3153.879 5.96 6.06 6.07 6.1 6.11 6.07 6.11 6.1 6.08 6.1
3173.169 6 5.98 5.97 5.98 5.95 5.72 5.52 5.35 5.36 5.6
3192.458 5.51 5.21 5.17 5.14 4.99 4.91 4.88 4.84 4.61 4.32
3211.748 4.38 4.4 4.22 4.18 4.19 4.05 3.92 3.88 3.8 3.7
3231.038 3.65 3.55 3.37 3.24 3.34 3.4 3.35 3.22 3.06 2.95
3250.328 3.02 3.12 3.16 3.22 3.23 3.13 3.01 3 2.97 3
3269.617 2.85 2.76 2.77 2.77 2.68 2.59 2.75 2.72 2.58 2.55
3288.907 2.54 2.45 2.46 2.58 2.5 2.5 2.58 2.55 2.48 2.46
3308.197 2.36 2.15 2.1 2.21 2.29 2.33 2.42 2.49 2.48 2.36
3327.487 2.33 2.43 2.42 2.36 2.25 2.35 2.37 2.32 2.33 2.33
3346.777 2.31 2.34 2.5 2.57 2.63 2.65 2.61 2.58 2.63 2.71
3366.066 2.66 2.71 2.83 2.83 2.7 2.56 2.59 2.65 2.73 2.59
3385.356 2.62 2.63 2.68 2.83 2.83 2.86 2.78 2.7 2.57 2.62
3404.646 2.58 2.46 2.54 2.53 2.32 2.21 2.16 2.24 2.39 2.27
3423.936 2.26 2.32 2.25 2.22 2.35 2.36 2.01 1.85 2 2.09
3443.225 2.1 1.97 1.96 2.08 2.16 2.11 2.04 2.01 1.76 1.69
3462.515 1.92 2.08 2.02 1.77 1.8 1.96 2.03 1.97 1.82 1.83
3481.805 1.96 2.11 2.06 2.03 1.92 1.76 1.73 1.61 1.66 1.87
3501.095 1.83 1.71 1.84 1.86 1.78 1.91 2.06 1.96 2 1.97
3520.385 1.73 1.73 1.89 2.12 2.11 1.77 1.57 1.7 1.79 1.9
3539.674 1.97 1.83 1.83 2.04 2.11 1.92 1.8 1.71 1.57 1.57
3558.964 1.64 1.69 1.91 2.1 2.12 1.94 1.64 1.66 1.82 1.96
3578.254 2.05 2.09 2.02 2.01 2.12 2.14 2.07 1.85 1.89 1.9
3597.544 1.75 1.83 1.92 2.01 2.01 1.72 1.68 1.84 1.87 1.97
3616.833 2.05 2.2 2.16 2.1 2.09 1.91 1.86 2.03 1.9 1.78
3636.123 1.92 2.11 2.18 2.1 2.12 2.08 1.97 2.11 2.36 2.34
3655.413 2.24 2.28 2.33 2.43 2.39 2.09 2.23 2.46 2.45 2.58
3674.703 2.53 2.45 2.35 2.24 2.31 2.27 2.32 2.44 2.49 2.58
3693.993 2.51 2.32 2.23 2.29 2.38 2.48 2.45 2.35 2.48 2.49
3713.282 2.29 2.39 2.46 2.45 2.41 2.39 2.56 2.49 2.51 2.54
3732.572 2.35 2.4 2.51 2.67 2.66 2.51 2.68 2.86 2.71 2.3
3751.862 2 2.19 2.38 2.43 2.57 2.66 2.52 2.61 2.65 2.56
3771.152 2.52 2.54 2.58 2.59 2.58 2.46 2.62 2.61 2.63 2.78
3790.441 2.7 2.54 2.68 2.8 2.67 2.55 2.49 2.69 2.8 2.76
3809.731 2.62 2.62 2.66 2.8 2.99 2.73 2.65 2.85 2.8 2.93
3829.021 3.22 3.21 2.94 2.89 2.88 2.63 2.58 2.7 2.61 2.66
3848.311 3.02 3.24 3.03 2.91 2.88 2.64 2.81 2.9 2.94 2.84
3867.601 2.6 2.67 2.95 3 2.78 2.84 3 3.1 3.05 3.05
3886.890 3.1 3.01 2.81 3.01 3.24 3.3 3.26 3.09 3.17 3.43
3906.180 3.39 3.01 2.86 3 3.02 3.11 3.38 3.49 3.3 3.42
3925.470 3.83 3.83 3.87 3.84 3.73 3.87 3.81 3.56 3.42 3.52
3944.760 3.81 3.94 3.99 3.87 3.83 4.1 4.26 4.35 4.06 4.04
3964.049 4.15 3.94 4.07 4.18 4.14 4.13 4 4.1 4.23 4.13
3983.339 4.16 4.1 4.14 4.22 4.07 3.98 4.04 4.04 4 3.96
##END=
