##TITLE=N,N-Dimethylthioacetamide
##JCAMP-DX=4.24
##DATA TYPE=INFRARED SPECTRUM
##ORIGIN=EPA-IR VAPOR PHASE LIBRARY
##OWNER=SRD/NIST
Collection (C) 2018 copyright by the U.S. Secretary of Commerce
on behalf of the United States of America. All rights reserved.
##CAS REGISTRY NO=631-67-4
##MOLFORM=C 4 H 9 N S
##$NIST SOURCE=MSDC-IR
##STATE=gas
##XUNITS=1/CM
##YUNITS=ABSORBANCE
##XFACTOR=1.
##YFACTOR=0.001
##DELTAX=3.85796
##FIRSTX=551.7
##LASTX=4000.7
##FIRSTY=0.1777
##MAXX=4000.7
##MINX=551.688
##MAXY=0.1185
##MINY=0.00004928
##NPOINTS=895
##XYDATA=(X++(Y..Y))
551.688 0.1777 0.2782 0.2791 0.1695 0.1419 0.1535 0.2533 0.3319 0.1654 0.1021
590.268 0.307 0.3368 0.4823 0.7324 0.7394 0.7939 0.9838 1.11 1.18 1.35
628.847 1.36 1.44 1.57 1.61 1.78 1.94 1.92 1.85 1.89 1.77
667.427 1.68 1.51 1.01 0.5295 0.3188 0.2957 0.3163 0.2529 0.2023 0.2779
706.006 0.2967 0.3937 0.4912 0.5536 0.5705 0.5559 0.7092 0.796 0.8154 0.9377
744.586 1.08 1.09 1.02 1.08 1.14 1.16 1.14 1.06 1 0.9104
783.165 0.8238 0.7647 0.7165 0.6865 0.6001 0.5977 0.6926 0.7999 0.9827 1.09
821.745 1.09 1.25 1.56 1.83 2.16 2.63 3.36 4.43 5.79 7.21
860.324 8.34 9.05 9.27 9.04 8.46 7.52 6.04 4.11 2.7 2.05
898.904 1.77 1.72 1.68 1.7 1.81 1.89 1.96 2.11 2.21 2.37
937.484 2.64 2.94 3.31 3.69 4.04 4.5 5.18 5.94 6.84 8.12
976.063 9.69 11.8 14.75 18.69 23.78 29.67 35.46 39.9 42.3 43.05
1014.643 42.38 40.06 36.62 31.92 26.37 21.56 18.39 16.65 15.5 14.46
1053.222 13.46 12.46 11.41 10.55 9.71 8.84 8.19 7.59 7.15 6.86
1091.802 6.86 6.97 7.05 7.29 7.83 8.45 8.92 10 11.69 13.28
1130.381 14.8 16.48 18.28 20.28 22.3 24.46 26.6 28.53 30.84 33.96
1168.961 37.53 40.35 41.82 42.32 41.75 40.09 37.32 33.58 29.16 24.53
1207.540 20.91 18.24 16.12 14.63 13.96 13.46 13.1 13.12 13.1 13.46
1246.120 14.07 15.06 16.99 20.09 24.67 31.38 40.34 51.04 61.94 71.39
1284.699 77.97 81.22 81.6 78.79 71.7 59.7 45.37 33.24 25.54 21.62
1323.279 20.08 20.03 21.01 22.9 25.83 29.99 35.68 43.01 51.68 60.74
1361.859 69.83 79.51 90.63 103.85 114.55 118.5 117.46 114.21 109.74 104.61
1400.438 98.74 89.73 77.47 66.49 58.69 53.13 49.92 45.42 39.1 34.1
1439.018 31.19 30.03 30 31.17 33.62 37.51 42.48 48.61 55.17 61.57
1477.597 67.09 71.22 73.64 74.05 72.61 69.68 65.98 62.25 58.65 55.42
1516.177 52.34 49.49 46.7 43.91 40.99 37.95 34.81 31.59 28.45 25.33
1554.756 22.38 19.57 17.05 14.91 12.93 11.31 9.9 8.7 7.7 6.89
1593.336 6.22 5.67 5.2 4.81 4.47 4.17 3.9 3.69 3.54 3.38
1631.915 3.24 3.11 3.01 2.99 2.96 3.01 3.1 3.16 3.17 3.13
1670.495 3.09 2.94 2.69 2.47 2.19 1.88 1.66 1.51 1.37 1.3
1709.075 1.24 1.2 1.23 1.21 1.17 1.15 1.14 1.12 1.07 1.01
1747.654 0.969 0.9186 0.8579 0.7557 0.6545 0.629 0.6157 0.5773 0.5434 0.5678
1786.234 0.551 0.515 0.5251 0.5568 0.5484 0.536 0.5454 0.5297 0.5513 0.5666
1824.813 0.5741 0.5901 0.634 0.6663 0.6639 0.6908 0.6836 0.6751 0.6754 0.6919
1863.393 0.7203 0.7004 0.6961 0.7066 0.6761 0.6186 0.6158 0.622 0.5881 0.5549
1901.972 0.5192 0.5001 0.4729 0.4643 0.4544 0.4678 0.5005 0.5325 0.5815 0.6253
1940.552 0.6644 0.6578 0.6491 0.6505 0.6404 0.6086 0.5676 0.5868 0.5653 0.5306
1979.131 0.5566 0.5794 0.6117 0.691 0.7611 0.8404 0.9524 1.03 1.11 1.21
2017.711 1.28 1.3 1.35 1.39 1.39 1.37 1.34 1.26 1.16 1.12
2056.291 1.06 0.9488 0.8442 0.7913 0.7298 0.6351 0.5847 0.5811 0.5517 0.5241
2094.870 0.5412 0.5506 0.5349 0.5431 0.581 0.6253 0.7054 0.8025 0.8768 0.9529
2133.450 1.01 1.04 1.04 1.03 0.9938 0.912 0.8774 0.8399 0.7709 0.7531
2172.029 0.7566 0.7222 0.6865 0.6859 0.6753 0.657 0.6032 0.5462 0.5207 0.5026
2210.609 0.501 0.4407 0.3819 0.373 0.3687 0.39 0.3998 0.3887 0.4051 0.4393
2249.188 0.482 0.5039 0.5079 0.538 0.5702 0.5686 0.566 0.5661 0.5638 0.58
2287.768 0.6076 0.6729 0.675 0.6546 0.6814 0.7009 0.6972 0.657 0.6087 0.6204
2326.347 0.6075 0.5743 0.5916 0.5756 0.5709 0.5659 0.5851 0.5845 0.5596 0.5585
2364.927 0.5286 0.5105 0.5487 0.5508 0.5053 0.4914 0.5038 0.477 0.4899 0.5108
2403.507 0.4582 0.4327 0.4195 0.4195 0.4524 0.4564 0.4505 0.434 0.4057 0.4136
2442.086 0.4049 0.4326 0.4549 0.4571 0.4406 0.4171 0.4284 0.4568 0.4868 0.4494
2480.666 0.4495 0.4895 0.4896 0.4566 0.4458 0.4916 0.5068 0.5094 0.5324 0.5816
2519.245 0.6053 0.5988 0.6098 0.6144 0.6074 0.5834 0.5988 0.6977 0.742 0.7798
2557.825 0.8434 0.9035 0.984 1 0.9923 0.9664 0.8865 0.843 0.8375 0.7912
2596.404 0.7334 0.6638 0.6106 0.578 0.5409 0.557 0.5711 0.55 0.5681 0.6109
2634.984 0.648 0.6593 0.7197 0.8126 0.9071 0.9198 0.944 0.9992 0.9794 1.02
2673.563 1.04 1.01 1.01 1.03 1.08 1.13 1.15 1.19 1.23 1.29
2712.143 1.43 1.47 1.47 1.53 1.58 1.64 1.66 1.74 1.82 1.95
2750.722 2.22 2.41 2.59 2.78 2.99 3.19 3.39 3.62 3.89 4.2
2789.302 4.55 5.07 5.74 6.44 7.15 7.76 8.2 8.5 8.74 8.96
2827.882 9.04 9.04 9.35 10.09 11.07 12.24 13.57 14.93 16.31 17.74
2866.461 19.1 20.34 21.61 22.84 24.02 25.22 26.48 27.97 29.71 31.75
2905.041 34.1 36.94 40.21 43.56 46.77 49.68 52.09 53.89 54.82 54.56
2943.620 53.25 51.02 48.01 44.55 40.8 36.53 31.97 27.7 23.94 20.75
2982.200 18.09 15.87 14.13 12.86 11.95 11.37 11.16 11.12 11.15 11.28
3020.779 11.45 11.62 11.66 11.57 11.34 11 10.55 9.98 9.35 8.66
3059.359 8.01 7.33 6.58 5.99 5.45 4.89 4.43 4.1 3.86 3.58
3097.938 3.33 3.16 3.01 2.86 2.73 2.67 2.54 2.36 2.23 2.08
3136.518 1.97 1.84 1.67 1.54 1.41 1.22 1.12 1.13 1.01 0.8719
3175.098 0.8091 0.8108 0.8387 0.747 0.662 0.6326 0.5771 0.5716 0.5856 0.5628
3213.677 0.4686 0.3982 0.4033 0.3899 0.4405 0.464 0.4246 0.4133 0.4147 0.3261
3252.257 0.2447 0.2312 0.2553 0.2952 0.2793 0.2636 0.2354 0.2251 0.2616 0.293
3290.836 0.2732 0.1882 0.1298 0.2172 0.2326 0.1416 0.2266 0.3366 0.2969 0.2487
3329.416 0.2268 0.1646 0.1386 0.2573 0.2925 0.2988 0.2587 0.1253 0.163 0.164
3367.995 0.1379 0.2142 0.1731 0.1283 0.1488 0.1711 0.2809 0.3512 0.265 0.2066
3406.575 0.232 0.239 0.1616 0.1375 0.2397 0.353 0.3644 0.2956 0.3 0.3678
3445.154 0.3523 0.3326 0.3505 0.3157 0.2761 0.2163 0.2207 0.2275 0.2225 0.3044
3483.734 0.3101 0.2225 0.2076 0.2626 0.2318 0.146 0.1283 0.2219 0.2226 0.2216
3522.314 0.3169 0.2273 0.2044 0.2423 0.2171 0.2077 0.1733 0.1249 0.13 0.1836
3560.893 0.1975 0.178 0.2364 0.2249 0.1886 0.1725 0.1651 0.2103 0.2073 0.2287
3599.473 0.1962 0.1409 0.08788 0.1374 0.1341 0.04928 0.06781 0.1514 0.1563 0.09217
3638.052 0.07352 0.07678 0.1154 0.1485 0.1743 0.1483 0.1314 0.1041 0.1269 0.1733
3676.632 0.1291 0.1694 0.2065 0.1346 0.1096 0.1321 0.1968 0.1537 0.1002 0.1542
3715.211 0.1578 0.09514 0.1144 0.2069 0.1703 0.1248 0.1715 0.1669 0.1259 0.1616
3753.791 0.1994 0.2012 0.1795 0.1973 0.2218 0.1901 0.1364 0.1232 0.1874 0.1991
3792.370 0.2085 0.305 0.2399 0.135 0.1976 0.2275 0.2026 0.2223 0.2025 0.1754
3830.950 0.2262 0.27 0.2733 0.2427 0.1967 0.2571 0.2942 0.2143 0.213 0.3023
3869.530 0.3359 0.2623 0.2551 0.2649 0.3312 0.3712 0.3605 0.3493 0.3005 0.3632
3908.109 0.3703 0.358 0.3444 0.3461 0.4056 0.397 0.3955 0.3838 0.3308 0.363
3946.689 0.414 0.3631 0.2735 0.3084 0.4138 0.4615 0.4353 0.4096 0.4824 0.4864
3985.268 0.4567 0.4502 0.3717 0.3539 0.39
##END=
