##TITLE=Propionamide, 3-bromo-
##JCAMP-DX=4.24
##DATA TYPE=INFRARED SPECTRUM
##CLASS=COBLENTZ
##ORIGIN=DOW CORNING CORP.
##OWNER=Copyright (C) 1987 by the Coblentz Society
Collection (C) 2018 copyright by the U.S. Secretary of Commerce
on behalf of the United States of America. All rights reserved.
##DATE=1967/05/08
##NAMES=3-bromopropanamide
##CAS REGISTRY NO=6320-96-3
##MOLFORM=C3 H6 Br N O
##SOURCE REFERENCE=COBLENTZ NO. 5502
##$NIST SOURCE=COBLENTZ
##$NIST IMAGE=cob5502
##SPECTROMETER/DATA SYSTEM=PERKIN-ELMER 521 (GRATING)
##INSTRUMENT PARAMETERS=FILTERS AT 3150, 2500, 2000, 1150, 700, 410. GRATING CHANGES: 2000, 630
##STATE=FILM
##RESOLUTION=2
$$ SPECTRAL FEATURE AT 615 CM^-^1 IS AN ARTIFACT CAUSED BY GRATING CHANGE
##XUNITS=1/CM
##YUNITS=TRANSMITTANCE
##XFACTOR=1.0
##YFACTOR=1
##FIRSTX=240
##LASTX=3816
##FIRSTY=0.9026
##MAXX=3816
##MINX=240
##MAXY=0.9862
##MINY=0.2538
##NPOINTS=3577
##XYDATA=(X++(Y..Y))
240.000000 0.9026 0.9013 0.9002 0.8989 0.8972
245.000000 0.8958 0.8953 0.8950 0.8952 0.8955
250.000000 0.8959 0.8965 0.8972 0.8978 0.8984
255.000000 0.8988 0.8992 0.8997 0.9001 0.9005
260.000000 0.9010 0.9014 0.9018 0.9023 0.9027
265.000000 0.9030 0.9033 0.9037 0.9040 0.9043
270.000000 0.9046 0.9049 0.9052 0.9056 0.9059
275.000000 0.9062 0.9068 0.9079 0.9092 0.9112
280.000000 0.9133 0.9154 0.9175 0.9199 0.9225
285.000000 0.9251 0.9277 0.9303 0.9329 0.9355
290.000000 0.9371 0.9388 0.9404 0.9420 0.9436
295.000000 0.9447 0.9452 0.9457 0.9462 0.9467
300.000000 0.9472 0.9477 0.9482 0.9487 0.9491
305.000000 0.9496 0.9501 0.9506 0.9511 0.9519
310.000000 0.9530 0.9541 0.9552 0.9564 0.9577
315.000000 0.9589 0.9602 0.9614 0.9626 0.9639
320.000000 0.9651 0.9663 0.9676 0.9688 0.9700
325.000000 0.9712 0.9725 0.9737 0.9747 0.9756
330.000000 0.9766 0.9775 0.9785 0.9794 0.9803
335.000000 0.9807 0.9811 0.9815 0.9819 0.9824
340.000000 0.9828 0.9832 0.9836 0.9838 0.9840
345.000000 0.9843 0.9845 0.9847 0.9848 0.9847
350.000000 0.9847 0.9846 0.9845 0.9844 0.9862
355.000000 0.9842 0.9841 0.9840 0.9838 0.9837
360.000000 0.9835 0.9834 0.9832 0.9831 0.9829
365.000000 0.9827 0.9826 0.9824 0.9822 0.9820
370.000000 0.9818 0.9817 0.9815 0.9813 0.9811
375.000000 0.9809 0.9808 0.9806 0.9802 0.9798
380.000000 0.9794 0.9790 0.9786 0.9782 0.9778
385.000000 0.9774 0.9770 0.9766 0.9762 0.9758
390.000000 0.9751 0.9744 0.9737 0.9730 0.9724
395.000000 0.9717 0.9710 0.9703 0.9696 0.9689
400.000000 0.9681 0.9670 0.9659 0.9647 0.9636
405.000000 0.9625 0.9614 0.9602 0.9589 0.9574
410.000000 0.9559 0.9543 0.9528 0.9513 0.9498
415.000000 0.9483 0.9466 0.9448 0.9430 0.9412
420.000000 0.9394 0.9376 0.9358 0.9337 0.9314
425.000000 0.9292 0.9269 0.9247 0.9225 0.9202
430.000000 0.9178 0.9152 0.9127 0.9102 0.9077
435.000000 0.9052 0.9026 0.9001 0.8967 0.8932
440.000000 0.8896 0.8861 0.8826 0.8785 0.8740
445.000000 0.8694 0.8643 0.8592 0.8540 0.8488
450.000000 0.8445 0.8403 0.8361 0.8303 0.8207
455.000000 0.8184 0.8170 0.8156 0.8148 0.8154
460.000000 0.8151 0.8182 0.8205 0.8230 0.8255
465.000000 0.8279 0.8303 0.8327 0.8351 0.8375
470.000000 0.8399 0.8424 0.8451 0.8477 0.8503
475.000000 0.8513 0.8521 0.8530 0.8536 0.8531
480.000000 0.8578 0.8522 0.8513 0.8503 0.8494
485.000000 0.8485 0.8476 0.8466 0.8457 0.8447
490.000000 0.8436 0.8425 0.8414 0.8403 0.8392
495.000000 0.8381 0.8370 0.8356 0.8341 0.8327
500.000000 0.8313 0.8299 0.8285 0.8271 0.8257
505.000000 0.8240 0.8223 0.8206 0.8189 0.8173
510.000000 0.8156 0.8139 0.8122 0.8105 0.8084
515.000000 0.8063 0.8041 0.8020 0.7999 0.7977
520.000000 0.7957 0.7937 0.7916 0.7896 0.7875
525.000000 0.7855 0.7834 0.7813 0.7792 0.7771
530.000000 0.7750 0.7729 0.7709 0.7689 0.7669
535.000000 0.7649 0.7629 0.7609 0.7589 0.7564
540.000000 0.7534 0.7503 0.7473 0.7443 0.7413
545.000000 0.7383 0.7353 0.7327 0.7311 0.7295
550.000000 0.7280 0.7264 0.7248 0.7230 0.7211
555.000000 0.7192 0.7178 0.7172 0.7166 0.7163
560.000000 0.7188 0.7173 0.7188 0.7202 0.7216
565.000000 0.7230 0.7239 0.7248 0.7256 0.7265
570.000000 0.7273 0.7280 0.7287 0.7295 0.7302
575.000000 0.7310 0.7314 0.7317 0.7320 0.7324
580.000000 0.7358 0.7330 0.7333 0.7337 0.7340
585.000000 0.7343 0.7346 0.7349 0.7352 0.7354
590.000000 0.7356 0.7359 0.7361 0.7364 0.7366
595.000000 0.7368 0.7370 0.7370 0.7370 0.7369
600.000000 0.7361 0.7354 0.7346 0.7339 0.7332
605.000000 0.7324 0.7317 0.7310 0.7283 0.7186
610.000000 0.7109 0.7032 0.6954 0.6862 0.6769
615.000000 0.6732 0.6719 0.6741 0.6744 0.6758
620.000000 0.6772 0.6789 0.6808 0.6827 0.6846
625.000000 0.6864 0.6881 0.6898 0.6930 0.6965
630.000000 0.7000 0.7035 0.7070 0.7104 0.7135
635.000000 0.7166 0.7197 0.7229 0.7262 0.7293
640.000000 0.7325 0.7357 0.7388 0.7416 0.7433
645.000000 0.7441 0.7450 0.7459 0.7467 0.7488
650.000000 0.7517 0.7539 0.7560 0.7582 0.7604
655.000000 0.7617 0.7630 0.7642 0.7655 0.7665
660.000000 0.7674 0.7683 0.7692 0.7701 0.7709
665.000000 0.7762 0.7970 0.7969 0.7969 0.7968
670.000000 0.7970 0.7973 0.7977 0.8003 0.8029
675.000000 0.8055 0.8081 0.8108 0.8137 0.8165
680.000000 0.8190 0.8213 0.8237 0.8260 0.8285
685.000000 0.8310 0.8336 0.8361 0.8386 0.8407
690.000000 0.8428 0.8448 0.8469 0.8490 0.8510
695.000000 0.8522 0.8534 0.8545 0.8557 0.8568
700.000000 0.8580 0.8592 0.8603 0.8615 0.8624
705.000000 0.8633 0.8642 0.8650 0.8659 0.8668
710.000000 0.8677 0.8686 0.8695 0.8703 0.8713
715.000000 0.8722 0.8732 0.8742 0.8751 0.8761
720.000000 0.8769 0.8777 0.8785 0.8793 0.8801
725.000000 0.8809 0.8816 0.8824 0.8832 0.8840
730.000000 0.8847 0.8855 0.8863 0.8870 0.8878
735.000000 0.8886 0.8893 0.8899 0.8905 0.8929
740.000000 0.8917 0.8921 0.8920 0.8919 0.8918
745.000000 0.8917 0.8916 0.8914 0.8909 0.8905
750.000000 0.8900 0.8896 0.8891 0.8886 0.8879
755.000000 0.8873 0.8867 0.8860 0.8854 0.8848
760.000000 0.8841 0.8835 0.8829 0.8822 0.8815
765.000000 0.8808 0.8801 0.8793 0.8786 0.8779
770.000000 0.8772 0.8766 0.8759 0.8752 0.8745
775.000000 0.8739 0.8732 0.8725 0.8719 0.8716
780.000000 0.8712 0.8709 0.8705 0.8702 0.8699
785.000000 0.8695 0.8692 0.8689 0.8680 0.8665
790.000000 0.8650 0.8635 0.8620 0.8599 0.8577
795.000000 0.8555 0.8532 0.8505 0.8479 0.8453
800.000000 0.8414 0.8369 0.8325 0.8283 0.8232
805.000000 0.8165 0.8107 0.8072 0.8064 0.8066
810.000000 0.8054 0.8062 0.8073 0.8090 0.8107
815.000000 0.8126 0.8148 0.8175 0.8203 0.8230
820.000000 0.8258 0.8301 0.8346 0.8390 0.8434
825.000000 0.8479 0.8546 0.8613 0.8680 0.8733
830.000000 0.8787 0.8839 0.8880 0.8922 0.8963
835.000000 0.8999 0.9023 0.9047 0.9061 0.9070
840.000000 0.9078 0.9087 0.9095 0.9104 0.9110
845.000000 0.9116 0.9122 0.9128 0.9133 0.9139
850.000000 0.9145 0.9151 0.9153 0.9154 0.9155
855.000000 0.9157 0.9158 0.9159 0.9161 0.9162
860.000000 0.9163 0.9164 0.9166 0.9164 0.9163
865.000000 0.9161 0.9160 0.9158 0.9156 0.9155
870.000000 0.9153 0.9152 0.9150 0.9149 0.9147
875.000000 0.9146 0.9144 0.9143 0.9142 0.9141
880.000000 0.9140 0.9138 0.9137 0.9136 0.9135
885.000000 0.9133 0.9133 0.9133 0.9133 0.9132
890.000000 0.9132 0.9132 0.9132 0.9132 0.9132
895.000000 0.9132 0.9132 0.9130 0.9129 0.9128
900.000000 0.9126 0.9125 0.9124 0.9123 0.9121
905.000000 0.9120 0.9119 0.9117 0.9116 0.9115
910.000000 0.9113 0.9112 0.9111 0.9110 0.9108
915.000000 0.9107 0.9106 0.9104 0.9103 0.9102
920.000000 0.9100 0.9099 0.9098 0.9097 0.9095
925.000000 0.9094 0.9093 0.9076 0.9053 0.9031
930.000000 0.9008 0.8978 0.8952 0.8953 0.8954
935.000000 0.8955 0.8955 0.8956 0.8957 0.8958
940.000000 0.8960 0.8962 0.8964 0.8966 0.8967
945.000000 0.8967 0.8968 0.8969 0.8969 0.8970
950.000000 0.8971 0.8971 0.8972 0.8972 0.8976
955.000000 0.8983 0.8989 0.8995 0.9002 0.9001
960.000000 0.8995 0.8989 0.8983 0.8974 0.8964
965.000000 0.8955 0.8945 0.8936 0.8926 0.8919
970.000000 0.8913 0.8908 0.8902 0.8896 0.8891
975.000000 0.8886 0.8888 0.8889 0.8891 0.8893
980.000000 0.8894 0.8885 0.8876 0.8868 0.8859
985.000000 0.8850 0.8840 0.8831 0.8821 0.8811
990.000000 0.8801 0.8791 0.8781 0.8775 0.8768
995.000000 0.8762 0.8755 0.8749 0.8742 0.8736
1000.000000 0.8730 0.8732 0.8733 0.8735 0.8736
1005.000000 0.8738 0.8739 0.8739 0.8739 0.8739
1010.000000 0.8739 0.8738 0.8738 0.8738 0.8738
1015.000000 0.8736 0.8731 0.8725 0.8720 0.8714
1020.000000 0.8709 0.8702 0.8694 0.8686 0.8677
1025.000000 0.8669 0.8661 0.8653 0.8644 0.8634
1030.000000 0.8621 0.8609 0.8597 0.8580 0.8555
1035.000000 0.8529 0.8503 0.8478 0.8452 0.8427
1040.000000 0.8403 0.8378 0.8354 0.8329 0.8305
1045.000000 0.8280 0.8253 0.8222 0.8191 0.8161
1050.000000 0.8130 0.8097 0.8063 0.8028 0.7993
1055.000000 0.7959 0.7926 0.7896 0.7866 0.7836
1060.000000 0.7809 0.7793 0.7778 0.7762 0.7761
1065.000000 0.7760 0.7767 0.7801 0.7830 0.7857
1070.000000 0.7879 0.7902 0.7924 0.7941 0.7958
1075.000000 0.7975 0.7991 0.8005 0.8008 0.8012
1080.000000 0.8008 0.8003 0.7999 0.7995 0.8044
1085.000000 0.7986 0.7977 0.7968 0.7960 0.7951
1090.000000 0.7942 0.7929 0.7915 0.7901 0.7888
1095.000000 0.7874 0.7860 0.7847 0.7829 0.7807
1100.000000 0.7786 0.7764 0.7743 0.7722 0.7700
1105.000000 0.7677 0.7654 0.7631 0.7608 0.7585
1110.000000 0.7562 0.7539 0.7517 0.7494 0.7471
1115.000000 0.7449 0.7427 0.7405 0.7383 0.7361
1120.000000 0.7339 0.7317 0.7301 0.7287 0.7273
1125.000000 0.7259 0.7201 0.7243 0.7253 0.7264
1130.000000 0.7276 0.7292 0.7309 0.7331 0.7352
1135.000000 0.7374 0.7409 0.7448 0.7488 0.7517
1140.000000 0.7546 0.7576 0.7605 0.7632 0.7658
1145.000000 0.7685 0.7709 0.7726 0.7743 0.7760
1150.000000 0.7778 0.7795 0.7800 0.7805 0.7810
1155.000000 0.7815 0.7818 0.7815 0.7812 0.7809
1160.000000 0.7806 0.7803 0.7800 0.7859 0.7788
1165.000000 0.7779 0.7771 0.7762 0.7754 0.7745
1170.000000 0.7737 0.7728 0.7720 0.7706 0.7686
1175.000000 0.7666 0.7646 0.7614 0.7582 0.7550
1180.000000 0.7518 0.7481 0.7443 0.7404 0.7371
1185.000000 0.7347 0.7323 0.7299 0.7272 0.7243
1190.000000 0.7214 0.7188 0.7163 0.7138 0.7121
1195.000000 0.7105 0.7090 0.7084 0.7085 0.7086
1200.000000 0.7086 0.7069 0.7088 0.7088 0.7089
1205.000000 0.7089 0.7092 0.7096 0.7101 0.7106
1210.000000 0.7110 0.7115 0.7120 0.7124 0.7129
1215.000000 0.7134 0.7139 0.7144 0.7150 0.7155
1220.000000 0.7160 0.7156 0.7144 0.7175 0.7119
1225.000000 0.7102 0.7084 0.7067 0.7045 0.7022
1230.000000 0.6998 0.6975 0.6946 0.6903 0.6860
1235.000000 0.6817 0.6774 0.6727 0.6705 0.6704
1240.000000 0.6703 0.6703 0.6703 0.6717 0.6677
1245.000000 0.6772 0.6801 0.6837 0.6876 0.6924
1250.000000 0.6973 0.7016 0.7055 0.7093 0.7129
1255.000000 0.7160 0.7191 0.7222 0.7237 0.7247
1260.000000 0.7258 0.7259 0.7258 0.7256 0.7277
1265.000000 0.7252 0.7247 0.7237 0.7226 0.7216
1270.000000 0.7192 0.7160 0.7108 0.7053 0.7010
1275.000000 0.6966 0.6924 0.6889 0.6854 0.6819
1280.000000 0.6784 0.6749 0.6714 0.6680 0.6647
1285.000000 0.6613 0.6580 0.6547 0.6522 0.6502
1290.000000 0.6501 0.6511 0.6513 0.6531 0.6562
1295.000000 0.6596 0.6631 0.6676 0.6771 0.6891
1300.000000 0.6984 0.7067 0.7150 0.7225 0.7300
1305.000000 0.7363 0.7425 0.7486 0.7533 0.7575
1310.000000 0.7613 0.7641 0.7672 0.7673 0.7670
1315.000000 0.7667 0.7663 0.7660 0.7657 0.7654
1320.000000 0.7650 0.7647 0.7640 0.7635 0.7627
1325.000000 0.7618 0.7610 0.7601 0.7592 0.7582
1330.000000 0.7569 0.7557 0.7544 0.7531 0.7519
1335.000000 0.7506 0.7493 0.7477 0.7460 0.7444
1340.000000 0.7428 0.7411 0.7395 0.7379 0.7344
1345.000000 0.7306 0.7269 0.7231 0.7193 0.7155
1350.000000 0.7117 0.7079 0.7034 0.6985 0.6935
1355.000000 0.6885 0.6835 0.6790 0.6745 0.6700
1360.000000 0.6654 0.6610 0.6565 0.6520 0.6475
1365.000000 0.6430 0.6383 0.6328 0.6272 0.6216
1370.000000 0.6174 0.6143 0.6124 0.6118 0.6119
1375.000000 0.6122 0.6144 0.6127 0.6132 0.6141
1380.000000 0.6150 0.6162 0.6168 0.6169 0.6207
1385.000000 0.6163 0.6141 0.6115 0.6073 0.6027
1390.000000 0.5962 0.5893 0.5812 0.5730 0.5630
1395.000000 0.5527 0.5453 0.5380 0.5307 0.5231
1400.000000 0.5153 0.5063 0.4981 0.4953 0.4955
1405.000000 0.4958 0.4963 0.4984 0.4976 0.4983
1410.000000 0.4992 0.5009 0.5026 0.5049 0.5081
1415.000000 0.5112 0.5153 0.5196 0.5240 0.5303
1420.000000 0.5381 0.5460 0.5538 0.5657 0.5777
1425.000000 0.5862 0.5947 0.6019 0.6076 0.6134
1430.000000 0.6177 0.6212 0.6246 0.6279 0.6300
1435.000000 0.6321 0.6342 0.6359 0.6375 0.6388
1440.000000 0.6396 0.6404 0.6413 0.6417 0.6417
1445.000000 0.6418 0.6433 0.6414 0.6412 0.6406
1450.000000 0.6398 0.6380 0.6360 0.6326 0.6277
1455.000000 0.6201 0.6114 0.6002 0.5883 0.5763
1460.000000 0.5639 0.5532 0.5508 0.5504 0.5543
1465.000000 0.5547 0.5692 0.5837 0.5982 0.6127
1470.000000 0.6272 0.6416 0.6539 0.6611 0.6706
1475.000000 0.6800 0.6894 0.6955 0.7004 0.7051
1480.000000 0.7081 0.7111 0.7140 0.7165 0.7179
1485.000000 0.7193 0.7207 0.7221 0.7231 0.7241
1490.000000 0.7250 0.7260 0.7269 0.7278 0.7284
1495.000000 0.7289 0.7295 0.7300 0.7306 0.7311
1500.000000 0.7317 0.7321 0.7324 0.7327 0.7330
1505.000000 0.7333 0.7336 0.7339 0.7343 0.7346
1510.000000 0.7347 0.7346 0.7345 0.7343 0.7342
1515.000000 0.7341 0.7340 0.7391 0.7338 0.7335
1520.000000 0.7329 0.7324 0.7318 0.7310 0.7300
1525.000000 0.7290 0.7280 0.7271 0.7261 0.7251
1530.000000 0.7235 0.7216 0.7198 0.7179 0.7160
1535.000000 0.7142 0.7123 0.7104 0.7085 0.7065
1540.000000 0.7043 0.7021 0.6999 0.6983 0.6977
1545.000000 0.6970 0.6964 0.6957 0.6954 0.6956
1550.000000 0.6958 0.6960 0.6963 0.6966 0.6968
1555.000000 0.6969 0.6966 0.6962 0.6955 0.6938
1560.000000 0.6920 0.6902 0.6884 0.6865 0.6841
1565.000000 0.6818 0.6794 0.6770 0.6740 0.6711
1570.000000 0.6682 0.6653 0.6621 0.6581 0.6542
1575.000000 0.6502 0.6463 0.6419 0.6374 0.6329
1580.000000 0.6284 0.6218 0.6142 0.6066 0.5985
1585.000000 0.5900 0.5815 0.5733 0.5674 0.5615
1590.000000 0.5556 0.5498 0.5439 0.5379 0.5314
1595.000000 0.5249 0.5185 0.5127 0.5073 0.5023
1600.000000 0.4989 0.4955 0.4921 0.4909 0.4899
1605.000000 0.4889 0.4879 0.4869 0.4867 0.4867
1610.000000 0.4883 0.4868 0.4869 0.4871 0.4873
1615.000000 0.4881 0.4890 0.4898 0.4904 0.4910
1620.000000 0.4916 0.4922 0.4928 0.4929 0.4931
1625.000000 0.4932 0.4926 0.4907 0.4945 0.4808
1630.000000 0.4761 0.4714 0.4655 0.4591 0.4527
1635.000000 0.4431 0.4332 0.4243 0.4154 0.4066
1640.000000 0.3946 0.3796 0.3693 0.3604 0.3515
1645.000000 0.3427 0.3342 0.3256 0.3175 0.3101
1650.000000 0.3027 0.2953 0.2902 0.2852 0.2801
1655.000000 0.2751 0.2715 0.2678 0.2641 0.2609
1660.000000 0.2581 0.2570 0.2569 0.2571 0.2572
1665.000000 0.2538 0.2579 0.2585 0.2600 0.2614
1670.000000 0.2633 0.2655 0.2680 0.2734 0.2785
1675.000000 0.2833 0.2881 0.2922 0.2964 0.3006
1680.000000 0.3048 0.3091 0.3139 0.3209 0.3280
1685.000000 0.3349 0.3411 0.3474 0.3554 0.3637
1690.000000 0.3763 0.3990 0.4073 0.4154 0.4236
1695.000000 0.4317 0.4396 0.4471 0.4546 0.4621
1700.000000 0.4696 0.4784 0.4908 0.5031 0.5145
1705.000000 0.5243 0.5342 0.5438 0.5522 0.5606
1710.000000 0.5704 0.5833 0.5962 0.6119 0.6233
1715.000000 0.6332 0.6406 0.6479 0.6543 0.6593
1720.000000 0.6643 0.6693 0.6741 0.6777 0.6813
1725.000000 0.6844 0.6870 0.6897 0.6923 0.6942
1730.000000 0.6957 0.6972 0.6987 0.6993 0.6998
1735.000000 0.7002 0.6964 0.7010 0.7015 0.7019
1740.000000 0.7024 0.7039 0.7069 0.7109 0.7227
1745.000000 0.7329 0.7413 0.7497 0.7580 0.7663
1750.000000 0.7740 0.7801 0.7861 0.7921 0.7977
1755.000000 0.8030 0.8082 0.8118 0.8153 0.8187
1760.000000 0.8222 0.8254 0.8282 0.8310 0.8338
1765.000000 0.8366 0.8394 0.8423 0.8452 0.8482
1770.000000 0.8509 0.8532 0.8555 0.8574 0.8593
1775.000000 0.8611 0.8629 0.8645 0.8662 0.8678
1780.000000 0.8694 0.8707 0.8721 0.8734 0.8747
1785.000000 0.8760 0.8796 0.8783 0.8795 0.8806
1790.000000 0.8812 0.8816 0.8821 0.8825 0.8829
1795.000000 0.8834 0.8838 0.8842 0.8847 0.8852
1800.000000 0.8857 0.8863 0.8868 0.8873 0.8878
1805.000000 0.8883 0.8888 0.8893 0.8899 0.8904
1810.000000 0.8909 0.8915 0.8921 0.8927 0.8933
1815.000000 0.8939 0.8945 0.8951 0.8956 0.8962
1820.000000 0.8968 0.8972 0.8975 0.8978 0.8981
1825.000000 0.8984 0.8987 0.8990 0.8993 0.8997
1830.000000 0.9000 0.9003 0.9006 0.9009 0.9011
1835.000000 0.9013 0.9014 0.9016 0.9017 0.9019
1840.000000 0.9020 0.9022 0.9023 0.9024 0.9026
1845.000000 0.9027 0.9029 0.9030 0.9032 0.9033
1850.000000 0.9034 0.9035 0.9036 0.9036 0.9037
1855.000000 0.9038 0.9039 0.9039 0.9040 0.9041
1860.000000 0.9042 0.9042 0.9043 0.9044 0.9045
1865.000000 0.9045 0.9047 0.9048 0.9050 0.9051
1870.000000 0.9053 0.9055 0.9056 0.9058 0.9060
1875.000000 0.9061 0.9063 0.9064 0.9066 0.9068
1880.000000 0.9069 0.9071 0.9073 0.9074 0.9075
1885.000000 0.9077 0.9078 0.9079 0.9081 0.9082
1890.000000 0.9083 0.9085 0.9086 0.9084 0.9080
1895.000000 0.9075 0.9071 0.9067 0.9064 0.9062
1900.000000 0.9061 0.9059 0.9057 0.9056 0.9054
1905.000000 0.9053 0.9051 0.9049 0.9048 0.9050
1910.000000 0.9052 0.9054 0.9056 0.9058 0.9060
1915.000000 0.9062 0.9064 0.9066 0.9068 0.9070
1920.000000 0.9072 0.9074 0.9076 0.9078 0.9078
1925.000000 0.9078 0.9077 0.9076 0.9075 0.9074
1930.000000 0.9074 0.9073 0.9072 0.9071 0.9070
1935.000000 0.9069 0.9068 0.9066 0.9065 0.9063
1940.000000 0.9062 0.9060 0.9059 0.9057 0.9056
1945.000000 0.9055 0.9054 0.9055 0.9057 0.9059
1950.000000 0.9061 0.9063 0.9065 0.9067 0.9069
1955.000000 0.9072 0.9074 0.9077 0.9079 0.9082
1960.000000 0.9084 0.9087 0.9090 0.9092 0.9093
1965.000000 0.9094 0.9095 0.9097 0.9098 0.9099
1970.000000 0.9100 0.9101 0.9102 0.9104 0.9106
1975.000000 0.9106 0.9107 0.9107 0.9107 0.9107
1980.000000 0.9108 0.9108 0.9108 0.9108 0.9109
1985.000000 0.9109 0.9109 0.9109 0.9110 0.9110
1990.000000 0.9116 0.9122 0.9129 0.9135 0.9141
1995.000000 0.9148 0.9168 0.9203 0.9242 0.9286
2000.000000 0.9327 0.9339 0.9352 0.9353 0.9354
2005.000000 0.9355 0.9356 0.9357 0.9358 0.9358
2010.000000 0.9359 0.9359 0.9359 0.9359 0.9359
2015.000000 0.9358 0.9358 0.9358 0.9358 0.9357
2020.000000 0.9357 0.9357 0.9357 0.9357 0.9357
2025.000000 0.9356 0.9356 0.9356 0.9356 0.9356
2030.000000 0.9356 0.9355 0.9355 0.9355 0.9355
2035.000000 0.9354 0.9354 0.9353 0.9353 0.9352
2040.000000 0.9352 0.9351 0.9351 0.9350 0.9350
2045.000000 0.9349 0.9349 0.9348 0.9348 0.9347
2050.000000 0.9347 0.9346 0.9346 0.9345 0.9345
2055.000000 0.9344 0.9344 0.9344 0.9344 0.9343
2060.000000 0.9343 0.9342 0.9341 0.9340 0.9339
2065.000000 0.9338 0.9337 0.9336 0.9336 0.9335
2070.000000 0.9334 0.9333 0.9332 0.9331 0.9331
2075.000000 0.9330 0.9329 0.9328 0.9327 0.9326
2080.000000 0.9326 0.9325 0.9324 0.9323 0.9322
2085.000000 0.9321 0.9321 0.9320 0.9320 0.9320
2090.000000 0.9320 0.9319 0.9319 0.9318 0.9318
2095.000000 0.9317 0.9317 0.9316 0.9316 0.9315
2100.000000 0.9315 0.9314 0.9314 0.9313 0.9313
2105.000000 0.9313 0.9313 0.9313 0.9313 0.9313
2110.000000 0.9313 0.9313 0.9313 0.9313 0.9313
2115.000000 0.9313 0.9313 0.9312 0.9312 0.9312
2120.000000 0.9312 0.9312 0.9312 0.9312 0.9312
2125.000000 0.9312 0.9312 0.9311 0.9310 0.9309
2130.000000 0.9309 0.9308 0.9308 0.9307 0.9307
2135.000000 0.9306 0.9305 0.9304 0.9304 0.9303
2140.000000 0.9303 0.9302 0.9301 0.9300 0.9300
2145.000000 0.9299 0.9299 0.9298 0.9298 0.9297
2150.000000 0.9296 0.9295 0.9294 0.9293 0.9292
2155.000000 0.9291 0.9290 0.9289 0.9288 0.9286
2160.000000 0.9285 0.9284 0.9283 0.9282 0.9281
2165.000000 0.9280 0.9279 0.9278 0.9277 0.9276
2170.000000 0.9275 0.9274 0.9273 0.9272 0.9272
2175.000000 0.9271 0.9270 0.9269 0.9269 0.9268
2180.000000 0.9268 0.9267 0.9266 0.9265 0.9265
2185.000000 0.9264 0.9263 0.9262 0.9262 0.9261
2190.000000 0.9261 0.9260 0.9259 0.9258 0.9258
2195.000000 0.9257 0.9256 0.9255 0.9254 0.9251
2200.000000 0.9249 0.9246 0.9244 0.9241 0.9239
2205.000000 0.9235 0.9232 0.9227 0.9223 0.9218
2210.000000 0.9214 0.9209 0.9204 0.9199 0.9195
2215.000000 0.9190 0.9186 0.9183 0.9180 0.9177
2220.000000 0.9175 0.9172 0.9170 0.9169 0.9169
2225.000000 0.9168 0.9168 0.9167 0.9167 0.9167
2230.000000 0.9167 0.9166 0.9166 0.9165 0.9165
2235.000000 0.9164 0.9164 0.9164 0.9164 0.9164
2240.000000 0.9164 0.9164 0.9165 0.9165 0.9165
2245.000000 0.9165 0.9165 0.9165 0.9165 0.9165
2250.000000 0.9166 0.9166 0.9166 0.9166 0.9166
2255.000000 0.9166 0.9166 0.9166 0.9167 0.9167
2260.000000 0.9167 0.9167 0.9167 0.9167 0.9167
2265.000000 0.9167 0.9168 0.9168 0.9168 0.9168
2270.000000 0.9169 0.9169 0.9169 0.9169 0.9170
2275.000000 0.9170 0.9170 0.9170 0.9171 0.9171
2280.000000 0.9172 0.9172 0.9172 0.9172 0.9173
