##TITLE=2-Methoxyethyl bromide
##JCAMP-DX=4.24
##DATA TYPE=INFRARED SPECTRUM
##ORIGIN=EPA-IR VAPOR PHASE LIBRARY
##OWNER=SRD/NIST
Collection (C) 2018 copyright by the U.S. Secretary of Commerce
on behalf of the United States of America. All rights reserved.
##CAS REGISTRY NO=6482-24-2
##MOLFORM=C 3 H 7 Br O
##$NIST SOURCE=MSDC-IR
##STATE=gas
##XUNITS=1/CM
##YUNITS=ABSORBANCE
##XFACTOR=1.
##YFACTOR=0.001
##DELTAX=1.92898
##FIRSTX=549.8
##LASTX=4000.7
##FIRSTY=1.243
##MAXX=4000.7
##MINX=549.759
##MAXY=0.047143
##MINY=0
##NPOINTS=1790
##XYDATA=(X++(Y..Y))
549.759 1.243 1.343 1.493 1.563 1.683 1.813 1.943 2.343 2.533 2.443
569.049 2.743 3.103 3.033 2.753 2.713 2.673 2.873 3.323 3.343 3.233
588.339 3.193 2.933 2.773 2.713 2.193 1.893 1.833 1.483 1.263 1.223
607.628 1.363 1.363 1.1777 1.273 1.383 1.323 1.193 1.1712 1.233 1.193
626.918 1.113 1.1034 1.283 1.543 1.793 1.913 2.033 2.113 2.153 2.703
646.208 3.193 3.503 3.923 4.333 4.843 5.243 5.733 6.303 6.713 7.243
665.498 7.663 7.693 7.523 7.423 7.173 6.973 6.713 6.133 5.623 5.073
684.787 4.503 4.033 3.553 3.143 2.803 2.413 2.313 2.343 2.053 1.873
704.077 1.773 1.613 1.583 1.603 1.503 1.373 1.263 1.0975 0.9493 0.9725
723.367 0.9878 0.9407 0.8853 0.7786 0.7031 0.766 0.8594 0.7346 0.7442 0.7742
742.657 0.7381 0.7797 0.6987 0.6448 0.609 0.4426 0.6721 0.8512 0.6043 0.6159
761.947 0.7053 0.7019 0.7017 0.8575 1.0834 1.0095 0.9285 0.9993 1.0341 1.1037
781.236 1.0624 0.9466 0.9818 0.9679 1.0994 1.223 1.223 1.263 1.293 1.313
800.526 1.353 1.383 1.253 1.273 1.233 1.0548 1.1156 1.0354 0.8323 0.8494
819.816 0.7238 0.7276 0.8795 0.9465 0.8921 0.9143 1.0461 0.816 0.6231 0.6407
839.106 0.7068 0.7566 0.7581 0.7121 0.7006 0.7933 0.7378 0.6686 0.9289 0.9914
858.395 0.9055 1.0845 1.0583 0.9293 1.0033 1.1148 1.0932 1.1142 1.193 1.1314
877.685 1.0594 1.0411 1.1323 1.423 1.783 1.943 1.813 1.733 1.723 1.893
896.975 2.133 2.263 2.393 2.383 2.533 2.773 2.853 3.113 3.333 3.543
916.265 3.773 3.773 3.803 3.883 4.093 4.453 4.483 4.243 4.143 4.363
935.555 4.513 4.533 4.663 4.773 4.893 4.933 4.833 4.643 4.553 4.653
954.844 4.753 4.723 4.683 4.783 4.823 4.883 4.963 4.923 4.873 4.893
974.134 5.013 4.953 4.983 5.213 5.323 5.333 5.193 5.053 5.013 4.853
993.424 4.873 4.833 4.643 4.573 4.423 4.173 4.023 3.983 4.133 4.193
1012.714 4.003 3.953 3.943 3.943 3.943 3.963 4.173 4.183 4.293 4.733
1032.003 5.153 5.453 5.533 5.643 5.713 5.573 5.483 5.673 5.823 5.763
1051.293 5.853 5.823 5.663 5.643 5.923 6.133 6.323 6.353 6.573 7.133
1070.583 7.893 8.743 9.623 10.543 11.433 13.133 14.543 15.573 17.523 19.713
1089.873 21.613 23.663 25.343 27.183 29.043 30.123 31.283 33.003 34.653 35.653
1109.163 36.643 37.943 39.143 40.433 41.903 43.503 44.963 45.933 46.693 47.143
1128.452 46.943 45.953 44.573 43.663 42.223 39.843 36.873 33.433 30.743 28.553
1147.742 26.313 24.233 22.463 21.003 19.963 19.323 18.953 18.623 18.153 17.933
1167.032 18.223 18.583 18.793 18.763 18.973 19.533 19.833 20.213 20.583 20.403
1186.322 20.383 20.263 19.173 18.143 17.783 17.453 16.723 15.953 14.943 13.833
1205.611 13.193 12.743 12.233 11.673 11.243 10.653 10.133 9.733 9.633 9.423
1224.901 9.253 9.333 8.793 8.233 7.863 7.693 7.693 7.453 7.233 7.123
1244.191 6.923 6.703 6.323 6.083 6.063 5.913 5.593 5.593 5.753 5.623
1263.481 5.823 6.223 6.423 6.753 7.013 7.053 7.263 7.443 7.503 7.593
1282.771 7.903 7.903 7.693 7.573 7.233 6.923 6.563 6.153 5.793 5.453
1302.060 5.163 4.773 4.353 3.983 3.623 3.293 3.003 2.703 2.443 2.303
1321.350 2.183 2.083 1.993 1.893 1.823 1.843 1.833 1.783 1.813 1.853
1340.640 1.863 1.943 1.973 1.993 2.053 2.073 2.213 2.373 2.513 2.763
1359.930 3.043 3.273 3.623 4.043 4.393 4.763 5.103 5.473 5.743 5.793
1379.219 5.673 5.473 5.323 5.183 4.983 4.703 4.343 4.013 3.593 3.093
1398.509 2.683 2.383 2.233 2.233 2.263 2.333 2.543 2.783 3.003 3.293
1417.799 3.673 4.033 4.233 4.263 4.353 4.593 4.873 5.163 5.423 5.723
1437.089 6.013 6.063 5.963 5.913 5.973 6.123 6.353 6.593 6.783 6.883
1456.378 6.913 6.933 6.903 6.783 6.633 6.423 6.233 6.003 5.723 5.383
1475.668 5.053 4.743 4.383 3.993 3.663 3.363 3.133 2.973 2.763 2.543
1494.958 2.393 2.203 2.023 1.893 1.803 1.773 1.703 1.613 1.553 1.533
1514.248 1.433 1.363 1.333 1.263 1.253 1.243 1.1037 1.0435 1.1274 1.099
1533.538 1.1036 1.0639 1.0089 1.006 0.9954 1.0379 0.9911 0.9568 0.9721 0.9345
1552.827 0.8788 0.8354 0.8232 0.9029 0.9306 0.8377 0.8118 0.8235 0.7626 0.742
1572.117 0.735 0.7563 0.791 0.7926 0.7778 0.7634 0.8551 0.9204 0.7839 0.7736
1591.407 0.8444 0.7956 0.7759 0.8633 0.8954 0.8716 0.855 0.8131 0.758 0.6761
1610.697 0.6433 0.6116 0.6857 0.6999 0.614 0.6311 0.6722 0.6617 0.6659 0.6229
1629.986 0.5445 0.5128 0.5397 0.5091 0.4872 0.551 0.5575 0.4865 0.4025 0.3918
1649.276 0.4446 0.4592 0.4612 0.5011 0.5077 0.4716 0.4409 0.4471 0.4444 0.4157
1668.566 0.3778 0.3742 0.3678 0.3781 0.4035 0.3866 0.383 0.3759 0.3805 0.4242
1687.856 0.433 0.3949 0.4007 0.4489 0.3909 0.3128 0.3142 0.3158 0.3639 0.4015
1707.146 0.3609 0.3367 0.3151 0.2945 0.3621 0.3594 0.3586 0.3363 0.26916 0.347
1726.435 0.3671 0.3074 0.3143 0.3231 0.34 0.3379 0.3258 0.3239 0.3141 0.3909
1745.725 0.437 0.3683 0.359 0.3762 0.3432 0.3345 0.3643 0.4016 0.371 0.332
1765.015 0.3536 0.3749 0.3731 0.3962 0.4073 0.3849 0.3758 0.355 0.3574 0.32
1784.305 0.3094 0.3054 0.2948 0.3436 0.3467 0.3844 0.3878 0.4126 0.392 0.3249
1803.594 0.4019 0.4665 0.4557 0.4138 0.3638 0.3813 0.3701 0.3413 0.3459 0.3683
1822.884 0.3851 0.3422 0.3677 0.3804 0.345 0.3454 0.3839 0.4069 0.3932 0.3949
1842.174 0.4155 0.4408 0.4006 0.3883 0.4096 0.3876 0.3962 0.3974 0.3961 0.3976
1861.464 0.4133 0.4593 0.4345 0.3871 0.4214 0.4655 0.4598 0.4198 0.3928 0.3803
1880.754 0.4244 0.5192 0.5142 0.4882 0.5075 0.5288 0.5496 0.5554 0.5312 0.5084
1900.043 0.4955 0.5351 0.5823 0.5604 0.5308 0.5716 0.6062 0.599 0.6413 0.663
1919.333 0.6607 0.6487 0.6407 0.658 0.6311 0.6527 0.6545 0.5962 0.6203 0.5958
1938.623 0.5655 0.578 0.6206 0.6185 0.5863 0.6018 0.6194 0.6275 0.6514 0.6432
1957.913 0.6669 0.6654 0.5834 0.6034 0.6626 0.6508 0.6168 0.6478 0.618 0.5943
1977.202 0.6391 0.6672 0.6493 0.664 0.6203 0.5977 0.6809 0.6897 0.6943 0.732
1996.492 0.7699 0.7771 0.7593 0.8229 0.9052 0.9288 0.9207 0.9209 0.9436 0.9551
2015.782 0.9613 0.9555 0.9347 0.9342 0.958 0.9922 1.0106 0.9534 0.9263 0.932
2035.072 0.894 0.9068 0.8991 0.8523 0.9038 0.9423 0.8743 0.7905 0.8031 0.8749
2054.362 0.9138 0.9489 1.0007 0.9886 0.9605 0.9553 0.9914 1.0156 0.9596 1.0319
2073.651 1.1456 1.1518 1.1032 1.0515 1.045 1.0348 1.0101 1.0089 0.9447 0.9313
2092.941 0.9879 0.9379 0.9023 0.9228 0.9185 0.9015 0.852 0.8238 0.8092 0.7822
2112.231 0.8503 0.8698 0.8445 0.7824 0.7156 0.7305 0.748 0.7846 0.7788 0.7118
2131.521 0.6772 0.7046 0.7009 0.6848 0.6767 0.6169 0.6534 0.6732 0.6461 0.699
2150.810 0.704 0.6748 0.6201 0.5924 0.5753 0.5537 0.5705 0.5838 0.5441 0.5012
2170.100 0.5273 0.5716 0.6144 0.6503 0.5991 0.5786 0.5959 0.5288 0.5645 0.5994
2189.390 0.634 0.6505 0.6258 0.5933 0.5756 0.6336 0.605 0.5441 0.5177 0.47
2208.680 0.4753 0.5458 0.5502 0.5474 0.6325 0.6525 0.5623 0.5301 0.5232 0.5197
2227.970 0.5454 0.5493 0.5366 0.5131 0.5381 0.5538 0.5278 0.5331 0.5308 0.4883
2247.259 0.4856 0.4585 0.4374 0.4858 0.5501 0.5159 0.4172 0.4411 0.4439 0.4034
2266.549 0.4267 0.4565 0.4395 0.4545 0.4415 0.4215 0.4166 0.4253 0.4331 0.4003
2285.839 0.3435 0.3319 0.4135 0.427 0.4541 0.4308 0.3627 0.371 0.3412 0.4199
2305.129 0.4808 0.4826 0.491 0.4643 0.4813 0.5013 0.4483 0.4287 0.4134 0.3668
2324.418 0.3893 0.434 0.4166 0.3915 0.3979 0.4244 0.4304 0.3557 0.353 0.3827
2343.708 0.3899 0.4179 0.4287 0.4282 0.4551 0.438 0.4101 0.3886 0.3644 0.3837
2362.998 0.4467 0.482 0.46 0.374 0.3207 0.3443 0.4646 0.509 0.4492 0.4764
2382.288 0.502 0.5279 0.471 0.4685 0.5079 0.5065 0.5004 0.4946 0.5221 0.4923
2401.578 0.4594 0.5037 0.5127 0.462 0.4548 0.45 0.4402 0.4932 0.5605 0.5511
2420.867 0.4139 0.371 0.4577 0.5102 0.4908 0.4818 0.4765 0.3985 0.4148 0.5028
2440.157 0.4956 0.3909 0.3842 0.4014 0.4083 0.4307 0.4548 0.4952 0.4314 0.3949
2459.447 0.4168 0.4163 0.4732 0.4768 0.3749 0.3977 0.4412 0.4376 0.4824 0.4905
2478.737 0.4288 0.3693 0.3918 0.4396 0.4302 0.4326 0.4199 0.3549 0.3524 0.391
2498.026 0.3819 0.4041 0.4055 0.3506 0.3413 0.3776 0.4237 0.3792 0.4042 0.4634
2517.316 0.3894 0.3078 0.3499 0.405 0.3685 0.3756 0.4072 0.4071 0.3551 0.3652
2536.606 0.4191 0.4286 0.4704 0.4533 0.3826 0.3673 0.3629 0.3668 0.4058 0.3965
2555.896 0.3362 0.3224 0.3476 0.4447 0.4828 0.3491 0.3446 0.4083 0.3961 0.3577
2575.186 0.3267 0.3914 0.46 0.5627 0.5871 0.5177 0.5514 0.6234 0.6591 0.6183
2594.475 0.6037 0.664 0.7 0.6686 0.5887 0.5562 0.5785 0.5658 0.579 0.5553
2613.765 0.5262 0.5878 0.6957 0.7269 0.66 0.6057 0.6171 0.6968 0.7169 0.7747
2633.055 0.7998 0.7604 0.685 0.6518 0.6749 0.6724 0.7444 0.7922 0.7436 0.7452
2652.345 0.8145 0.8285 0.918 0.8741 0.7378 0.7827 0.8522 0.8496 0.8818 0.8251
2671.634 0.8061 0.8616 0.7924 0.7932 0.7997 0.7896 0.7978 0.8738 0.8655 0.7205
2690.924 0.7265 0.8309 0.8579 0.87 0.9925 0.9718 0.9773 1.1565 1.1442 1.1413
2710.214 1.213 1.243 1.343 1.363 1.383 1.563 1.683 1.733 1.733 1.713
2729.504 1.783 1.873 1.953 2.003 1.993 1.963 1.933 1.923 1.893 1.943
2748.794 1.953 1.823 1.803 1.813 1.843 1.873 1.853 1.833 1.883 1.963
2768.083 1.933 1.933 2.033 2.143 2.263 2.513 2.663 2.713 2.863 3.113
2787.373 3.423 3.703 4.033 4.253 4.603 5.063 5.503 5.973 6.483 7.073
2806.663 7.713 8.433 9.173 10.023 10.893 11.853 12.933 14.053 15.293 16.363
2825.953 17.183 17.863 18.323 18.603 18.833 19.043 19.223 19.193 18.803 18.123
2845.242 17.273 16.483 15.853 15.313 14.883 14.623 14.433 14.393 14.443 14.653
2864.532 14.913 15.173 15.523 15.743 15.983 16.393 16.803 17.063 17.393 17.763
2883.822 18.003 18.343 18.593 18.843 18.993 18.953 19.123 19.423 19.483 19.433
2903.112 19.473 19.463 19.383 19.433 19.403 19.283 19.303 19.333 19.403 19.673
2922.401 19.973 20.153 20.443 20.663 20.633 20.633 20.533 20.223 19.993 19.693
2941.691 19.283 18.853 18.293 17.663 16.963 16.303 15.683 15.283 14.983 14.643
2960.981 14.383 14.183 14.123 14.053 13.853 13.753 13.773 13.793 13.963 14.243
2980.271 14.583 14.873 15.133 15.443 15.803 16.163 16.273 16.003 15.583 15.093
2999.561 14.533 14.063 13.623 12.943 12.083 11.043 9.893 9.013 8.243 7.553
3018.850 7.043 6.503 6.083 5.763 5.453 5.223 5.003 4.703 4.413 4.053
3038.140 3.833 3.713 3.463 3.273 3.113 3.053 2.953 2.783 2.603 2.503
3057.430 2.343 2.273 2.193 2.113 2.043 1.933 1.923 1.893 1.843 1.673
3076.720 1.583 1.633 1.673 1.653 1.553 1.533 1.473 1.443 1.443 1.393
3096.009 1.343 1.303 1.393 1.333 1.102 1.0755 1.1243 1.1071 1.1302 1.0304
3115.299 0.9667 0.94 0.9664 0.9644 0.9114 0.9887 0.8742 0.7772 0.8576 0.7844
3134.589 0.8056 0.8036 0.7316 0.6983 0.6626 0.6561 0.6173 0.5839 0.546 0.5674
3153.879 0.6061 0.6618 0.6725 0.5648 0.4713 0.3763 0.4108 0.471 0.427 0.5032
3173.169 0.4438 0.4126 0.5323 0.5855 0.433 0.3337 0.4028 0.3088 0.25571 0.3432
3192.458 0.3938 0.4173 0.4544 0.4152 0.3782 0.3289 0.23312 0.3073 0.3176 0.3677
3211.748 0.4142 0.5019 0.4911 0.2523 0.20416 0.27014 0.2882 0.3263 0.3822 0.34
3231.038 0.3333 0.3133 0.26685 0.377 0.4379 0.2836 0.186577 0.24429 0.2859 0.23428
3250.328 0.2141 0.21696 0.21744 0.19437 0.1702 0.20606 0.184873 0.19997 0.27113 0.3357
3269.617 0.3054 0.27441 0.3378 0.3783 0.3597 0.2948 0.22196 0.17637 0.27739 0.17712
3288.907 0.20428 0.3813 0.28113 0.07 0.023 0.1384 0.20668 0.19362 0.1394 0.22479
3308.197 0.3365 0.28086 0.1564 0.17796 0.3397 0.394 0.4322 0.4416 0.3346 0.24147
3327.487 0.24945 0.354 0.21178 0 0.1334 0.27518 0.21338 0.21822 0.20026 0.145
3346.777 0.0999 0.077 0.1294 0.23625 0.3169 0.26127 0.18527 0.186014 0.23717 0.3144
3366.066 0.27496 0.3267 0.2853 0.1257 0.3579 0.4666 0.321 0.3611 0.4274 0.3425
3385.356 0.3208 0.2905 0.25228 0.3593 0.419 0.4062 0.5241 0.4148 0.1153 0.1044
3404.646 0.24084 0.27602 0.24213 0.22712 0.3817 0.3761 0.3684 0.4469 0.3458 0.2927
3423.936 0.3443 0.3213 0.3175 0.3909 0.3074 0.2081 0.3231 0.3989 0.21164 0.25437
3443.225 0.283 0.23057 0.2946 0.3199 0.27212 0.23003 0.3034 0.402 0.4085 0.3637
3462.515 0.2914 0.183469 0.1367 0.23866 0.306 0.2999 0.286 0.24662 0.3272 0.3232
3481.805 0.24833 0.3256 0.443 0.3367 0.19305 0.1199 0.1136 0.1552 0.18249 0.19382
3501.095 0.1055 0.1056 0.19301 0.20877 0.1576 0.18135 0.19566 0.2306 0.25398 0.1238
3520.385 0.077 0.1723 0.2841 0.26326 0.2455 0.3554 0.3267 0.2608 0.3618 0.414
3539.674 0.3679 0.3159 0.3241 0.25813 0.23148 0.21281 0.1006 0.1255 0.1215 0.1104
3558.964 0.1659 0.3154 0.3996 0.3532 0.4152 0.4955 0.5129 0.4463 0.3505 0.3535
3578.254 0.3412 0.3171 0.21791 0.19437 0.2574 0.3064 0.3423 0.2745 0.28276 0.3397
3597.544 0.24905 0.2962 0.4177 0.3165 0.3201 0.3247 0.27497 0.20293 0.18168 0.3049
3616.833 0.3188 0.27095 0.3018 0.21792 0.17644 0.23098 0.1179 0.26534 0.4706 0.4567
3636.123 0.4501 0.4634 0.3965 0.185863 0.27246 0.5481 0.3685 0.1697 0.2966 0.3616
3655.413 0.3249 0.3259 0.379 0.3856 0.25083 0.1608 0.2862 0.25548 0.20866 0.3865
3674.703 0.4706 0.2818 0.1256 0.1515 0.17798 0.27352 0.24986 0.23763 0.3282 0.23517
3693.993 0.21099 0.22837 0.22266 0.2627 0.18126 0.1449 0.3244 0.3373 0.2996 0.3831
3713.282 0.4039 0.3474 0.3284 0.2965 0.1267 0.17312 0.1967 0.1583 0.3037 0.3085
3732.572 0.3011 0.4184 0.5069 0.4624 0.4467 0.5458 0.4616 0.3984 0.3343 0.2959
3751.862 0.3074 0.23439 0.24024 0.21208 0.2999 0.3255 0.22309 0.20591 0.28201 0.3011
3771.152 0.24406 0.1056 0.026 0.1386 0.19632 0.3869 0.3543 0.192961 0.26153 0.2974
3790.441 0.3314 0.23294 0.18008 0.21919 0.3074 0.3213 0.26634 0.4006 0.4585 0.4043
3809.731 0.3434 0.28091 0.22307 0.26191 0.3161 0.26195 0.338 0.3921 0.3281 0.3008
3829.021 0.3667 0.3628 0.3004 0.23797 0.24663 0.372 0.3879 0.3771 0.373 0.28185
3848.311 0.20846 0.23174 0.22226 0.3409 0.4672 0.3687 0.27709 0.26552 0.339 0.4305
3867.601 0.4433 0.4041 0.2939 0.3775 0.427 0.3337 0.3843 0.4296 0.3402 0.3371
3886.890 0.3937 0.3558 0.27741 0.24022 0.3517 0.27693 0.191975 0.3426 0.2965 0.26456
3906.180 0.3705 0.3717 0.3954 0.5085 0.5975 0.5985 0.5292 0.4701 0.4627 0.4072
3925.470 0.3864 0.3291 0.4351 0.5989 0.5862 0.5496 0.4257 0.3119 0.3145 0.3167
3944.760 0.3199 0.3728 0.5306 0.622 0.6632 0.7344 0.6041 0.4392 0.4429 0.5032
3964.049 0.5571 0.447 0.3544 0.4015 0.3897 0.3904 0.5047 0.6916 0.6271 0.476
3983.339 0.6179 0.6406 0.4578 0.4912 0.5428 0.53 0.4888 0.4751 0.4764 0.4864
##END=
