##TITLE=PROPYNE, 3-IODO-
##JCAMP-DX=4.24
##DATA TYPE=INFRARED SPECTRUM
##CLASS=COBLENTZ III
##ORIGIN=DOW CHEMICAL COMPANY
##OWNER=COBLENTZ SOCIETY
Collection (C) 2018 copyright by the U.S. Secretary of Commerce
on behalf of the United States of America. All rights reserved.
##DATE=Not specified, most likely prior to 1970
##NAMES=3-iodo-1-propyne
##CAS REGISTRY NO=659-86-9
##MOLFORM=C3 H3 I
##SOURCE REFERENCE=COBLENTZ NO. 3340
##$NIST SOURCE=COBLENTZ
##$NIST IMAGE=cob3340
##SPECTROMETER/DATA SYSTEM=Not specified, most likely a prism, grating, or hybrid spectrometer.
##STATE=SOLUTION (10% CCl4 FOR 3800-1333, 10% CS2 FOR 1333-450 CM^-^1)
##PATH LENGTH=0.010 CM, 0.010 CM
$$SPECTRAL CONTAMINATIONS DUE TO CCl4 AROUND 1550 AND CS2 AROUND 760 CM^-^1
##SAMPLING PROCEDURE=TRANSMISSION
##RESOLUTION=4
##DATA PROCESSING=DIGITIZED BY NIST FROM HARD COPY (FROM TWO SEGMENTS)
##XUNITS=1/CM
##YUNITS=TRANSMITTANCE
##XFACTOR=1.000000
##YFACTOR=1
##DELTAX=0.927646
##FIRSTX=451.763
##LASTX=3798.71
##FIRSTY=0.905
##MAXX=3798.71
##MINX=451.763
##MAXY=1.071
##MINY=0.0110014
##NPOINTS=3609
##XYDATA=(X++(Y..Y))
451.763000 0.9050 0.9070 0.9080 0.9100 0.9100
456.401232 0.9100 0.9100 0.9110 0.9110 0.9110
461.039464 0.9110 0.9110 0.9110 0.9110 0.9110
465.677696 0.9110 0.9110 0.9120 0.9140 0.9140
470.315927 0.9140 0.9150 0.9150 0.9150 0.9150
474.954159 0.9150 0.9150 0.9150 0.9150 0.9150
479.592391 0.9150 0.9150 0.9150 0.9150 0.9170
484.230623 0.9170 0.9180 0.9180 0.9210 0.9210
488.868855 0.9220 0.9240 0.9270 0.9300 0.9300
493.507087 0.9310 0.9320 0.9320 0.9340 0.9340
498.145319 0.9340 0.9340 0.9350 0.9350 0.9350
502.783551 0.9350 0.9350 0.9350 0.9350 0.9350
507.421782 0.9350 0.9350 0.9350 0.9350 0.9370
512.060014 0.9370 0.9380 0.9380 0.9380 0.9400
516.698246 0.9400 0.9420 0.9470 0.9470 0.9480
521.336478 0.9500 0.9510 0.9510 0.9510 0.9510
525.974710 0.9510 0.9510 0.9510 0.9510 0.9510
530.612942 0.9510 0.9510 0.9510 0.9510 0.9510
535.251174 0.9500 0.9500 0.9480 0.9480 0.9450
539.889406 0.9420 0.9410 0.9410 0.9380 0.9370
544.527637 0.9340 0.9320 0.9320 0.9310 0.9270
549.165869 0.9170 0.9050 0.8910 0.8840 0.8740
553.804101 0.8620 0.8540 0.8470 0.8280 0.8080
558.442333 0.7441 0.6971 0.6481 0.5902 0.5372
563.080565 0.4720 0.4100 0.3880 0.3670 0.3640
567.718797 0.5266 0.5469 0.7901 0.8318 0.8539
572.357029 0.8710 0.8880 0.8910 0.8940 0.9080
576.995261 0.9110 0.9140 0.9150 0.9150 0.9140
581.633492 0.9140 0.9140 0.9140 0.9120 0.9120
586.271724 0.9120 0.9120 0.9120 0.9110 0.9080
590.909956 0.9040 0.9010 0.9000 0.8980 0.8940
595.548188 0.8920 0.8910 0.8870 0.8810 0.8720
600.186420 0.8700 0.8610 0.8520 0.8500 0.8400
604.824652 0.8310 0.8220 0.8140 0.8011 0.7940
609.462884 0.7820 0.7720 0.7620 0.7600 0.7550
614.101116 0.7440 0.7400 0.7241 0.7140 0.7001
618.739347 0.6840 0.6670 0.6240 0.6100 0.5900
623.377579 0.5650 0.5371 0.5021 0.4223 0.3652
628.015811 0.3070 0.2610 0.2140 0.1680 0.1341
632.654043 0.0981 0.0711 0.0351 0.0151 0.0120
637.292275 0.0110 0.0120 0.0170 0.0180 0.0210
641.930507 0.0240 0.0380 0.0619 0.0710 0.0820
646.568739 0.0920 0.1300 0.1950 0.4867 0.4880
651.206971 0.5050 0.5220 0.5350 0.5519 0.5749
655.845202 0.6020 0.6280 0.6520 0.6680 0.7120
660.483434 0.7410 0.7480 0.7600 0.7740 0.7909
665.121666 0.8040 0.8110 0.8150 0.8270 0.8320
669.759898 0.8410 0.8510 0.8580 0.8610 0.8700
674.398130 0.8710 0.8810 0.8900 0.8910 0.8950
679.036362 0.9000 0.9070 0.9110 0.9120 0.9200
683.674594 0.9210 0.9220 0.9220 0.9250 0.9300
688.312826 0.9310 0.9310 0.9320 0.9340 0.9340
692.951057 0.9350 0.9370 0.9370 0.9370 0.9380
697.589289 0.9400 0.9410 0.9440 0.9440 0.9440
702.227521 0.9450 0.9450 0.9450 0.9450 0.9450
706.865753 0.9450 0.9450 0.9450 0.9440 0.9440
711.503985 0.9440 0.9420 0.9420 0.9420 0.9410
716.142217 0.9400 0.9400 0.9370 0.9280 0.9220
720.780449 0.9220 0.9250 0.9300 0.9410 0.9480
725.418681 0.9520 0.9540 0.9540 0.9550 0.9550
730.056912 0.9550 0.9550 0.9550 0.9540 0.9540
734.695144 0.9520 0.9470 0.9470 0.9450 0.9410
739.333376 0.9370 0.9340 0.9320 0.9240 0.9120
743.971608 0.9100 0.9070 0.9040 0.9010 0.8910
748.609840 0.8800 0.8680 0.8580 0.8500 0.8300
753.248072 0.7921 0.7910 0.7780 0.7750 0.7541
757.886304 0.7520 0.7480 0.7470 0.7450 0.7450
762.524536 0.7450 0.7470 0.7520 0.7600 0.7620
767.162767 0.7640 0.7620 0.7600 0.7580 0.7570
771.800999 0.7500 0.7480 0.7470 0.7420 0.7380
776.439231 0.7310 0.7070 0.6880 0.6700 0.6510
781.077463 0.6300 0.6011 0.5801 0.5740 0.5740
785.715695 0.5750 0.5870 0.6021 0.7020 0.7180
790.353927 0.7440 0.7720 0.7920 0.8119 0.8220
794.992159 0.8280 0.8340 0.8380 0.8440 0.8470
799.630391 0.8540 0.8670 0.8700 0.8740 0.8899
804.268622 0.8970 0.9040 0.9120 0.9180 0.9240
808.906854 0.9250 0.9250 0.9250 0.9250 0.9250
813.545086 0.9270 0.9320 0.9370 0.9400 0.9500
818.183318 0.9550 0.9570 0.9570 0.9570 0.9580
822.821550 0.9580 0.9570 0.9570 0.9550 0.9540
827.459782 0.9520 0.9500 0.9470 0.9420 0.9410
832.098014 0.9380 0.9350 0.9320 0.9240 0.9170
836.736246 0.9170 0.9050 0.8900 0.8870 0.8800
841.374477 0.8700 0.8520 0.8380 0.8280 0.8140
846.012709 0.8020 0.7820 0.7581 0.7181 0.7011
850.650941 0.6840 0.6820 0.6820 0.6840 0.7010
855.289173 0.7140 0.7320 0.7420 0.7609 0.7750
859.927405 0.7800 0.7820 0.7850 0.7940 0.8040
864.565637 0.8150 0.8210 0.8300 0.8320 0.8440
869.203869 0.8520 0.8540 0.8550 0.8580 0.8680
873.842100 0.8720 0.8750 0.8800 0.8810 0.8900
878.480332 0.8920 0.8950 0.9020 0.9110 0.9120
883.118564 0.9170 0.9250 0.9320 0.9350 0.9370
887.756796 0.9410 0.9470 0.9520 0.9540 0.9570
892.395028 0.9610 0.9620 0.9640 0.9650 0.9670
897.033260 0.9670 0.9680 0.9680 0.9680 0.9680
901.671492 0.9680 0.9680 0.9680 0.9680 0.9680
906.309724 0.9700 0.9700 0.9710 0.9710 0.9770
910.947955 0.9770 0.9750 0.9740 0.9740 0.9740
915.586187 0.9720 0.9720 0.9710 0.9710 0.9710
920.224419 0.9710 0.9710 0.9710 0.9710 0.9710
924.862651 0.9710 0.9710 0.9710 0.9710 0.9710
929.500883 0.9700 0.9700 0.9700 0.9700 0.9680
934.139115 0.9670 0.9670 0.9670 0.9650 0.9600
938.777347 0.9570 0.9550 0.9550 0.9540 0.9540
943.415579 0.9500 0.9480 0.9440 0.9380 0.9350
948.053810 0.9310 0.9240 0.9050 0.8970 0.8940
952.692042 0.8910 0.8820 0.8740 0.8610 0.8480
957.330274 0.8300 0.8210 0.7821 0.7202 0.6741
961.968506 0.6280 0.6280 0.6380 0.7270 0.7770
966.606738 0.8449 0.8680 0.8949 0.9209 0.9369
971.244970 0.9540 0.9570 0.9580 0.9640 0.9700
975.883202 0.9710 0.9770 0.9780 0.9780 0.9810
980.521434 0.9810 0.9810 0.9810 0.9820 0.9820
985.159665 0.9820 0.9820 0.9820 0.9840 0.9840
989.797897 0.9840 0.9840 0.9840 0.9840 0.9840
994.436129 0.9840 0.9820 0.9820 0.9820 0.9820
999.074361 0.9820 0.9820 0.9820 0.9810 0.9810
1003.712593 0.9810 0.9810 0.9810 0.9810 0.9810
1008.350825 0.9810 0.9800 0.9800 0.9800 0.9800
1012.989057 0.9800 0.9800 0.9780 0.9780 0.9780
1017.627289 0.9800 0.9780 0.9780 0.9780 0.9780
1022.265520 0.9780 0.9780 0.9780 0.9780 0.9770
1026.903752 0.9770 0.9770 0.9770 0.9770 0.9770
1031.541984 0.9750 0.9750 0.9750 0.9750 0.9740
1036.180216 0.9720 0.9720 0.9720 0.9710 0.9680
1040.818448 0.9670 0.9650 0.9640 0.9640 0.9620
1045.456680 0.9620 0.9610 0.9610 0.9610 0.9580
1050.094912 0.9580 0.9570 0.9550 0.9550 0.9600
1054.733144 0.9610 0.9610 0.9620 0.9620 0.9610
1059.371375 0.9610 0.9610 0.9600 0.9600 0.9580
1064.009607 0.9580 0.9570 0.9550 0.9550 0.9540
1068.647839 0.9520 0.9510 0.9440 0.9410 0.9380
1073.286071 0.9280 0.9250 0.9220 0.9220 0.9240
1077.924303 0.9310 0.9370 0.9410 0.9410 0.9520
1082.562535 0.9540 0.9540 0.9540 0.9520 0.9510
1087.200767 0.9500 0.9480 0.9470 0.9470 0.9470
1091.838999 0.9450 0.9440 0.9440 0.9420 0.9420
1096.477230 0.9420 0.9420 0.9410 0.9410 0.9410
1101.115462 0.9410 0.9380 0.9380 0.9370 0.9350
1105.753694 0.9340 0.9310 0.9250 0.9220 0.9180
1110.391926 0.9140 0.9110 0.8970 0.8910 0.8810
1115.030158 0.8680 0.8620 0.8610 0.8610 0.8610
1119.668390 0.8610 0.8600 0.8570 0.8540 0.8500
1124.306622 0.8440 0.8350 0.8310 0.8220 0.8180
1128.944854 0.8150 0.8150 0.8140 0.8140 0.8120
1133.583085 0.8120 0.8120 0.8110 0.8110 0.8100
1138.221317 0.8080 0.8050 0.8040 0.7970 0.7820
1142.859549 0.7600 0.7500 0.7240 0.7040 0.6841
1147.497781 0.6469 0.6169 0.5638 0.4539 0.3419
1152.136013 0.1450 0.1200 0.0920 0.0700 0.0311
1156.774245 0.0312 0.1311 0.1651 0.2351 0.4400
1161.412477 0.5140 0.7078 0.7300 0.7549 0.7769
1166.050709 0.7940 0.7980 0.8000 0.8000 0.7980
1170.688940 0.7870 0.7670 0.7280 0.7250 0.7270
1175.327172 0.7550 0.7581 0.8420 0.8620 0.8710
1179.965404 0.8710 0.8720 0.8750 0.8780 0.8810
1184.603636 0.8820 0.8840 0.8900 0.8910 0.8940
1189.241868 0.9010 0.9070 0.9170 0.9280 0.9300
1193.880100 0.9310 0.9320 0.9350 0.9400 0.9410
1198.518332 0.9440 0.9450 0.9470 0.9480 0.9510
1203.156564 0.9510 0.9510 0.9520 0.9520 0.9520
1207.794795 0.9520 0.9520 0.9520 0.9520 0.9520
1212.433027 0.9540 0.9540 0.9550 0.9550 0.9550
1217.071259 0.9570 0.9570 0.9580 0.9580 0.9580
1221.709491 0.9600 0.9600 0.9580 0.9570 0.9570
1226.347723 0.9550 0.9550 0.9540 0.9540 0.9520
1230.985955 0.9500 0.9440 0.9420 0.9410 0.9400
1235.624187 0.9400 0.9380 0.9350 0.9320 0.9280
1240.262419 0.9200 0.9120 0.9040 0.9020 0.9000
1244.900650 0.8970 0.8920 0.8910 0.8840 0.8780
1249.538882 0.8699 0.8519 0.8250 0.8210 0.8110
1254.177114 0.7950 0.7810 0.7650 0.7450 0.7400
1258.815346 0.7250 0.7180 0.7040 0.6940 0.6840
1263.453578 0.6820 0.6820 0.6820 0.6820 0.6840
1268.091810 0.6850 0.6900 0.7010 0.7140 0.7320
1272.730042 0.7380 0.7410 0.7600 0.7650 0.7770
1277.368273 0.7920 0.7940 0.7970 0.8050 0.8150
1282.006505 0.8200 0.8220 0.8320 0.8380 0.8510
1286.644737 0.8600 0.8680 0.8720 0.8810 0.8840
1291.282969 0.8850 0.8900 0.8920 0.8950 0.9000
1295.921201 0.9070 0.9110 0.9120 0.9120 0.9150
1300.559433 0.9180 0.9210 0.9220 0.9240 0.9240
1305.197665 0.9240 0.9250 0.9270 0.9300 0.9320
1309.835897 0.9340 0.9370 0.9420 0.9470 0.9470
1314.474128 0.9480 0.9500 0.9500 0.9510 0.9520
1319.112360 0.9520 0.9540 0.9550 0.9570 0.9580
1323.750592 0.9580 0.9620 0.9670 0.9670 0.9740
1328.388824 0.9780 0.9800 0.9820 0.9840 0.9850
1333.027056 0.9850 0.9850 0.9850 0.9850 0.9870
1337.665288 0.9870 0.9880 0.9880 0.9880 0.9910
1342.303520 0.9920 0.9920 0.9940 0.9950 0.9970
1346.941752 0.9980 1.0000 1.0000 1.0000 1.0010
1351.579983 1.0010 1.0010 1.0010 1.0010 1.0020
1356.218215 1.0020 1.0040 1.0050 1.0080 1.0080
1360.856447 1.0080 1.0070 1.0070 1.0050 1.0050
1365.494679 1.0040 1.0040 1.0020 1.0020 1.0020
1370.132911 1.0020 1.0040 1.0040 1.0050 1.0050
1374.771143 1.0070 1.0080 1.0080 1.0100 1.0110
1379.409375 1.0120 1.0150 1.0150 1.0150 1.0150
1384.047607 1.0140 1.0120 1.0100 1.0080 1.0080
1388.685838 1.0070 1.0070 1.0070 1.0080 1.0080
1393.324070 1.0050 1.0020 1.0010 1.0000 0.9980
1397.962302 0.9980 0.9950 0.9920 0.9880 0.9840
1402.600534 0.9800 0.9780 0.9770 0.9710 0.9640
1407.238766 0.9550 0.9480 0.9380 0.9220 0.8850
1411.876998 0.8810 0.8540 0.8180 0.7910 0.7471
1416.515230 0.7470 0.7521 0.7772 0.8740 0.8920
1421.153462 0.9010 0.9300 0.9410 0.9520 0.9570
1425.791693 0.9600 0.9640 0.9710 0.9720 0.9740
1430.429925 0.9770 0.9780 0.9800 0.9800 0.9800
1435.068157 0.9800 0.9800 0.9800 0.9800 0.9800
1439.706389 0.9800 0.9800 0.9800 0.9810 0.9810
1444.344621 0.9810 0.9810 0.9810 0.9810 0.9810
1448.982853 0.9810 0.9810 0.9810 0.9810 0.9810
1453.621085 0.9810 0.9810 0.9800 0.9800 0.9800
1458.259317 0.9800 0.9780 0.9780 0.9780 0.9780
1462.897548 0.9780 0.9770 0.9770 0.9770 0.9770
1467.535780 0.9750 0.9750 0.9740 0.9740 0.9720
1472.174012 0.9720 0.9710 0.9670 0.9640 0.9620
1476.812244 0.9600 0.9570 0.9570 0.9550 0.9470
1481.450476 0.9410 0.9400 0.9380 0.9350 0.9340
1486.088708 0.9320 0.9310 0.9220 0.9180 0.9140
1490.726940 0.9050 0.9020 0.9000 0.8940 0.8920
1495.365172 0.8900 0.8810 0.8780 0.8750 0.8700
1500.003403 0.8640 0.8570 0.8510 0.8440 0.8400
1504.641635 0.8320 0.8180 0.8110 0.8050 0.8040
1509.279867 0.8010 0.7950 0.7880 0.7840 0.7780
1513.918099 0.7750 0.7670 0.7610 0.7580 0.7510
1518.556331 0.7500 0.7420 0.7280 0.7270 0.7250
1523.194563 0.7240 0.7180 0.7120 0.7070 0.7050
1527.832795 0.7010 0.6970 0.6850 0.6770 0.6640
1532.471027 0.6600 0.6440 0.6300 0.6210 0.6150
1537.109258 0.6009 0.5820 0.5670 0.5500 0.5420
1541.747490 0.5380 0.5350 0.5270 0.5250 0.5220
1546.385722 0.5210 0.5200 0.5200 0.5210 0.5220
1551.023954 0.5240 0.5240 0.5270 0.5340 0.5410
1555.662186 0.5480 0.5541 0.5820 0.6000 0.6040
1560.300418 0.6040 0.6110 0.6140 0.6210 0.6310
1564.938650 0.6470 0.6540 0.6600 0.6650 0.6780
1569.576882 0.6840 0.6940 0.7000 0.7050 0.7070
1574.215113 0.7080 0.7100 0.7110 0.7120 0.7120
1578.853345 0.7140 0.7170 0.7200 0.7210 0.7220
1583.491577 0.7250 0.7310 0.7400 0.7410 0.7450
1588.129809 0.7510 0.7570 0.7680 0.7850 0.7910
1592.768041 0.7950 0.8010 0.8100 0.8180 0.8270
1597.406273 0.8340 0.8410 0.8520 0.8640 0.8700
1602.044505 0.8771 0.8910 0.8920 0.8980 0.9080
1606.682737 0.9140 0.9200 0.9270 0.9300 0.9320
1611.320968 0.9400 0.9440 0.9450 0.9550 0.9620
1615.959200 0.9640 0.9650 0.9670 0.9680 0.9700
1620.597432 0.9710 0.9800 0.9800 0.9820 0.9840
1625.235664 0.9850 0.9870 0.9900 0.9900 0.9920
1629.873896 0.9940 1.0000 1.0010 1.0020 1.0040
1634.512128 1.0040 1.0050 1.0050 1.0050 1.0050
1639.150360 1.0050 1.0050 1.0050 1.0050 1.0050
1643.788592 1.0050 1.0050 1.0050 1.0040 1.0040
1648.426823 1.0040 1.0020 1.0020 1.0010 1.0010
1653.065055 1.0000 1.0000 1.0000 0.9980 0.9980
1657.703287 0.9980 0.9980 1.0000 1.0000 1.0000
1662.341519 1.0000 1.0000 1.0000 1.0000 1.0000
1666.979751 0.9980 0.9980 0.9970 0.9950 0.9940
1671.617983 0.9910 0.9910 0.9900 0.9880 0.9880
1676.256215 0.9880 0.9880 0.9880 0.9880 0.9900
1680.894446 0.9900 0.9900 0.9880 0.9880 0.9880
1685.532678 0.9880 0.9870 0.9870 0.9870 0.9870
1690.170910 0.9870 0.9870 0.9850 0.9850 0.9850
1694.809142 0.9850 0.9840 0.9840 0.9820 0.9820
1699.447374 0.9820 0.9820 0.9820 0.9810 0.9810
1704.085606 0.9800 0.9800 0.9780 0.9770 0.9750
1708.723838 0.9750 0.9750 0.9750 0.9750 0.9750
1713.362070 0.9770 0.9770 0.9780 0.9780 0.9800
1718.000301 0.9800 0.9810 0.9810 0.9810 0.9820
1722.638533 0.9820 0.9810 0.9810 0.9810 0.9810
1727.276765 0.9820 0.9820 0.9840 0.9840 0.9840
1731.914997 0.9850 0.9850 0.9840 0.9840 0.9840
1736.553229 0.9840 0.9840 0.9840 0.9840 0.9840
1741.191461 0.9840 0.9840 0.9870 0.9870 0.9870
1745.829693 0.9870 0.9870 0.9870 0.9870 0.9870
1750.467925 0.9870 0.9850 0.9850 0.9850 0.9850
1755.106156 0.9850 0.9870 0.9870 0.9870 0.9870
1759.744388 0.9870 0.9850 0.9850 0.9850 0.9850
1764.382620 0.9850 0.9850 0.9870 0.9870 0.9880
1769.020852 0.9880 0.9880 0.9900 0.9900 0.9900
1773.659084 0.9880 0.9880 0.9880 0.9880 0.9880
1778.297316 0.9880 0.9880 0.9880 0.9900 0.9900
1782.935548 0.9900 0.9900 0.9900 0.9900 0.9900
1787.573780 0.9900 0.9900 0.9900 0.9900 0.9880
1792.212011 0.9880 0.9880 0.9870 0.9870 0.9850
1796.850243 0.9850 0.9850 0.9850 0.9850 0.9870
1801.488475 0.9880 0.9880 0.9880 0.9870 0.9870
1806.126707 0.9870 0.9870 0.9870 0.9870 0.9870
1810.764939 0.9870 0.9880 0.9880 0.9870 0.9870
1815.403171 0.9870 0.9850 0.9850 0.9850 0.9850
1820.041403 0.9850 0.9850 0.9850 0.9850 0.9850
1824.679635 0.9850 0.9850 0.9850 0.9850 0.9850
1829.317866 0.9850 0.9870 0.9870 0.9880 0.9880
1833.956098 0.9880 0.9870 0.9870 0.9870 0.9870
1838.594330 0.9870 0.9870 0.9870 0.9870 0.9870
1843.232562 0.9870 0.9870 0.9870 0.9870 0.9870
1847.870794 0.9870 0.9870 0.9870 0.9870 0.9870
1852.509026 0.9870 0.9870 0.9870 0.9850 0.9850
1857.147258 0.9850 0.9850 0.9850 0.9870 0.9870
1861.785490 0.9870 0.9880 0.9880 0.9880 0.9900
1866.423721 0.9900 0.9900 0.9900 0.9900 0.9900
1871.061953 0.9900 0.9870 0.9870 0.9870 0.9870
1875.700185 0.9870 0.9870 0.9870 0.9870 0.9880
1880.338417 0.9880 0.9900 0.9910 0.9910 0.9900
1884.976649 0.9910 0.9910 0.9910 0.9910 0.9910
1889.614881 0.9910 0.9920 0.9920 0.9910 0.9910
1894.253113 0.9910 0.9900 0.9900 0.9900 0.9900
1898.891345 0.9900 0.9910 0.9910 0.9910 0.9910
1903.529576 0.9910 0.9910 0.9910 0.9910 0.9910
1908.167808 0.9910 0.9910 0.9910 0.9910 0.9910
1912.806040 0.9900 0.9900 0.9900 0.9900 0.9880
1917.444272 0.9880 0.9900 0.9900 0.9900 0.9900
1922.082504 0.9880 0.9880 0.9870 0.9870 0.9840
1926.720736 0.9820 0.9820 0.9810 0.9810 0.9810
1931.358968 0.9800 0.9800 0.9800 0.9800 0.9800
1935.997200 0.9800 0.9780 0.9770 0.9770 0.9770
1940.635431 0.9770 0.9750 0.9750 0.9750 0.9770
1945.273663 0.9770 0.9770 0.9770 0.9770 0.9800
1949.911895 0.9840 0.9840 0.9850 0.9850 0.9840
1954.550127 0.9840 0.9850 0.9850 0.9870 0.9883
1959.188359 1.0710 1.0709 1.0299 0.9870 0.9840
1963.826591 0.9820 0.9820 0.9820 0.9820 0.9820
1968.464823 0.9820 0.9820 0.9840 0.9840 0.9870
1973.103055 0.9870 0.9870 0.9850 0.9850 0.9850
1977.741286 0.9850 0.9850 0.9850 0.9850 0.9850
1982.379518 0.9850 0.9850 0.9850 0.9850 0.9870
1987.017750 0.9870 0.9850 0.9850 0.9850 0.9840
1991.655982 0.9820 0.9800 0.9800 0.9770 0.9700
1996.294214 0.9700 0.9740 0.9750 0.9750 0.9770
2000.932446 0.9775 0.9780 0.9780 0.9780 0.9780
2005.570678 0.9780 0.9775 0.9770 0.9770 0.9770
2010.208910 0.9770 0.9770 0.9775 0.9780 0.9790
2014.847141 0.9800 0.9800 0.9800 0.9800 0.9800
2019.485373 0.9810 0.9820 0.9820 0.9820 0.9834
2024.123605 0.9849 0.9864 0.9879 0.9875 0.9870
2028.761837 0.9870 0.9870 0.9861 0.9851 0.9845
2033.400069 0.9840 0.9840 0.9840 0.9840 0.9840
2038.038301 0.9845 0.9850 0.9845 0.9840 0.9840
2042.676533 0.9840 0.9840 0.9840 0.9840 0.9840
2047.314765 0.9840 0.9840 0.9840 0.9840 0.9840
2051.952996 0.9840 0.9840 0.9840 0.9840 0.9840
2056.591228 0.9840 0.9840 0.9840 0.9840 0.9831
2061.229460 0.9821 0.9820 0.9820 0.9820 0.9820
2065.867692 0.9820 0.9820 0.9820 0.9820 0.9820
2070.505924 0.9820 0.9820 0.9820 0.9820 0.9820
2075.144156 0.9820 0.9820 0.9820 0.9820 0.9820
2079.782388 0.9820 0.9820 0.9820 0.9816 0.9811
2084.420619 0.9810 0.9810 0.9810 0.9810 0.9806
2089.058851 0.9801 0.9800 0.9800 0.9800 0.9800
2093.697083 0.9792 0.9782 0.9780 0.9780 0.9780
2098.335315 0.9780 0.9780 0.9780 0.9776 0.9771
2102.973547 0.9770 0.9770 0.9770 0.9770 0.9762
2107.611779 0.9752 0.9750 0.9750 0.9750 0.9750
2112.250011 0.9750 0.9750 0.9750 0.9750 0.9750
2116.888243 0.9750 0.9746 0.9741 0.9740 0.9740
2121.526474 0.9732 0.9722 0.9701 0.9676 0.9662
2126.164706 0.9652 0.9650 0.9650 0.9658 0.9668
2130.802938 0.9682 0.9697 0.9704 0.9709 0.9721
2135.441170 0.9736 0.9763 0.9793 0.9804 0.9809
2140.079402 0.9821 0.9836 0.9844 0.9849 0.9857
2144.717634 0.9867 0.9870 0.9870 0.9870 0.9870
2149.355866 0.9870 0.9870 0.9870 0.9870 0.9870
2153.994098 0.9870 0.9870 0.9870 0.9870 0.9870
2158.632329 0.9870 0.9870 0.9870 0.9870 0.9870
2163.270561 0.9870 0.9870 0.9870 0.9870 0.9870
2167.908793 0.9870 0.9870 0.9870 0.9870 0.9870
2172.547025 0.9870 0.9870 0.9870 0.9870 0.9870
2177.185257 0.9870 0.9870 0.9863 0.9853 0.9850
2181.823489 0.9850 0.9847 0.9842 0.9840 0.9840
2186.461721 0.9833 0.9823 0.9820 0.9820 0.9820
2191.099953 0.9820 0.9820 0.9820 0.9817 0.9812
2195.738184 0.9810 0.9810 0.9807 0.9802 0.9794
2200.376416 0.9784 0.9780 0.9780 0.9777 0.9772
2205.014648 0.9754 0.9729 0.9714 0.9704 0.9684
2209.652880 0.9659 0.9650 0.9650 0.9659 0.9674
2214.291112 0.9708 0.9753 0.9773 0.9778 0.9786
2218.929344 0.9796 0.9800 0.9800 0.9803 0.9808
2223.567576 0.9810 0.9810 0.9807 0.9802 0.9800
2228.205808 0.9800 0.9800 0.9800 0.9803 0.9808
2232.844039 0.9810 0.9810 0.9807 0.9802 0.9800
2237.482271 0.9800 0.9800 0.9800 0.9794 0.9784
2242.120503 0.9777 0.9772 0.9770 0.9770 0.9764
2246.758735 0.9754 0.9750 0.9750 0.9747 0.9742
2251.396967 0.9740 0.9740 0.9735 0.9725 0.9717
2256.035199 0.9712 0.9710 0.9710 0.9707 0.9702
2260.673431 0.9695 0.9685 0.9677 0.9672 0.9665
2265.311663 0.9655 0.9647 0.9642 0.9629 0.9610
2269.949894 0.9592 0.9577 0.9570 0.9570 0.9565
2274.588126 0.9555 0.9547 0.9542 0.9540 0.9540
2279.226358 0.9540 0.9540 0.9532 0.9517 0.9510
2283.864590 0.9510 0.9507 0.9503 0.9500 0.9500
2288.502822 0.9495 0.9485 0.9480 0.9480 0.9478
2293.141054 0.9473 0.9463 0.9448 0.9433 0.9418
2297.779286 0.9410 0.9410 0.9408 0.9403 0.9400
2302.417518 0.9400 0.9400 0.9400 0.9402 0.9407
2307.055749 0.9412 0.9417 0.9427 0.9442 0.9461
2311.693981 0.9486 0.9511 0.9536 0.9576 0.9637
2316.332213 0.9672 0.9677 0.9684 0.9694 0.9702
2320.970445 0.9707 0.9712 0.9717 0.9724 0.9734
