##TITLE=DIBROMO FLUOROACETONITRILE
##JCAMP-DX=4.24
##DATA TYPE=INFRARED SPECTRUM
##CLASS=COBLENTZ
##ORIGIN=DOW CHEMICAL COMPANY
##OWNER=COBLENTZ SOCIETY
Collection (C) 2018 copyright by the U.S. Secretary of Commerce
on behalf of the United States of America. All rights reserved.
##DATE=Not specified, most likely prior to 1970
##NAMES=dibromo(fluoro)acetonitrile
##CAS REGISTRY NO=6698-74-4
##MOLFORM=C2 Br2 F N
##SOURCE REFERENCE=COBLENTZ NO. 3236
##$NIST SOURCE=COBLENTZ
##$NIST IMAGE=cob3236
##SPECTROMETER/DATA SYSTEM=Not specified, most likely a prism, grating, or hybrid spectrometer.
##STATE=SOLUTION (10% CCl4 FOR 5000-1330, 10% CS2 FOR 1330-625 CM^-^1)
##PATH LENGTH=0.0118 CM, 0.0118 CM
$$SPECTRAL CONTAMINATION DUE TO CS2 AROUND 850 AND CCl4 AROUND 1550 CM^-^1
##SAMPLING PROCEDURE=TRANSMISSION
##RESOLUTION=4
##DATA PROCESSING=DIGITIZED BY NIST FROM HARD COPY
##XUNITS=MICROMETERS
##YUNITS=TRANSMITTANCE
##XFACTOR=1.000000
##YFACTOR=1
##DELTAX=000.006846
##FIRSTX=2.075
##LASTX=15.8976
##FIRSTY=0.879
##MAXX=15.8976
##MINX=2.075
##MAXY=0.931
##MINY=0
##NPOINTS=2020
##XYDATA=(X++(Y..Y))
2.075000 0.8790 0.8790 0.8790 0.8790 0.8800
2.109247 0.8800 0.8800 0.8820 0.8820 0.8820
2.144000 0.8820 0.8800 0.8800 0.8820 0.8820
2.178247 0.8820 0.8800 0.8800 0.8800 0.8800
2.212000 0.8800 0.8800 0.8800 0.8800 0.8820
2.246247 0.8820 0.8840 0.8840 0.8840 0.8840
2.281000 0.8840 0.8840 0.8840 0.8840 0.8840
2.315247 0.8840 0.8840 0.8840 0.8890 0.8890
2.349000 0.8890 0.8890 0.8890 0.8860 0.8860
2.383247 0.8860 0.8860 0.8860 0.8870 0.8870
2.418000 0.8890 0.8890 0.8890 0.8910 0.8910
2.452247 0.8910 0.8910 0.8920 0.8920 0.8920
2.486000 0.8920 0.8920 0.8920 0.8920 0.8920
2.520247 0.8920 0.8920 0.8920 0.8920 0.8920
2.555000 0.8920 0.8920 0.8920 0.8920 0.8920
2.589247 0.8920 0.8920 0.8910 0.8910 0.8890
2.623000 0.8910 0.8920 0.8940 0.8940 0.8940
2.657247 0.8940 0.8910 0.8910 0.8910 0.8910
2.691000 0.8910 0.8890 0.8890 0.8890 0.8870
2.725247 0.8870 0.8860 0.8860 0.8840 0.8820
2.760000 0.8820 0.8800 0.8800 0.8800 0.8800
2.794247 0.8800 0.8800 0.8800 0.8820 0.8840
2.828000 0.8840 0.8840 0.8820 0.8820 0.8820
2.862247 0.8820 0.8820 0.8820 0.8820 0.8820
2.897000 0.8820 0.8840 0.8860 0.8870 0.8890
2.931247 0.8890 0.8890 0.8890 0.8890 0.8890
2.965000 0.8890 0.8870 0.8870 0.8890 0.8910
2.999247 0.8920 0.8940 0.8940 0.8940 0.8940
3.034000 0.8940 0.8940 0.8940 0.8940 0.8940
3.068247 0.8940 0.8940 0.8940 0.8940 0.8940
3.102000 0.8940 0.8940 0.8940 0.8940 0.8940
3.136247 0.8940 0.8940 0.8940 0.8940 0.8940
3.171000 0.8940 0.8940 0.8940 0.8940 0.8940
3.205247 0.8940 0.8960 0.8940 0.8940 0.8920
3.239000 0.8920 0.8920 0.8920 0.8920 0.8920
3.273247 0.8920 0.8920 0.8920 0.8920 0.8910
3.308000 0.8890 0.8840 0.8800 0.8750 0.8740
3.342247 0.8720 0.8720 0.8740 0.8770 0.8790
3.376000 0.8790 0.8800 0.8800 0.8790 0.8770
3.410247 0.8790 0.8790 0.8820 0.8840 0.8840
3.444000 0.8820 0.8840 0.8840 0.8870 0.8910
3.478247 0.8940 0.8960 0.8970 0.8970 0.8990
3.513000 0.8990 0.8990 0.9030 0.9030 0.9030
3.547247 0.9040 0.9040 0.9040 0.9040 0.9040
3.581000 0.9040 0.9040 0.9040 0.9040 0.9040
3.615247 0.9060 0.9060 0.9060 0.9060 0.9060
3.650000 0.9060 0.9060 0.9060 0.9060 0.9080
3.684247 0.9080 0.9080 0.9060 0.9080 0.9090
3.718000 0.9090 0.9080 0.9060 0.9060 0.9080
3.752247 0.9080 0.9090 0.9090 0.9080 0.9090
3.787000 0.9090 0.9090 0.9110 0.9090 0.9090
3.821247 0.9090 0.9080 0.9080 0.9090 0.9090
3.855000 0.9110 0.9110 0.9090 0.9090 0.9080
3.889247 0.9080 0.9090 0.9110 0.9110 0.9110
3.924000 0.9110 0.9110 0.9110 0.9110 0.9090
3.958247 0.9090 0.9090 0.9090 0.9090 0.9090
3.992000 0.9090 0.9090 0.9090 0.9090 0.9110
4.026247 0.9110 0.9110 0.9110 0.9130 0.9130
4.061000 0.9130 0.9130 0.9130 0.9130 0.9110
4.095247 0.9110 0.9110 0.9090 0.9090 0.9110
4.129000 0.9110 0.9130 0.9130 0.9130 0.9110
4.163247 0.9130 0.9130 0.9130 0.9130 0.9140
4.198000 0.9130 0.9110 0.9090 0.9090 0.9080
4.232247 0.9080 0.9040 0.9030 0.9030 0.9010
4.266000 0.8990 0.8990 0.8970 0.8970 0.8960
4.300247 0.8940 0.8940 0.8940 0.8920 0.8920
4.334000 0.8920 0.8920 0.8970 0.9010 0.9030
4.368247 0.9030 0.9040 0.9060 0.9090 0.9110
4.403000 0.9130 0.9130 0.9110 0.9110 0.9110
4.437247 0.9130 0.9130 0.9130 0.9140 0.9180
4.471000 0.9200 0.9200 0.9200 0.9200 0.9200
4.505247 0.9210 0.9210 0.9230 0.9230 0.9210
4.540000 0.9210 0.9210 0.9210 0.9210 0.9210
4.574247 0.9210 0.9210 0.9230 0.9230 0.9230
4.608000 0.9230 0.9230 0.9230 0.9230 0.9230
4.642247 0.9210 0.9210 0.9210 0.9210 0.9210
4.677000 0.9210 0.9210 0.9210 0.9200 0.9200
4.711247 0.9140 0.9130 0.9060 0.9030 0.8990
4.745000 0.8970 0.8920 0.8910 0.8890 0.8890
4.779247 0.8890 0.8920 0.8940 0.8970 0.9010
4.814000 0.9060 0.9090 0.9110 0.9110 0.9130
4.848247 0.9140 0.9140 0.9160 0.9160 0.9200
4.882000 0.9200 0.9210 0.9210 0.9210 0.9210
4.916247 0.9210 0.9210 0.9210 0.9210 0.9210
4.951000 0.9200 0.9180 0.9180 0.9180 0.9180
4.985247 0.9160 0.9160 0.9160 0.9160 0.9160
5.019000 0.9180 0.9180 0.9210 0.9230 0.9230
5.053247 0.9230 0.9230 0.9230 0.9230 0.9230
5.088000 0.9230 0.9230 0.9230 0.9230 0.9230
5.122247 0.9250 0.9250 0.9250 0.9250 0.9250
5.156000 0.9260 0.9260 0.9260 0.9260 0.9250
5.190247 0.9250 0.9250 0.9250 0.9260 0.9250
5.224000 0.9250 0.9230 0.9230 0.9230 0.9230
5.258247 0.9230 0.9230 0.9230 0.9230 0.9260
5.293000 0.9260 0.9250 0.9250 0.9230 0.9230
5.327247 0.9230 0.9210 0.9210 0.9200 0.9200
5.361000 0.9200 0.9200 0.9200 0.9200 0.9200
5.395247 0.9230 0.9230 0.9210 0.9210 0.9210
5.430000 0.9210 0.9230 0.9250 0.9250 0.9250
5.464247 0.9250 0.9230 0.9250 0.9250 0.9250
5.498000 0.9250 0.9260 0.9250 0.9260 0.9260
5.532247 0.9260 0.9280 0.9280 0.9260 0.9260
5.567000 0.9260 0.9260 0.9260 0.9280 0.9280
5.601247 0.9280 0.9280 0.9280 0.9280 0.9280
5.635000 0.9250 0.9250 0.9230 0.9230 0.9230
5.669247 0.9210 0.9200 0.9200 0.9140 0.9130
5.704000 0.9110 0.9090 0.9080 0.9040 0.9030
5.738247 0.9030 0.9030 0.9040 0.9040 0.9080
5.772000 0.9090 0.9110 0.9130 0.9130 0.9140
5.806247 0.9160 0.9200 0.9200 0.9200 0.9210
5.841000 0.9210 0.9230 0.9230 0.9210 0.9200
5.875247 0.9200 0.9180 0.9180 0.9160 0.9180
5.909000 0.9180 0.9180 0.9180 0.9140 0.9110
5.943247 0.9090 0.9090 0.9090 0.9110 0.9130
5.978000 0.9130 0.9140 0.9130 0.9130 0.9130
6.012247 0.9110 0.9110 0.9090 0.9080 0.9030
6.046000 0.9010 0.8960 0.8890 0.8800 0.8750
6.080247 0.8690 0.8620 0.8600 0.8580 0.8600
6.114000 0.8630 0.8690 0.8720 0.8740 0.8750
6.148247 0.8750 0.8740 0.8690 0.8600 0.8530
6.183000 0.8410 0.8280 0.8140 0.8010 0.7940
6.217247 0.7850 0.7700 0.7550 0.7380 0.7190
6.251000 0.6980 0.6880 0.6760 0.6660 0.6580
6.285247 0.6510 0.6420 0.6370 0.6320 0.6290
6.320000 0.6240 0.6170 0.6080 0.6000 0.5960
6.354247 0.5910 0.5810 0.5730 0.5640 0.5560
6.388000 0.5510 0.5350 0.5170 0.5060 0.4960
6.422247 0.4890 0.4810 0.4770 0.4760 0.4770
6.457000 0.4860 0.4940 0.5050 0.5200 0.5350
6.491247 0.5520 0.5660 0.5810 0.5930 0.6150
6.525000 0.6240 0.6340 0.6410 0.6490 0.6560
6.559247 0.6660 0.6760 0.6870 0.6970 0.7090
6.594000 0.7190 0.7290 0.7390 0.7510 0.7630
6.628247 0.7750 0.7850 0.7970 0.8070 0.8180
6.662000 0.8260 0.8330 0.8410 0.8450 0.8500
6.696247 0.8530 0.8570 0.8620 0.8670 0.8700
6.731000 0.8720 0.8740 0.8750 0.8770 0.8790
6.765247 0.8800 0.8820 0.8840 0.8890 0.8920
6.799000 0.8940 0.8960 0.8970 0.8970 0.8990
6.833247 0.8990 0.9010 0.9010 0.9010 0.9030
6.867000 0.9030 0.9040 0.9040 0.9040 0.9060
6.901247 0.9060 0.9060 0.9080 0.9080 0.9090
6.936000 0.9090 0.9090 0.9110 0.9110 0.9110
6.970247 0.9130 0.9140 0.9160 0.9180 0.9180
7.004000 0.9200 0.9200 0.9180 0.9200 0.9200
7.038247 0.9200 0.9200 0.9210 0.9210 0.9210
7.073000 0.9210 0.9210 0.9210 0.9200 0.9180
7.107247 0.9180 0.9160 0.9140 0.9130 0.9090
7.141000 0.9080 0.9080 0.9080 0.9090 0.9110
7.175247 0.9110 0.9130 0.9130 0.9110 0.9110
7.210000 0.9090 0.9080 0.9080 0.9080 0.9060
7.244247 0.9060 0.9060 0.9080 0.9080 0.9090
7.278000 0.9110 0.9130 0.9130 0.9140 0.9160
7.312247 0.9160 0.9200 0.9210 0.9230 0.9250
7.347000 0.9250 0.9250 0.9260 0.9260 0.9280
7.381247 0.9280 0.9280 0.9280 0.9280 0.9260
7.415000 0.9260 0.9250 0.9230 0.9230 0.9250
7.449247 0.9260 0.9260 0.9260 0.9280 0.9280
7.484000 0.9280 0.9280 0.9260 0.9260 0.9250
7.518247 0.9250 0.9250 0.9250 0.9250 0.9250
7.552000 0.9260 0.9260 0.9280 0.9280 0.9280
7.586247 0.9280 0.9260 0.9230 0.9210 0.9210
7.621000 0.9210 0.9210 0.9210 0.9200 0.9200
7.655247 0.9180 0.9140 0.9110 0.9090 0.9080
7.689000 0.9030 0.9010 0.9010 0.8940 0.8890
7.723247 0.8860 0.8840 0.8750 0.8740 0.8740
7.757000 0.8740 0.8770 0.8800 0.8820 0.8840
7.791247 0.8860 0.8870 0.8910 0.8940 0.8970
7.826000 0.9010 0.9030 0.9030 0.9060 0.9080
7.860247 0.9080 0.9080 0.9080 0.9080 0.9060
7.894000 0.9040 0.9030 0.9030 0.9030 0.9060
7.928247 0.9060 0.9080 0.9090 0.9130 0.9180
7.963000 0.9180 0.9200 0.9210 0.9230 0.9230
7.997247 0.9260 0.9280 0.9280 0.9280 0.9280
8.031000 0.9280 0.9280 0.9300 0.9300 0.9300
8.065247 0.9280 0.9280 0.9300 0.9300 0.9300
8.100000 0.9310 0.9310 0.9310 0.9310 0.9310
8.134247 0.9310 0.9310 0.9310 0.9310 0.9310
8.168000 0.9310 0.9310 0.9310 0.9310 0.9310
8.202247 0.9300 0.9280 0.9280 0.9280 0.9280
8.237000 0.9260 0.9260 0.9260 0.9260 0.9260
8.271247 0.9260 0.9250 0.9250 0.9250 0.9230
8.305000 0.9230 0.9230 0.9210 0.9210 0.9180
8.339247 0.9160 0.9110 0.9090 0.9080 0.9060
8.374000 0.9060 0.9060 0.9060 0.9060 0.9060
8.408247 0.9060 0.9080 0.9080 0.9090 0.9090
8.442000 0.9090 0.9090 0.9090 0.9080 0.9080
8.476247 0.9060 0.9060 0.9040 0.9040 0.9030
8.511000 0.9010 0.8990 0.8970 0.8940 0.8910
8.545247 0.8870 0.8860 0.8820 0.8800 0.8800
8.579000 0.8820 0.8860 0.8910 0.8970 0.9030
8.613247 0.9080 0.9080 0.9090 0.9090 0.9090
8.647000 0.9090 0.9090 0.9090 0.9090 0.9090
8.681247 0.9090 0.9090 0.9080 0.9080 0.9040
8.716000 0.9010 0.9010 0.8990 0.8970 0.8940
8.750247 0.8940 0.8920 0.8920 0.8910 0.8910
8.784000 0.8910 0.8920 0.8940 0.8940 0.8960
8.818247 0.8970 0.8970 0.8970 0.8970 0.8990
8.853000 0.8990 0.8990 0.8990 0.8990 0.8970
8.887247 0.8970 0.8970 0.8970 0.8970 0.8960
8.921000 0.8920 0.8890 0.8870 0.8870 0.8870
8.955247 0.8860 0.8860 0.8870 0.8870 0.8860
8.990000 0.8860 0.8840 0.8820 0.8790 0.8790
9.024247 0.8740 0.8700 0.8690 0.8650 0.8630
9.058000 0.8600 0.8550 0.8500 0.8460 0.8410
9.092247 0.8330 0.8290 0.8240 0.8210 0.8190
9.127000 0.8180 0.8120 0.8110 0.8090 0.8090
9.161247 0.8070 0.8070 0.8070 0.8060 0.8040
9.195000 0.8040 0.8010 0.8010 0.7990 0.7970
9.229247 0.7940 0.7920 0.7900 0.7890 0.7820
9.264000 0.7800 0.7770 0.7700 0.7610 0.7550
9.298247 0.7480 0.7380 0.7220 0.7050 0.6870
9.332000 0.6640 0.6390 0.6100 0.5960 0.5810
9.366247 0.5490 0.5130 0.4760 0.4130 0.3820
9.400000 0.3500 0.3360 0.2840 0.2310 0.1920
9.434247 0.1530 0.1240 0.0930 0.0680 0.0490
9.469000 0.0340 0.0340 0.0320 0.0320 0.0340
9.503247 0.0420 0.0540 0.0660 0.0780 0.0930
9.537000 0.1080 0.1270 0.1460 0.1680 0.1920
9.571247 0.2390 0.2650 0.2890 0.3140 0.3400
9.606000 0.3650 0.3910 0.4430 0.4690 0.4930
9.640247 0.5180 0.5420 0.5640 0.5860 0.6290
9.674000 0.6490 0.6660 0.6830 0.6980 0.7120
9.708247 0.7240 0.7320 0.7410 0.7530 0.7650
9.743000 0.7720 0.7800 0.7890 0.7950 0.8070
9.777247 0.8140 0.8190 0.8280 0.8350 0.8430
9.811000 0.8450 0.8480 0.8520 0.8550 0.8600
9.845247 0.8630 0.8650 0.8670 0.8700 0.8720
9.880000 0.8740 0.8750 0.8770 0.8770 0.8790
9.914247 0.8790 0.8820 0.8840 0.8870 0.8870
9.948000 0.8870 0.8890 0.8890 0.8910 0.8910
9.982247 0.8920 0.8940 0.8970 0.8990 0.9010
10.017000 0.9010 0.9010 0.9030 0.9030 0.9040
10.051247 0.9060 0.9060 0.9080 0.9080 0.9080
10.085000 0.9090 0.9090 0.9090 0.9110 0.9130
10.119247 0.9160 0.9160 0.9180 0.9180 0.9200
10.154000 0.9210 0.9210 0.9210 0.9230 0.9230
10.188247 0.9250 0.9260 0.9280 0.9280 0.9260
10.222000 0.9260 0.9260 0.9260 0.9260 0.9260
10.256247 0.9260 0.9260 0.9260 0.9250 0.9250
10.290000 0.9250 0.9250 0.9230 0.9210 0.9210
10.324247 0.9210 0.9210 0.9210 0.9210 0.9210
10.359000 0.9200 0.9180 0.9180 0.9160 0.9140
10.393247 0.9130 0.9090 0.9060 0.9030 0.9010
10.427000 0.8990 0.8990 0.8990 0.8970 0.8970
10.461247 0.8970 0.8960 0.8960 0.8940 0.8940
10.496000 0.8960 0.8970 0.8990 0.8990 0.9010
10.530247 0.9040 0.9060 0.9080 0.9080 0.9080
10.564000 0.9080 0.9080 0.9080 0.9080 0.9090
10.598247 0.9090 0.9090 0.9090 0.9090 0.9090
10.633000 0.9090 0.9090 0.9090 0.9080 0.9080
10.667247 0.9080 0.9080 0.9060 0.9060 0.9060
10.701000 0.9060 0.9060 0.9060 0.9060 0.9060
10.735247 0.9060 0.9060 0.9040 0.9060 0.9060
10.770000 0.9060 0.9060 0.9040 0.9040 0.9030
10.804247 0.9030 0.9010 0.9010 0.9010 0.8990
10.838000 0.8970 0.8970 0.8960 0.8960 0.8960
10.872247 0.8960 0.8960 0.8960 0.8960 0.8940
10.907000 0.8940 0.8920 0.8920 0.8920 0.8910
10.941247 0.8910 0.8920 0.8920 0.8920 0.8910
10.975000 0.8910 0.8890 0.8890 0.8870 0.8870
11.009247 0.8870 0.8860 0.8860 0.8860 0.8860
11.044000 0.8840 0.8840 0.8820 0.8820 0.8820
11.078247 0.8820 0.8800 0.8800 0.8800 0.8790
11.112000 0.8790 0.8790 0.8790 0.8770 0.8770
11.146247 0.8750 0.8740 0.8720 0.8700 0.8690
11.180000 0.8690 0.8670 0.8650 0.8620 0.8600
11.214247 0.8580 0.8570 0.8530 0.8480 0.8460
11.249000 0.8410 0.8380 0.8360 0.8290 0.8280
11.283247 0.8260 0.8260 0.8210 0.8210 0.8190
11.317000 0.8180 0.8180 0.8120 0.8110 0.8090
11.351247 0.8040 0.8010 0.8010 0.8010 0.7990
11.386000 0.7990 0.7940 0.7900 0.7870 0.7850
11.420247 0.7840 0.7800 0.7780 0.7770 0.7720
11.454000 0.7700 0.7670 0.7670 0.7610 0.7600
11.488247 0.7580 0.7560 0.7550 0.7510 0.7500
11.523000 0.7480 0.7460 0.7410 0.7380 0.7380
11.557247 0.7320 0.7290 0.7270 0.7220 0.7210
11.591000 0.7170 0.7120 0.7090 0.7040 0.7000
11.625247 0.6980 0.6970 0.6950 0.6900 0.6880
11.660000 0.6870 0.6870 0.6850 0.6850 0.6850
11.694247 0.6870 0.6870 0.6900 0.6930 0.6970
11.728000 0.6980 0.7020 0.7040 0.7090 0.7140
11.762247 0.7190 0.7240 0.7290 0.7340 0.7380
11.797000 0.7440 0.7550 0.7630 0.7700 0.7700
11.831247 0.7730 0.7800 0.7850 0.7900 0.7950
11.865000 0.7990 0.8090 0.8140 0.8180 0.8230
11.899247 0.8260 0.8280 0.8290 0.8310 0.8330
11.933000 0.8360 0.8360 0.8380 0.8400 0.8410
11.967247 0.8430 0.8460 0.8480 0.8500 0.8520
12.002000 0.8520 0.8530 0.8550 0.8570 0.8570
12.036247 0.8570 0.8580 0.8600 0.8600 0.8600
12.070000 0.8620 0.8620 0.8620 0.8620 0.8620
12.104247 0.8620 0.8620 0.8620 0.8620 0.8620
12.139000 0.8620 0.8620 0.8600 0.8580 0.8570
12.173247 0.8570 0.8550 0.8550 0.8550 0.8520
12.207000 0.8520 0.8500 0.8460 0.8460 0.8450
12.241247 0.8410 0.8380 0.8360 0.8310 0.8280
12.276000 0.8260 0.8210 0.8180 0.8160 0.8120
12.310247 0.8110 0.8090 0.8070 0.8060 0.8040
12.344000 0.8020 0.8010 0.8010 0.8010 0.8020
12.378247 0.8020 0.8040 0.8060 0.8110 0.8180
12.413000 0.8190 0.8190 0.8210 0.8210 0.8230
12.447247 0.8230 0.8240 0.8260 0.8260 0.8260
12.481000 0.8260 0.8240 0.8240 0.8230 0.8230
12.515247 0.8190 0.8180 0.8160 0.8110 0.8090
12.550000 0.8040 0.8020 0.7990 0.7970 0.7940
12.584247 0.7940 0.7900 0.7890 0.7870 0.7850
12.618000 0.7850 0.7840 0.7840 0.7820 0.7800
12.652247 0.7800 0.7800 0.7820 0.7840 0.7840
12.687000 0.7850 0.7870 0.7870 0.7900 0.7920
12.721247 0.7950 0.7970 0.7970 0.7990 0.8020
12.755000 0.8040 0.8060 0.8060 0.8070 0.8070
12.789247 0.8090 0.8110 0.8120 0.8120 0.8120
12.823000 0.8120 0.8120 0.8120 0.8110 0.8110
12.857247 0.8090 0.8090 0.8070 0.8060 0.8060
12.892000 0.8040 0.8040 0.8020 0.8010 0.8010
12.926247 0.7990 0.7970 0.7940 0.7940 0.7900
12.960000 0.7890 0.7890 0.7870 0.7850 0.7820
12.994247 0.7800 0.7780 0.7770 0.7750 0.7730
13.029000 0.7700 0.7680 0.7670 0.7650 0.7600
13.063247 0.7580 0.7560 0.7510 0.7480 0.7460
13.097000 0.7440 0.7390 0.7360 0.7270 0.7220
13.131247 0.7170 0.7120 0.7070 0.6970 0.6920
13.166000 0.6810 0.6750 0.6680 0.6590 0.6510
13.200247 0.6420 0.6320 0.6220 0.6100 0.6050
13.234000 0.5980 0.5860 0.5730 0.5590 0.5450
13.268247 0.5300 0.5130 0.4960 0.4770 0.4590
13.303000 0.4400 0.4200 0.4090 0.3970 0.3750
13.337247 0.3530 0.3290 0.3040 0.2770 0.2500
13.371000 0.2190 0.2070 0.1930 0.1750 0.1530
13.405247 0.1270 0.0910 0.0760 0.0660 0.0540
13.440000 0.0390 0.0250 0.0150 0.0080 0.0010
13.474247 0.0010 0.0000 0.0000 0.0000 0.0000
13.508000 0.0000 0.0000 0.0000 0.0000 0.0000
13.542247 0.0000 0.0000 0.0000 0.0000 0.0000
13.577000 0.0000 0.0000 0.0000 0.0000 0.0000
13.611247 0.0000 0.0000 0.0000 0.0000 0.0000
13.645000 0.0000 0.0000 0.0000 0.0130 0.0200
13.679247 0.0280 0.0420 0.0570 0.0730 0.0880
13.713000 0.1030 0.1200 0.1390 0.1590 0.1830
13.747247 0.2310 0.2530 0.2670 0.2920 0.3140
13.782000 0.3290 0.3330 0.3500 0.3750 0.4310
13.816247 0.4480 0.4500 0.4620 0.4690 0.4790
13.850000 0.4940 0.5000 0.5100 0.5200 0.5280
13.884247 0.5340 0.5370 0.5400 0.5470 0.5490
13.919000 0.5520 0.5520 0.5540 0.5570 0.5590
13.953247 0.5590 0.5610 0.5610 0.5620 0.5620
13.987000 0.5660 0.5660 0.5680 0.5710 0.5730
14.021247 0.5740 0.5760 0.5760 0.5760 0.5760
14.056000 0.5760 0.5740 0.5730 0.5690 0.5680
14.090247 0.5660 0.5590 0.5540 0.5440 0.5390
14.124000 0.5280 0.5170 0.5010 0.4860 0.4670
14.158247 0.4500 0.4300 0.4110 0.4030 0.3940
14.193000 0.3770 0.3600 0.3380 0.3190 0.3060
14.227247 0.2920 0.2800 0.2650 0.2550 0.2480
14.261000 0.2410 0.2390 0.2380 0.2380 0.2380
14.295247 0.2380 0.2390 0.2460 0.2500 0.2550
14.330000 0.2600 0.2670 0.2750 0.2870 0.2950
14.364247 0.3040 0.3120 0.3210 0.3290 0.3400
14.398000 0.3520 0.3650 0.3770 0.3920 0.3990
14.432247 0.4200 0.4300 0.4400 0.4480 0.4570
14.467000 0.4670 0.4770 0.4860 0.4960 0.5030
14.501247 0.5110 0.5200 0.5280 0.5370 0.5440
14.535000 0.5470 0.5510 0.5560 0.5610 0.5660
14.569247 0.5690 0.5730 0.5740 0.5760 0.5830
14.603000 0.5860 0.5900 0.5930 0.5950 0.5960
14.637247 0.5950 0.5960 0.5960 0.5960 0.5980
14.672000 0.5980 0.5980 0.5980 0.5980 0.5980
14.706247 0.5980 0.5980 0.5980 0.5980 0.5960
14.740000 0.5960 0.5960 0.5960 0.5960 0.5960
14.774247 0.5950 0.5950 0.5910 0.5900 0.5880
14.809000 0.5880 0.5880 0.5880 0.5860 0.5860
14.843247 0.5860 0.5850 0.5830 0.5810 0.5810
14.877000 0.5790 0.5780 0.5760 0.5740 0.5730
14.911247 0.5730 0.5710 0.5710 0.5690 0.5690
14.946000 0.5690 0.5680 0.5680 0.5680 0.5660
14.980247 0.5660 0.5660 0.5660 0.5640 0.5640
15.014000 0.5610 0.5590 0.5570 0.5560 0.5560
15.048247 0.5560 0.5540 0.5540 0.5510 0.5490
15.083000 0.5470 0.5470 0.5450 0.5450 0.5440
15.117247 0.5400 0.5390 0.5370 0.5370 0.5350
15.151000 0.5340 0.5300 0.5280 0.5270 0.5270
15.185247 0.5250 0.5230 0.5200 0.5180 0.5170
15.220000 0.5150 0.5150 0.5130 0.5110 0.5100
15.254247 0.5080 0.5060 0.5030 0.5010 0.5000
15.288000 0.5000 0.4980 0.4980 0.4960 0.4960
15.322247 0.4930 0.4890 0.4880 0.4880 0.4860
15.356000 0.4820 0.4820 0.4810 0.4790 0.4790
15.390247 0.4790 0.4770 0.4760 0.4760 0.4740
15.425000 0.4720 0.4720 0.4710 0.4710 0.4690
15.459247 0.4670 0.4670 0.4650 0.4640 0.4640
15.493000 0.4640 0.4600 0.4590 0.4590 0.4570
15.527247 0.4550 0.4550 0.4540 0.4540 0.4500
15.562000 0.4500 0.4480 0.4480 0.4470 0.4470
15.596247 0.4450 0.4430 0.4430 0.4420 0.4400
15.630000 0.4380 0.4370 0.4370 0.4370 0.4350
15.664247 0.4350 0.4330 0.4310 0.4310 0.4300
15.699000 0.4280 0.4280 0.4280 0.4260 0.4260
15.733247 0.4260 0.4250 0.4250 0.4230 0.4210
15.767000 0.4210 0.4210 0.4210 0.4200 0.4180
15.801247 0.4160 0.4160 0.4140 0.4130 0.4130
15.836000 0.4130 0.4130 0.4130 0.4130 0.4130
15.870247 0.4130 0.4130 0.4130 0.4130 0.4130
##END=
