##TITLE=1,2,5,6-Tetrahydropyridine
##JCAMP-DX=4.24
$$ By DXEDIT 1.05 (RS McDonald)
##DATA TYPE=INFRARED SPECTRUM
##CLASS=COBLENTZ
##ORIGIN=DOW CHEMICAL COMPANY
##OWNER=COPYRIGHT (C) 1988 by COBLENTZ SOCIETY INC.
Collection (C) 2018 copyright by the U.S. Secretary of Commerce
on behalf of the United States of America. All rights reserved.
##DATE=1964/03/19
##CAS REGISTRY NO=694-05-3
##MOLFORM=C5 H9 N
##SOURCE REFERENCE=COBLENTZ NO. 07073
##$NIST SOURCE=COBLENTZ
##$NIST IMAGE=cob7073
##SPECTROMETER/DATA SYSTEM=BECKMAN IR-9 (GRATING)
##INSTRUMENT PARAMETERS=ORDER CHANGES: 670, 1200, 2000 CM^-^1
##STATE=LIQUID (NEAT)
##PATH LENGTH=CAPILLARY
##SAMPLING PROCEDURE=TRANSMISSION
##RESOLUTION=2
##DATA PROCESSING=DIGITIZED BY COBLENTZ SOCIETY (BATCH I) FROM HARD COPY
##XUNITS=1/CM
##YUNITS=TRANSMITTANCE
##XFACTOR=1
##YFACTOR=1
##DELTAX=1
##FIRSTX=3794
##LASTX=399
##FIRSTY=0.794
##MAXX=3794
##MINX=399
##MAXY=0.9094
##MINY=0.3164
##NPOINTS=3396
##XYDATA=(X++(Y..Y))
3794.000000 0.7940 0.7940 0.7940 0.7939 0.7938
3789.000000 0.7937 0.7936 0.7935 0.7935 0.7934
3784.000000 0.7933 0.7932 0.7931 0.7930 0.7930
3779.000000 0.7928 0.7928 0.7926 0.7925 0.7925
3774.000000 0.7925 0.7924 0.7922 0.7921 0.7921
3769.000000 0.7921 0.7921 0.7921 0.7921 0.7921
3764.000000 0.7921 0.7921 0.7921 0.7921 0.7921
3759.000000 0.7921 0.7922 0.7922 0.7922 0.7922
3754.000000 0.7922 0.7922 0.7922 0.7922 0.7922
3749.000000 0.7922 0.7922 0.7922 0.7922 0.7922
3744.000000 0.7922 0.7922 0.7922 0.7922 0.7922
3739.000000 0.7921 0.7921 0.7921 0.7921 0.7921
3734.000000 0.7921 0.7921 0.7921 0.7921 0.7921
3729.000000 0.7919 0.7919 0.7918 0.7918 0.7918
3724.000000 0.7918 0.7918 0.7918 0.7917 0.7917
3719.000000 0.7917 0.7917 0.7915 0.7915 0.7915
3714.000000 0.7915 0.7915 0.7915 0.7914 0.7914
3709.000000 0.7914 0.7914 0.7912 0.7912 0.7912
3704.000000 0.7912 0.7912 0.7912 0.7912 0.7912
3699.000000 0.7912 0.7912 0.7912 0.7912 0.7912
3694.000000 0.7912 0.7912 0.7912 0.7911 0.7911
3689.000000 0.7911 0.7911 0.7911 0.7911 0.7911
3684.000000 0.7911 0.7911 0.7911 0.7911 0.7911
3679.000000 0.7911 0.7911 0.7911 0.7911 0.7911
3674.000000 0.7911 0.7911 0.7911 0.7911 0.7911
3669.000000 0.7911 0.7911 0.7910 0.7910 0.7908
3664.000000 0.7908 0.7908 0.7908 0.7907 0.7906
3659.000000 0.7905 0.7905 0.7904 0.7904 0.7903
3654.000000 0.7901 0.7901 0.7901 0.7900 0.7900
3649.000000 0.7899 0.7898 0.7897 0.7897 0.7896
3644.000000 0.7895 0.7894 0.7894 0.7893 0.7893
3639.000000 0.7892 0.7891 0.7890 0.7890 0.7889
3634.000000 0.7889 0.7888 0.7887 0.7886 0.7886
3629.000000 0.7885 0.7885 0.7884 0.7883 0.7882
3624.000000 0.7881 0.7880 0.7880 0.7878 0.7878
3619.000000 0.7876 0.7875 0.7875 0.7875 0.7874
3614.000000 0.7872 0.7871 0.7871 0.7869 0.7869
3609.000000 0.7868 0.7868 0.7867 0.7865 0.7865
3604.000000 0.7864 0.7862 0.7862 0.7861 0.7861
3599.000000 0.7860 0.7858 0.7858 0.7858 0.7857
3594.000000 0.7856 0.7855 0.7854 0.7853 0.7853
3589.000000 0.7851 0.7851 0.7850 0.7849 0.7848
3584.000000 0.7848 0.7846 0.7844 0.7842 0.7841
3579.000000 0.7839 0.7837 0.7835 0.7834 0.7832
3574.000000 0.7831 0.7828 0.7826 0.7825 0.7824
3569.000000 0.7821 0.7819 0.7818 0.7817 0.7815
3564.000000 0.7814 0.7811 0.7810 0.7808 0.7807
3559.000000 0.7805 0.7803 0.7801 0.7800 0.7798
3554.000000 0.7797 0.7795 0.7793 0.7791 0.7790
3549.000000 0.7788 0.7786 0.7784 0.7782 0.7778
3544.000000 0.7776 0.7775 0.7772 0.7769 0.7768
3539.000000 0.7765 0.7764 0.7761 0.7758 0.7757
3534.000000 0.7755 0.7751 0.7750 0.7748 0.7746
3529.000000 0.7743 0.7741 0.7739 0.7737 0.7734
3524.000000 0.7732 0.7730 0.7728 0.7725 0.7722
3519.000000 0.7721 0.7718 0.7717 0.7715 0.7712
3514.000000 0.7711 0.7708 0.7707 0.7704 0.7701
3509.000000 0.7700 0.7698 0.7696 0.7694 0.7692
3504.000000 0.7690 0.7688 0.7686 0.7684 0.7682
3499.000000 0.7678 0.7676 0.7675 0.7672 0.7671
3494.000000 0.7668 0.7667 0.7665 0.7662 0.7661
3489.000000 0.7658 0.7657 0.7655 0.7653 0.7651
3484.000000 0.7649 0.7647 0.7645 0.7643 0.7641
3479.000000 0.7639 0.7637 0.7635 0.7633 0.7631
3474.000000 0.7630 0.7628 0.7625 0.7624 0.7621
3469.000000 0.7619 0.7618 0.7615 0.7614 0.7611
3464.000000 0.7611 0.7608 0.7607 0.7605 0.7603
3459.000000 0.7601 0.7599 0.7597 0.7595 0.7592
3454.000000 0.7590 0.7587 0.7585 0.7582 0.7580
3449.000000 0.7576 0.7575 0.7571 0.7568 0.7565
3444.000000 0.7564 0.7561 0.7558 0.7556 0.7554
3439.000000 0.7551 0.7548 0.7545 0.7543 0.7540
3434.000000 0.7538 0.7535 0.7532 0.7528 0.7525
3429.000000 0.7522 0.7521 0.7518 0.7515 0.7511
3424.000000 0.7510 0.7507 0.7504 0.7501 0.7499
3419.000000 0.7496 0.7493 0.7490 0.7487 0.7484
3414.000000 0.7482 0.7478 0.7475 0.7472 0.7471
3409.000000 0.7468 0.7465 0.7464 0.7461 0.7458
3404.000000 0.7457 0.7454 0.7451 0.7449 0.7447
3399.000000 0.7445 0.7443 0.7440 0.7438 0.7435
3394.000000 0.7433 0.7430 0.7428 0.7425 0.7424
3389.000000 0.7421 0.7418 0.7415 0.7412 0.7410
3384.000000 0.7407 0.7403 0.7400 0.7396 0.7393
3379.000000 0.7389 0.7385 0.7381 0.7378 0.7374
3374.000000 0.7369 0.7365 0.7362 0.7358 0.7356
3369.000000 0.7351 0.7348 0.7344 0.7340 0.7334
3364.000000 0.7328 0.7318 0.7310 0.7300 0.7291
3359.000000 0.7282 0.7272 0.7257 0.7242 0.7225
3354.000000 0.7211 0.7195 0.7180 0.7164 0.7149
3349.000000 0.7132 0.7115 0.7097 0.7080 0.7061
3344.000000 0.7044 0.7025 0.7008 0.6993 0.6978
3339.000000 0.6965 0.6955 0.6943 0.6932 0.6919
3334.000000 0.6908 0.6897 0.6886 0.6874 0.6862
3329.000000 0.6851 0.6840 0.6828 0.6817 0.6805
3324.000000 0.6793 0.6781 0.6769 0.6756 0.6743
3319.000000 0.6728 0.6712 0.6698 0.6683 0.6668
3314.000000 0.6653 0.6635 0.6618 0.6599 0.6581
3309.000000 0.6561 0.6544 0.6525 0.6507 0.6488
3304.000000 0.6468 0.6451 0.6433 0.6414 0.6396
3299.000000 0.6378 0.6360 0.6341 0.6322 0.6302
3294.000000 0.6282 0.6265 0.6248 0.6238 0.6228
3289.000000 0.6217 0.6207 0.6199 0.6136 0.6183
3284.000000 0.6176 0.6170 0.6165 0.6160 0.6157
3279.000000 0.6153 0.6149 0.6145 0.6141 0.6138
3274.000000 0.6136 0.6136 0.6137 0.6137 0.6137
3269.000000 0.6137 0.6138 0.6138 0.6138 0.6138
3264.000000 0.6139 0.6145 0.6152 0.6159 0.6167
3259.000000 0.6178 0.6189 0.6205 0.6221 0.6239
3254.000000 0.6257 0.6275 0.6294 0.6312 0.6330
3249.000000 0.6348 0.6367 0.6385 0.6404 0.6421
3244.000000 0.6439 0.6451 0.6464 0.6476 0.6490
3239.000000 0.6501 0.6515 0.6526 0.6540 0.6553
3234.000000 0.6565 0.6578 0.6591 0.6603 0.6615
3229.000000 0.6628 0.6643 0.6657 0.6671 0.6685
3224.000000 0.6699 0.6712 0.6726 0.6741 0.6755
3219.000000 0.6768 0.6783 0.6796 0.6810 0.6822
3214.000000 0.6837 0.6850 0.6864 0.6876 0.6891
3209.000000 0.6904 0.6917 0.6930 0.6944 0.6957
3204.000000 0.6971 0.6984 0.6997 0.7007 0.7017
3199.000000 0.7025 0.7034 0.7042 0.7050 0.7058
3194.000000 0.7065 0.7074 0.7083 0.7091 0.7099
3189.000000 0.7107 0.7115 0.7122 0.7132 0.7140
3184.000000 0.7148 0.7156 0.7165 0.7172 0.7181
3179.000000 0.7187 0.7193 0.7198 0.7203 0.7208
3174.000000 0.7212 0.7218 0.7222 0.7228 0.7234
3169.000000 0.7239 0.7244 0.7249 0.7254 0.7258
3164.000000 0.7264 0.7268 0.7275 0.7280 0.7285
3159.000000 0.7290 0.7295 0.7300 0.7305 0.7308
3154.000000 0.7311 0.7312 0.7315 0.7318 0.7321
3149.000000 0.7324 0.7326 0.7330 0.7333 0.7335
3144.000000 0.7338 0.7341 0.7344 0.7346 0.7349
3139.000000 0.7351 0.7354 0.7356 0.7358 0.7361
3134.000000 0.7364 0.7365 0.7368 0.7371 0.7374
3129.000000 0.7375 0.7378 0.7381 0.7384 0.7385
3124.000000 0.7387 0.7388 0.7390 0.7391 0.7392
3119.000000 0.7393 0.7395 0.7396 0.7398 0.7399
3114.000000 0.7401 0.7401 0.7404 0.7405 0.7407
3109.000000 0.7408 0.7408 0.7408 0.7408 0.7408
3104.000000 0.7408 0.7408 0.7408 0.7408 0.7408
3099.000000 0.7408 0.7408 0.7407 0.7451 0.7405
3094.000000 0.7404 0.7401 0.7401 0.7400 0.7399
3089.000000 0.7397 0.7396 0.7394 0.7393 0.7391
3084.000000 0.7390 0.7388 0.7386 0.7384 0.7382
3079.000000 0.7380 0.7378 0.7368 0.7358 0.7345
3074.000000 0.7333 0.7307 0.7282 0.7256 0.7231
3069.000000 0.7212 0.7196 0.7181 0.7165 0.7157
3064.000000 0.7148 0.7141 0.7135 0.7128 0.7122
3059.000000 0.7118 0.7112 0.7108 0.7103 0.7097
3054.000000 0.7092 0.7087 0.7082 0.7076 0.7071
3049.000000 0.7067 0.7062 0.7058 0.7053 0.7040
3044.000000 0.7026 0.7011 0.6995 0.6964 0.6933
3039.000000 0.6895 0.6857 0.6769 0.6684 0.6608
3034.000000 0.6533 0.6465 0.6398 0.6333 0.6269
3029.000000 0.5895 0.5521 0.5109 0.4697 0.4691
3024.000000 0.4703 0.4702 0.4718 0.4833 0.4948
3019.000000 0.5062 0.5179 0.5294 0.5410 0.5525
3014.000000 0.5640 0.5755 0.5871 0.5986 0.6102
3009.000000 0.6217 0.6332 0.6447 0.6562 0.6678
3004.000000 0.6793 0.6872 0.6954 0.6971 0.6990
2999.000000 0.6994 0.6998 0.7001 0.7006 0.7006
2994.000000 0.7006 0.7006 0.6998 0.7003 0.7001
2989.000000 0.6990 0.6978 0.6962 0.6947 0.6931
2984.000000 0.6915 0.6900 0.6884 0.6860 0.6837
2979.000000 0.6811 0.6787 0.6756 0.6725 0.6678
2974.000000 0.6634 0.6588 0.6543 0.6485 0.6428
2969.000000 0.6371 0.6314 0.6228 0.6143 0.6053
2964.000000 0.5962 0.5878 0.5793 0.5719 0.5646
2959.000000 0.5574 0.5502 0.5450 0.5398 0.5353
2954.000000 0.5309 0.5264 0.5220 0.5164 0.5109
2949.000000 0.4994 0.4879 0.4819 0.4759 0.4747
2944.000000 0.4735 0.4723 0.4710 0.4699 0.4687
2939.000000 0.4676 0.4665 0.4654 0.4644 0.4624
2934.000000 0.4604 0.4571 0.4539 0.4410 0.4283
2929.000000 0.4136 0.3990 0.3914 0.3838 0.3782
2924.000000 0.3728 0.3675 0.3622 0.3547 0.3472
2919.000000 0.3349 0.3194 0.3206 0.3187 0.3178
2914.000000 0.3170 0.3169 0.3169 0.3169 0.3172
2909.000000 0.3180 0.3188 0.3205 0.3222 0.3239
2904.000000 0.3257 0.3292 0.3328 0.3416 0.3506
2899.000000 0.3614 0.3725 0.3868 0.4012 0.4084
2894.000000 0.4156 0.4284 0.4412 0.4464 0.4517
2889.000000 0.4548 0.4579 0.4594 0.4610 0.4619
2884.000000 0.4628 0.4636 0.4645 0.4659 0.4673
2879.000000 0.4687 0.4702 0.4721 0.4741 0.4766
2874.000000 0.4791 0.4838 0.4886 0.4974 0.5062
2869.000000 0.5124 0.5187 0.5238 0.5289 0.5359
2864.000000 0.5429 0.5478 0.5527 0.5566 0.5605
2859.000000 0.5646 0.5688 0.5726 0.5764 0.5771
2854.000000 0.5779 0.5781 0.5783 0.5784 0.5858
2849.000000 0.5781 0.5778 0.5772 0.5767 0.5745
2844.000000 0.5723 0.5502 0.5282 0.5112 0.4942
2839.000000 0.4772 0.4603 0.4433 0.4218 0.4244
2834.000000 0.4225 0.4281 0.4337 0.4434 0.4531
2829.000000 0.4627 0.4724 0.4820 0.4916 0.4918
2824.000000 0.4919 0.4919 0.4993 0.4912 0.4909
2819.000000 0.4878 0.4847 0.4808 0.4770 0.4729
2814.000000 0.4689 0.4646 0.4603 0.4583 0.4562
2809.000000 0.4551 0.4539 0.4532 0.4470 0.4521
2804.000000 0.4518 0.4632 0.4746 0.4817 0.4888
2799.000000 0.4947 0.5006 0.5078 0.5151 0.5201
2794.000000 0.5251 0.5281 0.5312 0.5342 0.5373
2789.000000 0.5417 0.5460 0.5506 0.5552 0.5614
2784.000000 0.5676 0.5714 0.5753 0.5790 0.5827
2779.000000 0.5864 0.5901 0.5938 0.5975 0.6012
2774.000000 0.6051 0.6092 0.6134 0.6173 0.6212
2769.000000 0.6244 0.6277 0.6309 0.6342 0.6384
2764.000000 0.6426 0.6475 0.6524 0.6545 0.6565
2759.000000 0.6582 0.6599 0.6615 0.6632 0.6649
2754.000000 0.6667 0.6668 0.6668 0.6665 0.6624
2749.000000 0.6660 0.6657 0.6615 0.6575 0.6508
2744.000000 0.6443 0.6386 0.6329 0.6248 0.6168
2739.000000 0.6029 0.5890 0.5847 0.5805 0.5806
2734.000000 0.5815 0.5822 0.5837 0.5893 0.5949
2729.000000 0.6023 0.6098 0.6137 0.6177 0.6218
2724.000000 0.6259 0.6336 0.6412 0.6469 0.6528
2719.000000 0.6571 0.6614 0.6656 0.6699 0.6742
2714.000000 0.6785 0.6828 0.6871 0.6930 0.6989
2709.000000 0.7046 0.7103 0.7158 0.7214 0.7268
2704.000000 0.7322 0.7365 0.7408 0.7442 0.7475
2699.000000 0.7505 0.7534 0.7554 0.7574 0.7594
2694.000000 0.7615 0.7630 0.7646 0.7651 0.7658
2689.000000 0.7661 0.7665 0.7667 0.7667 0.7667
2684.000000 0.7665 0.7660 0.7656 0.7638 0.7619
2679.000000 0.7600 0.7581 0.7564 0.7547 0.7535
2674.000000 0.7524 0.7528 0.7533 0.7555 0.7576
2669.000000 0.7596 0.7615 0.7634 0.7653 0.7665
2664.000000 0.7680 0.7693 0.7706 0.7717 0.7728
2659.000000 0.7737 0.7746 0.7754 0.7761 0.7765
2654.000000 0.7768 0.7768 0.7771 0.7771 0.7774
2649.000000 0.7775 0.7776 0.7776 0.7775 0.7775
2644.000000 0.7775 0.7774 0.7772 0.7771 0.7771
2639.000000 0.7771 0.7771 0.7771 0.7771 0.7771
2634.000000 0.7772 0.7775 0.7776 0.7782 0.7787
2629.000000 0.7793 0.7800 0.7806 0.7811 0.7831
2624.000000 0.7851 0.7864 0.7878 0.7883 0.7889
2619.000000 0.7890 0.7891 0.7876 0.7862 0.7838
2614.000000 0.7812 0.7807 0.7807 0.7807 0.7812
2609.000000 0.7825 0.7840 0.7853 0.7867 0.7881
2604.000000 0.7895 0.7908 0.7921 0.7932 0.7942
2599.000000 0.7949 0.7956 0.7961 0.7968 0.7975
2594.000000 0.7983 0.7990 0.7997 0.8000 0.8004
2589.000000 0.8008 0.8011 0.8015 0.8018 0.8021
2584.000000 0.8024 0.8026 0.8031 0.8034 0.8038
2579.000000 0.8041 0.8044 0.8047 0.8051 0.8053
2574.000000 0.8056 0.8058 0.8061 0.8062 0.8065
2569.000000 0.8068 0.8069 0.8071 0.8074 0.8075
2564.000000 0.8076 0.8078 0.8080 0.8082 0.8084
2559.000000 0.8085 0.8087 0.8088 0.8090 0.8091
2554.000000 0.8093 0.8094 0.8096 0.8097 0.8098
2549.000000 0.8098 0.8099 0.8100 0.8101 0.8101
2544.000000 0.8101 0.8101 0.8101 0.8100 0.8100
2539.000000 0.8100 0.8100 0.8100 0.8101 0.8101
2534.000000 0.8103 0.8104 0.8105 0.8106 0.8107
2529.000000 0.8108 0.8108 0.8110 0.8111 0.8111
2524.000000 0.8112 0.8112 0.8112 0.8111 0.8110
2519.000000 0.8108 0.8107 0.8106 0.8106 0.8106
2514.000000 0.8106 0.8106 0.8106 0.8106 0.8106
2509.000000 0.8106 0.8106 0.8106 0.8106 0.8106
2504.000000 0.8106 0.8106 0.8106 0.8105 0.8105
2499.000000 0.8107 0.8108 0.8110 0.8111 0.8112
2494.000000 0.8114 0.8114 0.8115 0.8115 0.8115
2489.000000 0.8115 0.8117 0.8117 0.8118 0.8118
2484.000000 0.8118 0.8118 0.8119 0.8121 0.8121
2479.000000 0.8121 0.8122 0.8122 0.8124 0.8124
2474.000000 0.8125 0.8125 0.8125 0.8126 0.8128
2469.000000 0.8128 0.8128 0.8130 0.8131 0.8131
2464.000000 0.8132 0.8133 0.8134 0.8134 0.8135
2459.000000 0.8136 0.8137 0.8137 0.8138 0.8138
2454.000000 0.8139 0.8140 0.8141 0.8141 0.8142
2449.000000 0.8143 0.8144 0.8144 0.8145 0.8146
2444.000000 0.8147 0.8147 0.8147 0.8147 0.8147
2439.000000 0.8147 0.8147 0.8147 0.8148 0.8148
2434.000000 0.8148 0.8148 0.8148 0.8148 0.8149
2429.000000 0.8149 0.8149 0.8150 0.8151 0.8151
2424.000000 0.8153 0.8154 0.8155 0.8156 0.8157
2419.000000 0.8158 0.8158 0.8160 0.8161 0.8161
2414.000000 0.8162 0.8164 0.8165 0.8165 0.8165
2409.000000 0.8167 0.8168 0.8168 0.8169 0.8171
2404.000000 0.8171 0.8172 0.8174 0.8175 0.8175
2399.000000 0.8176 0.8178 0.8178 0.8180 0.8181
2394.000000 0.8182 0.8183 0.8184 0.8185 0.8186
2389.000000 0.8186 0.8187 0.8188 0.8189 0.8190
2384.000000 0.8191 0.8191 0.8192 0.8193 0.8194
2379.000000 0.8194 0.8195 0.8195 0.8196 0.8196
2374.000000 0.8197 0.8198 0.8199 0.8199 0.8200
2369.000000 0.8200 0.8201 0.8201 0.8202 0.8202
2364.000000 0.8203 0.8203 0.8204 0.8205 0.8206
2359.000000 0.8206 0.8207 0.8208 0.8209 0.8209
2354.000000 0.8210 0.8211 0.8212 0.8213 0.8214
2349.000000 0.8215 0.8216 0.8217 0.8218 0.8218
2344.000000 0.8221 0.8221 0.8223 0.8224 0.8225
2339.000000 0.8225 0.8227 0.8228 0.8228 0.8230
2334.000000 0.8231 0.8232 0.8233 0.8234 0.8235
2329.000000 0.8236 0.8237 0.8237 0.8238 0.8238
2324.000000 0.8238 0.8237 0.8237 0.8236 0.8236
2319.000000 0.8235 0.8235 0.8234 0.8234 0.8233
2314.000000 0.8233 0.8232 0.8232 0.8231 0.8231
2309.000000 0.8231 0.8231 0.8230 0.8230 0.8230
2304.000000 0.8230 0.8228 0.8228 0.8228 0.8228
2299.000000 0.8228 0.8228 0.8228 0.8228 0.8227
2294.000000 0.8227 0.8227 0.8227 0.8225 0.8225
2289.000000 0.8225 0.8225 0.8225 0.8225 0.8224
2284.000000 0.8224 0.8224 0.8224 0.8223 0.8223
2279.000000 0.8223 0.8223 0.8221 0.8221 0.8221
2274.000000 0.8221 0.8221 0.8221 0.8221 0.8221
2269.000000 0.8221 0.8221 0.8221 0.8221 0.8221
2264.000000 0.8221 0.8221 0.8221 0.8221 0.8221
2259.000000 0.8221 0.8221 0.8221 0.8221 0.8221
2254.000000 0.8221 0.8221 0.8221 0.8221 0.8223
2249.000000 0.8223 0.8223 0.8223 0.8223 0.8223
2244.000000 0.8223 0.8223 0.8223 0.8223 0.8223
2239.000000 0.8223 0.8223 0.8223 0.8223 0.8223
2234.000000 0.8223 0.8221 0.8221 0.8221 0.8221
2229.000000 0.8221 0.8221 0.8221 0.8221 0.8221
2224.000000 0.8221 0.8221 0.8221 0.8221 0.8221
2219.000000 0.8221 0.8221 0.8221 0.8221 0.8221
2214.000000 0.8221 0.8221 0.8221 0.8221 0.8221
2209.000000 0.8221 0.8221 0.8221 0.8221 0.8221
2204.000000 0.8221 0.8221 0.8221 0.8221 0.8221
2199.000000 0.8221 0.8221 0.8221 0.8223 0.8223
2194.000000 0.8223 0.8223 0.8223 0.8223 0.8223
2189.000000 0.8223 0.8223 0.8223 0.8223 0.8223
2184.000000 0.8223 0.8223 0.8223 0.8223 0.8224
2179.000000 0.8224 0.8224 0.8224 0.8224 0.8224
2174.000000 0.8225 0.8225 0.8225 0.8225 0.8225
2169.000000 0.8225 0.8225 0.8227 0.8228 0.8228
2164.000000 0.8230 0.8231 0.8232 0.8233 0.8234
2159.000000 0.8235 0.8236 0.8237 0.8238 0.8239
2154.000000 0.8240 0.8241 0.8243 0.8244 0.8245
2149.000000 0.8247 0.8249 0.8251 0.8253 0.8254
2144.000000 0.8256 0.8258 0.8260 0.8261 0.8263
2139.000000 0.8265 0.8267 0.8268 0.8271 0.8271
2134.000000 0.8274 0.8275 0.8278 0.8280 0.8282
2129.000000 0.8283 0.8284 0.8285 0.8286 0.8287
2124.000000 0.8288 0.8289 0.8290 0.8290 0.8291
2119.000000 0.8292 0.8293 0.8294 0.8295 0.8296
2114.000000 0.8297 0.8298 0.8299 0.8300 0.8301
2109.000000 0.8302 0.8303 0.8304 0.8305 0.8305
2104.000000 0.8306 0.8307 0.8308 0.8309 0.8310
2099.000000 0.8310 0.8311 0.8312 0.8313 0.8313
2094.000000 0.8314 0.8315 0.8316 0.8316 0.8317
2089.000000 0.8318 0.8318 0.8318 0.8320 0.8321
2084.000000 0.8321 0.8321 0.8323 0.8324 0.8325
2079.000000 0.8325 0.8325 0.8327 0.8328 0.8328
2074.000000 0.8328 0.8330 0.8331 0.8331 0.8332
2069.000000 0.8333 0.8334 0.8334 0.8335 0.8335
2064.000000 0.8336 0.8336 0.8337 0.8337 0.8338
2059.000000 0.8338 0.8339 0.8339 0.8340 0.8340
2054.000000 0.8341 0.8341 0.8342 0.8342 0.8343
2049.000000 0.8343 0.8344 0.8345 0.8346 0.8346
2044.000000 0.8347 0.8347 0.8348 0.8348 0.8349
2039.000000 0.8349 0.8350 0.8350 0.8351 0.8351
2034.000000 0.8352 0.8352 0.8353 0.8353 0.8354
2029.000000 0.8354 0.8355 0.8355 0.8356 0.8356
2024.000000 0.8357 0.8357 0.8358 0.8358 0.8359
2019.000000 0.8359 0.8360 0.8360 0.8361 0.8361
2014.000000 0.8362 0.8362 0.8363 0.8363 0.8364
2009.000000 0.8364 0.8364 0.8364 0.8365 0.8365
2004.000000 0.8365 0.8365 0.8365 0.8365 0.8366
1999.000000 0.8366 0.8366 0.8366 0.8366 0.8366
1994.000000 0.8365 0.8363 0.8362 0.8361 0.8360
1989.000000 0.8359 0.8358 0.8357 0.8357 0.8356
1984.000000 0.8355 0.8353 0.8350 0.8347 0.8344
1979.000000 0.8341 0.8339 0.8336 0.8334 0.8331
1974.000000 0.8328 0.8325 0.8324 0.8318 0.8313
1969.000000 0.8307 0.8301 0.8295 0.8288 0.8282
1964.000000 0.8277 0.8265 0.8251 0.8224 0.8171
1959.000000 0.8142 0.8142 0.8146 0.8161 0.8197
1954.000000 0.8214 0.8232 0.8249 0.8267 0.8286
1949.000000 0.8293 0.8296 0.8299 0.8301 0.8304
1944.000000 0.8303 0.8303 0.8302 0.8300 0.8298
1939.000000 0.8297 0.8295 0.8295 0.8295 0.8295
1934.000000 0.8296 0.8296 0.8297 0.8298 0.8298
1929.000000 0.8299 0.8299 0.8300 0.8300 0.8301
1924.000000 0.8302 0.8302 0.8303 0.8305 0.8307
1919.000000 0.8310 0.8312 0.8315 0.8317 0.8318
1914.000000 0.8321 0.8324 0.8325 0.8328 0.8331
1909.000000 0.8333 0.8336 0.8338 0.8340 0.8343
1904.000000 0.8345 0.8346 0.8363 0.8348 0.8349
1899.000000 0.8350 0.8351 0.8351 0.8349 0.8347
1894.000000 0.8346 0.8346 0.8346 0.8347 0.8349
1889.000000 0.8351 0.8352 0.8354 0.8355 0.8357
1884.000000 0.8359 0.8360 0.8362 0.8364 0.8365
1879.000000 0.8366 0.8368 0.8368 0.8370 0.8371
1874.000000 0.8373 0.8374 0.8375 0.8375 0.8377
1869.000000 0.8378 0.8380 0.8381 0.8382 0.8384
1864.000000 0.8385 0.8386 0.8387 0.8389 0.8390
1859.000000 0.8391 0.8392 0.8394 0.8395 0.8395
1854.000000 0.8395 0.8395 0.8395 0.8395 0.8395
1849.000000 0.8395 0.8395 0.8395 0.8395 0.8395
1844.000000 0.8395 0.8395 0.8395 0.8395 0.8395
1839.000000 0.8395 0.8395 0.8395 0.8395 0.8395
1834.000000 0.8395 0.8395 0.8396 0.8396 0.8396
1829.000000 0.8398 0.8400 0.8402 0.8403 0.8405
1824.000000 0.8407 0.8409 0.8411 0.8413 0.8415
1819.000000 0.8416 0.8418 0.8420 0.8421 0.8424
1814.000000 0.8425 0.8428 0.8430 0.8431 0.8433
1809.000000 0.8434 0.8435 0.8436 0.8437 0.8438
1804.000000 0.8439 0.8440 0.8440 0.8441 0.8442
1799.000000 0.8443 0.8444 0.8445 0.8446 0.8446
1794.000000 0.8446 0.8444 0.8443 0.8442 0.8440
1789.000000 0.8439 0.8438 0.8436 0.8435 0.8434
1784.000000 0.8432 0.8431 0.8430 0.8428 0.8428
1779.000000 0.8428 0.8427 0.8425 0.8425 0.8424
