##TITLE=t-Butyl isocyanide
##JCAMP-DX=4.24
##DATA TYPE=INFRARED SPECTRUM
##ORIGIN=EPA-IR VAPOR PHASE LIBRARY
##OWNER=SRD/NIST
Collection (C) 2018 copyright by the U.S. Secretary of Commerce
on behalf of the United States of America. All rights reserved.
##CAS REGISTRY NO=7188-38-7
##MOLFORM=C 5 H 9 N
##$NIST SOURCE=MSDC-IR
##STATE=gas
##XUNITS=1/CM
##YUNITS=ABSORBANCE
##XFACTOR=1.
##YFACTOR=0.001
##DELTAX=3.85796
##FIRSTX=501.5
##LASTX=4000.7
##FIRSTY=16.371
##MAXX=4000.7
##MINX=501.534
##MAXY=0.356541
##MINY=0
##NPOINTS=908
##XYDATA=(X++(Y..Y))
501.534 16.371 19.291 21.911 21.601 19.631 17.701 15.551 13.121 10.781 8.551
540.114 6.561 4.961 3.681 2.791 2.091 1.4457 1.2279 1.0892 0.80755 0.598
578.693 0.373 0.251 0.134 0.14 0.111 0 0.06 0.102 0.079 0.054
617.273 0.171 0.329 0.393 0.495 0.6805 1.2318 2.281 3.801 5.801 7.831
655.852 9.671 11.201 12.991 14.271 14.211 14.061 14.301 14.231 13.581 12.511
694.432 11.351 10.561 10.261 9.421 9.561 10.581 8.611 6.001 4.611 3.451
733.011 2.571 1.921 1.5322 1.1735 0.934 0.8508 0.848 0.6989 0.601 0.599
771.591 0.566 0.438 0.298 0.223 0.225 0.182 0.192 0.239 0.319 0.36
810.170 0.385 0.573 0.78257 0.9674 1.326 2.101 3.281 4.991 7.481 10.441
848.750 13.501 16.041 17.911 19.941 22.471 21.821 18.331 17.081 15.891 12.561
887.330 8.531 5.021 2.941 2.051 1.6839 1.5436 1.5001 1.4148 1.4102 1.52
925.909 1.5514 1.3604 1.1366 1.0311 0.9349 0.8335 0.6891 0.499 0.46 0.426
964.489 0.448 0.498 0.437 0.445 0.51 0.577 0.613 0.6659 0.78387 0.9511
1003.068 1.1693 1.3936 1.791 2.401 2.931 3.251 3.531 3.891 4.451 5.111
1041.648 5.121 4.531 4.131 3.951 3.641 3.261 2.951 2.601 2.321 2.221
1080.227 2.171 2.161 2.301 2.501 2.631 2.641 2.721 2.821 3.001 3.191
1118.807 3.231 3.251 3.251 3.341 3.581 3.851 4.291 5.041 6.041 7.221
1157.387 8.761 10.671 13.091 16.041 19.671 24.251 29.691 36.201 44.371 54.741
1195.966 67.911 84.031 103.761 128.241 158.351 194.141 229.421 248.881 246.691 222.181
1234.546 170.331 110.291 67.951 44.661 30.591 21.821 16.911 13.761 11.251 9.421
1273.125 8.171 7.221 6.461 5.741 5.211 4.731 4.271 3.901 3.641 3.401
1311.705 3.181 3.051 3.071 3.221 3.591 4.291 5.611 7.941 11.751 17.561
1350.284 25.691 35.761 46.381 54.481 59.051 69.971 96.461 96.101 69.511 64.421
1388.864 65.601 57.101 44.351 33.421 25.241 19.591 17.881 17.271 15.881 14.441
1427.443 13.911 14.401 15.741 18.011 21.111 24.701 28.131 30.801 33.421 37.321
1466.023 41.501 42.981 41.891 42.011 38.801 31.221 28.051 26.611 22.531 17.161
1504.603 12.081 8.231 5.741 4.261 3.471 3.021 2.761 2.611 2.471 2.321
1543.182 2.161 2.061 1.951 1.801 1.6742 1.5924 1.5148 1.4289 1.3685 1.3335
1581.762 1.2961 1.2971 1.3377 1.3734 1.3789 1.3988 1.4749 1.5476 1.5747 1.5973
1620.341 1.6486 1.6993 1.7222 1.761 1.811 1.851 1.881 1.881 1.841 1.761
1658.921 1.685 1.6167 1.5615 1.4817 1.4208 1.429 1.4293 1.4141 1.4167 1.4384
1697.500 1.4775 1.5343 1.6375 1.731 1.771 1.841 1.931 1.961 1.981 2.011
1736.080 2.001 1.961 1.891 1.811 1.7205 1.6399 1.5396 1.4585 1.4481 1.4244
1774.659 1.4162 1.4164 1.4129 1.4193 1.4113 1.4052 1.3588 1.2876 1.2238 1.1687
1813.239 1.1349 1.0867 1.0523 1.0417 1.0108 1.0071 1.0125 1.0341 1.0765 1.0727
1851.819 1.0811 1.1142 1.1463 1.22 1.3147 1.4367 1.5913 1.761 1.951 2.181
1890.398 2.451 2.741 3.041 3.391 3.721 4.081 4.491 4.881 5.291 5.721
1928.978 6.111 6.431 6.691 6.891 7.051 7.101 6.981 6.641 6.081 5.361
1967.557 4.531 3.681 2.941 2.341 1.901 1.5936 1.4148 1.3576 1.3868 1.4544
2006.137 1.6048 1.871 2.211 2.661 3.251 4.021 4.961 6.141 7.681 9.551
2044.716 11.861 14.631 17.951 21.821 26.261 31.351 37.021 43.341 50.551 58.791
2083.296 68.161 80.091 96.541 118.111 146.061 181.291 221.701 263.321 301.401 331.181
2121.875 349.611 356.541 352.091 331.071 290.001 241.251 193.731 140.861 87.671 48.051
2160.455 25.651 15.341 10.661 8.031 6.261 5.061 4.261 3.681 3.201 2.861
2199.035 2.611 2.421 2.281 2.221 2.281 2.421 2.631 2.901 3.141 3.421
2237.614 3.761 4.091 4.291 4.451 4.681 5.011 5.491 6.251 7.381 8.901
2276.194 10.701 12.431 13.751 14.361 13.931 12.481 10.371 8.051 6.001 4.451
2314.773 3.381 2.601 2.061 1.7288 1.4616 1.2699 1.1361 1.0519 1.0003 0.9492
2353.353 0.8872 0.8595 0.8574 0.8746 0.8678 0.8841 0.9264 0.9186 0.9706 1.0662
2391.932 1.1408 1.1974 1.2505 1.3219 1.3574 1.344 1.304 1.2873 1.2841 1.259
2430.512 1.2423 1.2278 1.2514 1.3101 1.3103 1.3466 1.3703 1.3375 1.3454 1.3583
2469.092 1.3135 1.276 1.2843 1.2803 1.2547 1.2105 1.1746 1.1314 1.0685 1.032
2507.671 0.9906 0.9549 0.933 0.8777 0.79251 0.74641 0.75517 0.732361 0.6801 0.6533
2546.251 0.6761 0.6933 0.72877 0.78642 0.8543 0.9949 1.1394 1.2651 1.3908 1.5085
2584.830 1.6732 1.871 2.061 2.211 2.361 2.541 2.691 2.831 3.011 3.161
2623.410 3.231 3.231 3.151 2.971 2.731 2.441 2.231 2.081 1.911 1.781
2661.989 1.698 1.6477 1.599 1.5878 1.5996 1.5309 1.4622 1.4512 1.459 1.4814
2700.569 1.5243 1.5773 1.6253 1.7 1.831 1.961 2.111 2.271 2.461 2.651
2739.148 2.711 2.751 2.801 2.751 2.751 2.751 2.711 2.711 2.761 2.841
2777.728 2.961 3.221 3.541 3.841 4.141 4.451 4.791 5.181 5.631 6.051
2816.308 6.411 6.801 7.131 7.421 7.731 8.111 8.661 9.341 10.211 11.501
2854.887 13.261 15.421 18.041 21.051 24.331 28.111 32.011 35.241 37.561 39.631
2893.467 42.431 45.411 47.781 50.011 52.391 54.551 56.931 60.421 65.261 70.251
2932.046 73.801 76.781 81.191 87.741 93.581 93.771 90.461 92.651 103.501 122.061
2970.626 150.911 188.241 221.451 240.311 261.681 311.961 319.151 261.851 228.321 206.781
3009.205 166.771 117.501 74.691 44.991 26.901 16.911 11.651 8.821 7.151 6.171
3047.785 5.521 5.091 4.751 4.501 4.291 4.161 4.061 3.921 3.821 3.841
3086.364 3.831 3.731 3.741 3.831 3.851 3.871 3.871 3.871 3.851 3.861
3124.944 3.831 3.871 3.891 3.861 3.911 4.021 4.121 4.251 4.381 4.421
3163.524 4.431 4.411 4.351 4.261 4.191 4.201 4.211 4.221 4.241 4.231
3202.103 4.221 4.211 4.161 4.131 4.111 4.151 4.171 4.121 4.261 4.371
3240.683 4.401 4.531 4.571 4.451 4.231 3.921 3.661 3.361 2.971 2.631
3279.262 2.321 2.021 1.781 1.6279 1.4799 1.3134 1.2441 1.2256 1.2043 1.3524
3317.842 1.5711 1.801 2.151 2.481 2.691 2.831 3.051 3.241 3.211 3.011
3356.421 2.811 2.671 2.541 2.401 2.221 2.031 1.981 2.021 1.881 1.6959
3395.001 1.5066 1.3192 1.1758 1.0586 1.0007 0.8771 0.79257 0.74165 0.7295 0.75359
3433.580 0.739752 0.76749 0.8504 0.79961 0.735085 0.8759 0.9063 0.8509 0.9362 1.0251
3472.160 1.1104 1.2173 1.2933 1.4166 1.5038 1.5524 1.5834 1.6401 1.6929 1.5324
3510.740 1.3589 1.35 1.3205 1.1967 1.0244 0.912 0.8664 0.79026 0.79105 0.81146
3549.319 0.76 0.6604 0.6436 0.667 0.730116 0.77635 0.7031 0.6554 0.615 0.624
3587.899 0.6337 0.609 0.6794 0.736019 0.74524 0.676 0.562 0.598 0.7181 0.7088
3626.478 0.627 0.61 0.6454 0.7059 0.75821 0.77128 0.6908 0.6714 0.6756 0.6918
3665.058 0.77704 0.76542 0.72103 0.6756 0.6594 0.6863 0.7785 0.80423 0.76784 0.76372
3703.637 0.698 0.6945 0.6942 0.6502 0.73526 0.80765 0.74938 0.6758 0.72755 0.6934
3742.217 0.6969 0.78419 0.73345 0.7506 0.82063 0.859 0.8312 0.79227 0.7166 0.736454
3780.797 0.8693 0.8786 0.8391 0.8526 0.9345 0.9468 0.9525 1.0083 1.026 1.0732
3819.376 1.1482 1.1488 1.1058 1.1067 1.1192 1.1346 1.1709 1.248 1.2556 1.3042
3857.956 1.3533 1.329 1.3106 1.3472 1.3174 1.3168 1.3954 1.4692 1.4915 1.4473
3896.535 1.5154 1.5974 1.6669 1.731 1.811 1.781 1.751 1.801 1.771 1.7088
3935.115 1.741 1.741 1.6955 1.7281 1.731 1.6736 1.761 1.891 1.881 1.891
3973.694 1.961 1.941 1.871 1.811 1.771 1.811 1.851 1.851
##END=
