##TITLE=METHYL CHLORIDE
##JCAMP-DX=4.24
##DATA TYPE=INFRARED SPECTRUM
##CLASS=COBLENTZ
##ORIGIN=DOW CHEMICAL COMPANY
##OWNER=COBLENTZ SOCIETY
Collection (C) 2018 copyright by the U.S. Secretary of Commerce
on behalf of the United States of America. All rights reserved.
##DATE=1964
##NAMES=chloromethane
##CAS REGISTRY NO=74-87-3
##MOLFORM=C H3 Cl
##SOURCE REFERENCE=COBLENTZ NO. 8844
##$NIST SOURCE=COBLENTZ
##$NIST IMAGE=cob8844
##SPECTROMETER/DATA SYSTEM=DOW KBr FOREPRISM
##INSTRUMENT PARAMETERS=GRATING CHANGED AT 5.0, 7.5, 15.0 MICRON
##STATE=GAS (200 mmHg DILUTED TO A TOTAL PRESSURE OF 600 mmHg WITH NITROGEN)
##PATH LENGTH=5 CM
$$SPECTRAL CONTAMINATION DUE TO METHANE AROUND 1310 CM^-^1
##SAMPLING PROCEDURE=TRANSMISSION
##RESOLUTION=4
##DATA PROCESSING=DIGITIZED BY NIST FROM HARD COPY (FROM TWO SEGMENTS)
##XUNITS=1/CM
##YUNITS=TRANSMITTANCE
##XFACTOR=1.000000
##YFACTOR=1
##DELTAX=0.936331
##FIRSTX=450.375
##LASTX=3803.38
##FIRSTY=1.054
##MAXX=3803.38
##MINX=450.375
##MAXY=1.08
##MINY=0.0870085
##NPOINTS=3582
##XYDATA=(X++(Y..Y))
450.375000 1.0540 1.0540 1.0550 1.0540 1.0540
455.056654 1.0520 1.0520 1.0520 1.0520 1.0510
459.738308 1.0510 1.0510 1.0510 1.0490 1.0490
464.419962 1.0490 1.0490 1.0490 1.0510 1.0510
469.101616 1.0520 1.0540 1.0540 1.0550 1.0550
473.783270 1.0550 1.0570 1.0570 1.0570 1.0570
478.464924 1.0590 1.0590 1.0580 1.0590 1.0590
483.146578 1.0610 1.0610 1.0620 1.0620 1.0650
487.828232 1.0680 1.0700 1.0700 1.0700 1.0710
492.509886 1.0710 1.0710 1.0710 1.0730 1.0740
497.191540 1.0740 1.0760 1.0770 1.0780 1.0780
501.873194 1.0800 1.0800 1.0800 1.0800 1.0800
506.554848 1.0800 1.0800 1.0800 1.0800 1.0800
511.236502 1.0800 1.0800 1.0800 1.0800 1.0780
515.918156 1.0780 1.0780 1.0770 1.0770 1.0770
520.599810 1.0760 1.0760 1.0760 1.0760 1.0730
525.281464 1.0730 1.0730 1.0740 1.0740 1.0740
529.963118 1.0740 1.0730 1.0710 1.0700 1.0680
534.644772 1.0670 1.0670 1.0670 1.0650 1.0650
539.326426 1.0650 1.0650 1.0640 1.0620 1.0590
544.008080 1.0590 1.0580 1.0580 1.0570 1.0550
548.689734 1.0550 1.0540 1.0520 1.0520 1.0520
553.371388 1.0520 1.0520 1.0540 1.0540 1.0550
558.053042 1.0570 1.0580 1.0580 1.0580 1.0580
562.734696 1.0580 1.0580 1.0580 1.0590 1.0590
567.416350 1.0590 1.0590 1.0620 1.0620 1.0620
572.098004 1.0620 1.0640 1.0640 1.0650 1.0650
576.779658 1.0670 1.0670 1.0680 1.0680 1.0700
581.461312 1.0700 1.0700 1.0700 1.0700 1.0700
586.142966 1.0700 1.0700 1.0710 1.0710 1.0680
590.824620 1.0680 1.0680 1.0680 1.0680 1.0680
595.506274 1.0700 1.0700 1.0700 1.0680 1.0680
600.187928 1.0680 1.0680 1.0680 1.0680 1.0680
604.869582 1.0670 1.0650 1.0650 1.0650 1.0640
609.551236 1.0620 1.0620 1.0620 1.0620 1.0610
614.232890 1.0610 1.0610 1.0610 1.0610 1.0620
618.914544 1.0620 1.0620 1.0610 1.0610 1.0590
623.596198 1.0590 1.0590 1.0610 1.0590 1.0590
628.277853 1.0590 1.0610 1.0610 1.0610 1.0620
632.959507 1.0620 1.0620 1.0620 1.0610 1.0610
637.641161 1.0610 1.0620 1.0620 1.0610 1.0610
642.322815 1.0610 1.0590 1.0580 1.0570 1.0540
647.004469 1.0520 1.0490 1.0450 1.0400 1.0330
651.686123 1.0300 1.0260 1.0230 1.0140 1.0070
656.367777 1.0020 1.0010 0.9980 0.9920 0.9820
661.049431 0.9760 0.9720 0.9660 0.9610 0.9570
665.731085 0.9540 0.9530 0.9480 0.9470 0.9690
670.412739 0.9690 0.9231 0.9250 0.9599 0.9600
675.094393 0.9310 0.8330 0.8330 0.9069 0.9030
679.776047 0.8691 0.8560 0.8430 0.8141 0.7951
684.457701 0.7760 0.7510 0.7330 0.7280 0.7130
689.139355 0.6950 0.6780 0.6561 0.6470 0.6311
693.821009 0.6150 0.5900 0.5650 0.5580 0.5490
698.502663 0.5240 0.4981 0.4661 0.4371 0.4260
703.184317 0.3960 0.3610 0.3260 0.3120 0.3010
707.865971 0.2771 0.2571 0.2062 0.1941 0.1841
712.547625 0.1730 0.1720 0.1720 0.1720 0.1720
717.229279 0.1730 0.1760 0.1899 0.1950 0.2129
721.910933 0.2330 0.2510 0.2900 0.2900 0.2551
726.592587 0.2510 0.1762 0.1760 0.5147 0.5160
731.274241 0.2030 0.1980 0.1490 0.0970 0.3148
735.955895 0.5127 0.5170 0.3714 0.3172 0.2981
740.637549 0.2290 0.1680 0.1190 0.1050 0.1020
745.319203 0.0970 0.0920 0.0890 0.0870 0.0890
750.000857 0.1050 0.1140 0.1280 0.1380 0.1520
754.682511 0.1750 0.2069 0.2509 0.2699 0.3048
759.364165 0.3942 0.5731 0.6620 0.7200 0.7769
764.045819 0.8149 0.8519 0.8829 0.9119 0.9339
768.727473 0.9560 0.9780 1.0230 1.0240 1.0270
773.409127 1.0300 1.0330 1.0330 1.0350 1.0350
778.090781 1.0330 1.0330 1.0320 1.0320 1.0300
782.772435 1.0300 1.0290 1.0290 1.0270 1.0270
787.454089 1.0290 1.0290 1.0290 1.0300 1.0300
792.135743 1.0320 1.0320 1.0320 1.0320 1.0320
796.817397 1.0320 1.0320 1.0330 1.0330 1.0330
801.499051 1.0330 1.0330 1.0330 1.0330 1.0330
806.180705 1.0330 1.0330 1.0350 1.0350 1.0330
810.862359 1.0330 1.0330 1.0330 1.0350 1.0350
815.544013 1.0350 1.0350 1.0350 1.0350 1.0350
820.225667 1.0350 1.0350 1.0360 1.0360 1.0360
824.907321 1.0360 1.0360 1.0360 1.0360 1.0360
829.588975 1.0360 1.0360 1.0360 1.0380 1.0380
834.270629 1.0380 1.0380 1.0380 1.0380 1.0390
838.952283 1.0390 1.0360 1.0360 1.0380 1.0380
843.633937 1.0380 1.0380 1.0390 1.0390 1.0390
848.315591 1.0390 1.0390 1.0390 1.0390 1.0380
852.997245 1.0380 1.0390 1.0390 1.0390 1.0380
857.678899 1.0380 1.0380 1.0380 1.0380 1.0380
862.360553 1.0380 1.0380 1.0360 1.0360 1.0360
867.042207 1.0350 1.0350 1.0360 1.0360 1.0360
871.723861 1.0360 1.0360 1.0380 1.0380 1.0380
876.405515 1.0360 1.0360 1.0380 1.0380 1.0360
881.087169 1.0360 1.0360 1.0360 1.0360 1.0350
885.768823 1.0350 1.0350 1.0350 1.0330 1.0350
890.450477 1.0350 1.0350 1.0350 1.0350 1.0350
895.132131 1.0350 1.0350 1.0350 1.0350 1.0350
899.813785 1.0350 1.0350 1.0350 1.0350 1.0350
904.495439 1.0330 1.0300 1.0270 1.0240 1.0210
909.177093 1.0240 1.0290 1.0330 1.0330 1.0330
913.858747 1.0330 1.0330 1.0330 1.0330 1.0330
918.540401 1.0330 1.0320 1.0320 1.0320 1.0320
923.222055 1.0290 1.0290 1.0270 1.0270 1.0260
927.903709 1.0260 1.0260 1.0260 1.0260 1.0260
932.585363 1.0240 1.0240 1.0240 1.0230 1.0230
937.267017 1.0200 1.0190 1.0190 1.0160 1.0110
941.948671 1.0100 1.0070 1.0050 1.0040 1.0020
946.630325 1.0010 1.0000 0.9950 0.9850 0.9800
951.311979 0.9760 0.9750 0.9720 0.9690 0.9610
955.993633 0.9370 0.9090 0.9090 0.9290 0.9280
960.675287 0.9210 0.9120 0.9040 0.8970 0.8970
965.356941 0.9090 0.9310 0.9320 0.9340 0.8711
970.038595 0.8401 0.8400 0.9556 0.9590 0.9371
974.720249 0.9129 0.8720 0.8300 0.7890 0.7890
979.401904 0.8838 0.8830 0.8780 0.8082 0.8080
984.083558 0.8680 0.8880 0.8900 0.9040 0.9040
988.765212 0.8930 0.8591 0.8081 0.8080 0.9156
993.446866 0.9180 0.9350 0.9280 0.8740 0.8610
998.128520 0.6983 0.6980 0.9472 0.9510 0.9480
1002.810174 0.7900 0.7900 0.8330 0.8850 0.9339
1007.491828 0.9370 0.9450 0.9191 0.8752 0.8202
1012.173482 0.7480 0.7481 0.8900 0.9400 0.9400
1016.855136 0.9060 0.7553 0.7510 0.5816 0.5810
1021.536790 0.9320 0.9400 0.9400 0.8661 0.7931
1026.218444 0.7631 0.7630 0.9015 0.9319 0.9091
1030.900098 0.8810 0.8400 0.7600 0.7600 0.9308
1035.581752 0.9350 0.9350 0.9320 0.8553 0.6698
1040.263406 0.6694 0.9420 0.9560 0.9670 0.9670
1044.945060 0.9350 0.8841 0.8800 0.8282 0.8280
1049.626714 0.9470 0.9590 0.9600 0.9600 0.9260
1054.308368 0.8591 0.8590 0.9348 0.9629 0.9640
1058.990022 0.9670 0.9670 0.9410 0.8111 0.8110
1063.671676 0.9607 0.9780 0.9860 0.9860 0.9671
1068.353330 0.9530 0.9340 0.9340 0.9800 0.9820
1073.034984 0.9820 0.9800 0.9790 0.9700 0.9561
1077.716638 0.9560 0.9820 1.0010 1.0010 1.0010
1082.398292 1.0000 0.9561 1.0109 1.0130 1.0170
1087.079946 1.0210 1.0230 1.0230 1.0230 1.0240
1091.761600 1.0260 1.0260 1.0270 1.0290 1.0290
1096.443254 1.0300 1.0320 1.0350 1.0360 1.0380
1101.124908 1.0390 1.0390 1.0400 1.0400 1.0420
1105.806562 1.0430 1.0430 1.0480 1.0490 1.0510
1110.488216 1.0520 1.0540 1.0540 1.0540 1.0550
1115.169870 1.0570 1.0570 1.0570 1.0580 1.0580
1119.851524 1.0570 1.0570 1.0570 1.0580 1.0590
1124.533178 1.0610 1.0610 1.0610 1.0610 1.0610
1129.214832 1.0620 1.0620 1.0620 1.0620 1.0620
1133.896486 1.0620 1.0620 1.0610 1.0610 1.0610
1138.578140 1.0610 1.0590 1.0590 1.0590 1.0590
1143.259794 1.0610 1.0610 1.0620 1.0620 1.0620
1147.941448 1.0620 1.0620 1.0620 1.0640 1.0640
1152.623102 1.0640 1.0640 1.0640 1.0640 1.0640
1157.304756 1.0640 1.0640 1.0640 1.0640 1.0640
1161.986410 1.0640 1.0640 1.0640 1.0620 1.0620
1166.668064 1.0620 1.0610 1.0620 1.0620 1.0620
1171.349718 1.0620 1.0620 1.0620 1.0620 1.0620
1176.031372 1.0620 1.0590 1.0590 1.0590 1.0590
1180.713026 1.0610 1.0620 1.0640 1.0650 1.0670
1185.394680 1.0680 1.0700 1.0710 1.0710 1.0700
1190.076334 1.0680 1.0670 1.0670 1.0670 1.0670
1194.757988 1.0670 1.0670 1.0710 1.0710 1.0710
1199.439642 1.0700 1.0700 1.0680 1.0680 1.0680
1204.121296 1.0700 1.0700 1.0700 1.0710 1.0710
1208.802950 1.0670 1.0670 1.0700 1.0700 1.0700
1213.484604 1.0710 1.0710 1.0710 1.0710 1.0710
1218.166258 1.0700 1.0670 1.0650 1.0650 1.0650
1222.847912 1.0670 1.0680 1.0700 1.0700 1.0710
1227.529566 1.0710 1.0670 1.0640 1.0620 1.0640
1232.211220 1.0670 1.0700 1.0700 1.0710 1.0591
1236.892874 1.0540 1.0490 1.0480 1.0480 1.0540
1241.574528 1.0510 1.0490 1.0480 1.0460 1.0460
1246.256182 1.0380 1.0330 1.0330 1.0380 1.0420
1250.937836 1.0450 1.0460 1.0460 1.0331 1.0260
1255.619490 1.0300 1.0330 1.0350 1.0390 1.0390
1260.301144 1.0240 1.0100 1.0080 1.0070 1.0070
1264.982798 1.0050 1.0010 1.0010 0.9950 0.9890
1269.664452 0.9780 0.9610 0.9570 0.9540 0.9450
1274.346106 0.9450 0.9540 0.9420 0.9290 0.9230
1279.027760 0.9120 0.9230 0.9290 0.9350 0.9211
1283.709414 0.9160 0.9100 0.9210 0.9310 0.9480
1288.391068 0.9470 0.8971 0.8611 0.8610 0.9447
1293.072722 0.9449 0.9040 0.8910 0.8780 0.8740
1297.754376 0.8610 0.8460 0.8430 0.8390 0.8360
1302.436030 0.8340 0.8240 0.8090 0.7950 0.7800
1307.117684 0.7700 0.7520 0.7520 0.7959 0.8957
1311.799338 0.8960 0.8810 0.8750 0.8720 0.8710
1316.480992 0.8590 0.8281 0.8140 0.8080 0.7960
1321.162646 0.7800 0.7610 0.7290 0.7160 0.7070
1325.844300 0.6920 0.6810 0.6471 0.6301 0.6161
1330.525955 0.6080 0.5960 0.5770 0.5580 0.5380
1335.207609 0.5240 0.5210 0.5210 0.5170 0.5021
1339.889263 0.4790 0.4570 0.4230 0.4230 0.4480
1344.570917 0.4510 0.4510 0.4191 0.4190 0.4788
1349.252571 0.5042 0.5991 0.6470 0.6490 0.6840
1353.934225 0.7219 0.8018 0.8020 0.7542 0.7440
1358.615879 0.6279 0.5950 0.5610 0.5610 0.5960
1363.297533 0.5920 0.5551 0.5191 0.4921 0.4671
1367.979187 0.4420 0.4180 0.3780 0.3740 0.3780
1372.660841 0.3930 0.4000 0.4070 0.4180 0.4190
1377.342495 0.4180 0.4160 0.4180 0.4570 0.5569
1382.024149 0.5670 0.6049 0.6628 0.7128 0.7578
1386.705803 0.7770 0.7729 0.6789 0.5860 0.5860
1391.387457 0.7109 0.7699 0.8119 0.8309 0.8450
1396.069111 0.8500 0.8710 0.8750 0.8369 0.6880
1400.750765 0.6490 0.6490 0.7378 0.7849 0.8089
1405.432419 0.8340 0.8430 0.8460 0.8490 0.8490
1410.114073 0.8500 0.8390 0.6715 0.5514 0.5510
1414.795727 0.6142 0.7470 0.7790 0.8150 0.8330
1419.477381 0.8360 0.8360 0.8340 0.8310 0.7692
1424.159035 0.7039 0.6399 0.5839 0.5290 0.4160
1428.840689 0.3091 0.7843 0.8489 0.8420 0.8370
1433.522343 0.8270 0.8150 0.8040 0.7800 0.7690
1438.203997 0.5893 0.4094 0.7919 0.7960 0.7960
1442.885651 0.7950 0.7950 0.7950 0.7820 0.7710
1447.567305 0.7670 0.7420 0.6472 0.5204 0.3935
1452.248959 0.7001 0.7261 0.7800 0.7960 0.8010
1456.930613 0.8010 0.7980 0.7950 0.7930 0.5847
1461.612267 0.5018 0.4195 0.7061 0.8040 0.8070
1466.293921 0.8070 0.8050 0.8040 0.7950 0.7800
1470.975575 0.7770 0.7760 0.7729 0.5700 0.5140
1475.657229 0.4591 0.6906 0.7638 0.7800 0.7850
1480.338883 0.7890 0.7920 0.7930 0.7850 0.7830
1485.020537 0.6761 0.5712 0.5191 0.4642 0.6105
1489.702191 0.8040 0.8150 0.8260 0.8260 0.8240
1494.383845 0.8170 0.8120 0.8090 0.8070 0.8040
1499.065499 0.5646 0.3275 0.8090 0.8110 0.8110
1503.747153 0.8090 0.8070 0.8040 0.7980 0.7860
1508.428807 0.7420 0.7348 0.6050 0.6050 0.8269
1513.110461 0.8300 0.8300 0.8310 0.8310 0.8310
1517.792115 0.8310 0.8280 0.8259 0.7200 0.6090
1522.473769 0.6090 0.8397 0.8829 0.8830 0.8680
1527.155423 0.8650 0.8740 0.8770 0.8770 0.8021
1531.837077 0.7471 0.7440 0.5814 0.5810 0.8898
1536.518731 0.9180 0.8960 0.8930 0.8770 0.8690
1541.200385 0.8610 0.8590 0.8690 0.8710 0.7554
1545.882039 0.7553 0.8960 0.9100 0.9100 0.9060
1550.563693 0.9000 0.8960 0.8930 0.9040 0.9040
1555.245347 0.8070 0.8072 0.9340 0.9400 0.9450
1559.927001 0.9470 0.9470 0.9450 0.9380 0.9340
1564.608655 0.9320 0.9309 0.8080 0.8080 0.9479
1569.290309 0.9540 0.9560 0.9640 0.9640 0.9630
1573.971963 0.9540 0.9450 0.9400 0.9090 0.9090
1578.653617 0.9420 0.9530 0.9560 0.9570 0.9600
1583.335271 0.9610 0.9600 0.9590 0.9570 0.9500
1588.016925 0.9480 0.9480 0.9560 0.9610 0.9730
1592.698579 0.9760 0.9760 0.9760 0.9760 0.9750
1597.380233 0.9660 0.9630 0.9640 0.9760 0.9800
1602.061887 0.9820 0.9830 0.9830 0.9820 0.9820
1606.743541 0.9800 0.9790 0.9800 0.9790 0.9790
1611.425195 0.9800 0.9830 0.9830 0.9850 0.9850
1616.106849 0.9850 0.9850 0.9830 0.9830 0.9830
1620.788503 0.9830 0.9830 0.9850 0.9850 0.9860
1625.470157 0.9860 0.9850 0.9850 0.9850 0.9850
1630.151811 0.9860 0.9860 0.9880 0.9880 0.9890
1634.833465 0.9910 0.9940 0.9940 0.9890 0.9890
1639.515119 0.9890 0.9860 0.9850 0.9850 0.9850
1644.196773 0.9850 0.9850 0.9850 0.9860 0.9860
1648.878427 0.9880 0.9880 0.9890 0.9890 0.9880
1653.560081 0.9890 0.9910 0.9910 0.9890 0.9860
1658.241735 0.9860 0.9880 0.9890 0.9890 0.9910
1662.923389 0.9910 0.9910 0.9910 0.9910 0.9910
1667.605043 0.9920 0.9920 0.9920 0.9940 0.9920
1672.286697 0.9920 0.9920 0.9920 0.9920 0.9920
1676.968351 0.9920 0.9910 0.9910 0.9920 0.9920
1681.650006 0.9920 0.9920 0.9920 0.9940 0.9940
1686.331660 0.9940 0.9920 0.9910 0.9910 0.9920
1691.013314 0.9920 0.9920 0.9920 0.9940 0.9940
1695.694968 0.9950 0.9970 0.9980 0.9980 0.9980
1700.376622 0.9970 0.9950 0.9940 0.9920 0.9920
1705.058276 0.9940 0.9940 0.9940 0.9920 0.9920
1709.739930 0.9920 0.9940 0.9940 0.9950 0.9950
1714.421584 0.9950 0.9950 0.9950 0.9940 0.9940
1719.103238 0.9950 0.9950 0.9940 0.9920 0.9920
1723.784892 0.9920 0.9920 0.9920 0.9920 0.9920
1728.466546 0.9940 0.9950 0.9970 0.9970 0.9950
1733.148200 0.9970 0.9980 0.9980 0.9940 0.9920
1737.829854 0.9920 0.9920 0.9920 0.9920 0.9920
1742.511508 0.9920 0.9920 0.9920 0.9920 0.9920
1747.193162 0.9920 0.9920 0.9940 0.9940 0.9920
1751.874816 0.9910 0.9890 0.9890 0.9890 0.9890
1756.556470 0.9910 0.9910 0.9890 0.9880 0.9860
1761.238124 0.9860 0.9860 0.9860 0.9850 0.9850
1765.919778 0.9850 0.9850 0.9860 0.9860 0.9880
1770.601432 0.9880 0.9880 0.9880 0.9880 0.9880
1775.283086 0.9860 0.9860 0.9860 0.9880 0.9880
1779.964740 0.9880 0.9860 0.9860 0.9860 0.9860
1784.646394 0.9850 0.9850 0.9850 0.9850 0.9850
1789.328048 0.9830 0.9830 0.9850 0.9850 0.9850
1794.009702 0.9850 0.9850 0.9850 0.9850 0.9850
1798.691356 0.9860 0.9850 0.9860 0.9860 0.9860
1803.373010 0.9850 0.9830 0.9830 0.9830 0.9830
1808.054664 0.9830 0.9820 0.9820 0.9830 0.9850
1812.736318 0.9850 0.9850 0.9850 0.9850 0.9830
1817.417972 0.9820 0.9820 0.9820 0.9820 0.9820
1822.099626 0.9820 0.9820 0.9820 0.9820 0.9820
1826.781280 0.9820 0.9820 0.9820 0.9820 0.9820
1831.462934 0.9820 0.9820 0.9820 0.9820 0.9820
1836.144588 0.9820 0.9820 0.9820 0.9820 0.9820
1840.826242 0.9820 0.9820 0.9820 0.9820 0.9820
1845.507896 0.9820 0.9820 0.9820 0.9820 0.9820
1850.189550 0.9820 0.9820 0.9820 0.9820 0.9820
1854.871204 0.9820 0.9820 0.9820 0.9800 0.9800
1859.552858 0.9800 0.9800 0.9800 0.9800 0.9800
1864.234512 0.9800 0.9800 0.9800 0.9800 0.9800
1868.916166 0.9800 0.9820 0.9820 0.9820 0.9820
1873.597820 0.9820 0.9820 0.9820 0.9820 0.9820
1878.279474 0.9820 0.9820 0.9820 0.9820 0.9800
1882.961128 0.9800 0.9800 0.9800 0.9800 0.9800
1887.642782 0.9800 0.9800 0.9800 0.9800 0.9800
1892.324436 0.9800 0.9800 0.9800 0.9800 0.9800
1897.006090 0.9800 0.9800 0.9800 0.9800 0.9800
1901.687744 0.9800 0.9800 0.9800 0.9800 0.9800
1906.369398 0.9800 0.9790 0.9790 0.9790 0.9790
1911.051052 0.9790 0.9790 0.9790 0.9790 0.9790
1915.732706 0.9790 0.9790 0.9790 0.9790 0.9780
1920.414360 0.9780 0.9790 0.9790 0.9790 0.9790
1925.096014 0.9790 0.9790 0.9790 0.9790 0.9790
1929.777668 0.9780 0.9780 0.9790 0.9790 0.9790
1934.459322 0.9790 0.9790 0.9780 0.9780 0.9780
1939.140976 0.9780 0.9780 0.9780 0.9790 0.9790
1943.822630 0.9790 0.9790 0.9790 0.9790 0.9790
1948.504284 0.9790 0.9790 0.9800 0.9790 0.9790
1953.185938 0.9790 0.9790 0.9790 0.9790 0.9790
1957.867592 0.9790 0.9790 0.9780 0.9780 0.9800
1962.549246 0.9790 0.9790 0.9790 0.9790 0.9790
1967.230900 0.9790 0.9790 0.9790 0.9790 0.9790
1971.912554 0.9790 0.9790 0.9790 0.9790 0.9790
1976.594208 0.9790 0.9790 0.9790 0.9790 0.9790
1981.275862 0.9790 0.9790 0.9790 0.9790 0.9800
1985.957516 0.9790 0.9790 0.9790 0.9790 0.9790
1990.639170 0.9800 0.9800 0.9800 0.9790 0.9790
1995.320824 0.9790 0.9790 0.9790 0.9790 0.9800
2000.002478 0.9800 0.9795 0.9790 0.9790 0.9790
2004.684132 0.9790 0.9790 0.9790 0.9790 0.9790
2009.365786 0.9790 0.9790 0.9790 0.9790 0.9790
2014.047440 0.9790 0.9790 0.9790 0.9790 0.9790
2018.729094 0.9790 0.9790 0.9790 0.9790 0.9790
2023.410748 0.9790 0.9790 0.9790 0.9790 0.9790
2028.092402 0.9790 0.9790 0.9790 0.9790 0.9790
2032.774057 0.9790 0.9790 0.9790 0.9790 0.9790
2037.455711 0.9790 0.9790 0.9790 0.9795 0.9800
2042.137365 0.9800 0.9800 0.9790 0.9780 0.9780
2046.819019 0.9780 0.9780 0.9780 0.9780 0.9780
2051.500673 0.9780 0.9780 0.9770 0.9760 0.9760
2056.182327 0.9760 0.9760 0.9760 0.9760 0.9760
2060.863981 0.9770 0.9780 0.9780 0.9780 0.9770
2065.545635 0.9760 0.9760 0.9760 0.9760 0.9760
2070.227289 0.9760 0.9760 0.9760 0.9760 0.9760
2074.908943 0.9760 0.9760 0.9760 0.9760 0.9760
2079.590597 0.9760 0.9760 0.9770 0.9780 0.9780
2084.272251 0.9780 0.9780 0.9780 0.9780 0.9780
2088.953905 0.9780 0.9780 0.9780 0.9780 0.9770
2093.635559 0.9760 0.9770 0.9780 0.9780 0.9780
2098.317213 0.9780 0.9780 0.9780 0.9780 0.9780
2102.998867 0.9780 0.9780 0.9780 0.9780 0.9780
2107.680521 0.9780 0.9780 0.9780 0.9780 0.9785
2112.362175 0.9790 0.9790 0.9790 0.9790 0.9790
2117.043829 0.9790 0.9790 0.9790 0.9790 0.9790
2121.725483 0.9790 0.9790 0.9790 0.9790 0.9790
2126.407137 0.9790 0.9790 0.9795 0.9800 0.9810
2131.088791 0.9820 0.9820 0.9820 0.9820 0.9820
2135.770445 0.9820 0.9820 0.9820 0.9820 0.9825
2140.452099 0.9830 0.9830 0.9830 0.9830 0.9830
2145.133753 0.9830 0.9830 0.9825 0.9820 0.9820
2149.815407 0.9820 0.9810 0.9800 0.9795 0.9790
2154.497061 0.9790 0.9790 0.9795 0.9800 0.9800
2159.178715 0.9800 0.9810 0.9820 0.9820 0.9820
2163.860369 0.9820 0.9820 0.9820 0.9820 0.9820
2168.542023 0.9820 0.9825 0.9830 0.9825 0.9820
2173.223677 0.9820 0.9820 0.9820 0.9820 0.9820
2177.905331 0.9820 0.9820 0.9820 0.9820 0.9820
2182.586985 0.9820 0.9820 0.9820 0.9820 0.9820
2187.268639 0.9820 0.9820 0.9820 0.9820 0.9820
2191.950293 0.9810 0.9800 0.9800 0.9800 0.9800
2196.631947 0.9800 0.9800 0.9800 0.9800 0.9800
2201.313601 0.9800 0.9800 0.9800 0.9800 0.9800
2205.995255 0.9800 0.9800 0.9800 0.9800 0.9800
2210.676909 0.9810 0.9820 0.9811 0.9801 0.9800
2215.358563 0.9800 0.9795 0.9790 0.9804 0.9819
2220.040217 0.9820 0.9820 0.9820 0.9820 0.9820
2224.721871 0.9820 0.9820 0.9820 0.9820 0.9820
2229.403525 0.9820 0.9820 0.9811 0.9801 0.9800
2234.085179 0.9800 0.9795 0.9790 0.9790 0.9790
2238.766833 0.9790 0.9790 0.9785 0.9780 0.9785
2243.448487 0.9790 0.9790 0.9790 0.9790 0.9790
2248.130141 0.9785 0.9780 0.9780 0.9780 0.9785
2252.811795 0.9790 0.9790 0.9790 0.9790 0.9790
2257.493449 0.9790 0.9790 0.9790 0.9790 0.9790
2262.175103 0.9790 0.9790 0.9790 0.9790 0.9790
2266.856757 0.9790 0.9790 0.9790 0.9790 0.9785
2271.538411 0.9780 0.9785 0.9790 0.9790 0.9790
2276.220065 0.9795 0.9800 0.9800 0.9800 0.9809
2280.901719 0.9819 0.9820 0.9820 0.9825 0.9830
2285.583373 0.9825 0.9820 0.9820 0.9820 0.9811
2290.265027 0.9801 0.9800 0.9800 0.9795 0.9790
2294.946681 0.9785 0.9780 0.9780 0.9780 0.9780
2299.628335 0.9780 0.9780 0.9780 0.9780 0.9780
2304.309989 0.9780 0.9780 0.9780 0.9780 0.9785
2308.991643 0.9790 0.9795 0.9800 0.9800 0.9800
2313.673297 0.9809 0.9819 0.9820 0.9820 0.9820
2318.354951 0.9820 0.9825 0.9830 0.9839 0.9849
2323.036605 0.9855 0.9860 0.9869 0.9879 0.9880
2327.718259 0.9880 0.9880 0.9880 0.9885 0.9890
2332.399913 0.9890 0.9890 0.9890 0.9890 0.9890
2337.081567 0.9890 0.9885 0.9880 0.9866 0.9851
2341.763221 0.9841 0.9831 0.9825 0.9820 0.9806
