##TITLE=ETHYLENE
##JCAMP-DX=4.24
##DATA TYPE=INFRARED SPECTRUM
##CLASS=COBLENTZ
##ORIGIN=DOW CHEMICAL COMPANY
##OWNER=COBLENTZ SOCIETY
Collection (C) 2018 copyright by the U.S. Secretary of Commerce
on behalf of the United States of America. All rights reserved.
##DATE=1964
##CAS REGISTRY NO=74-85-1
##MOLFORM=C2 H4
##SOURCE REFERENCE=COBLENTZ NO. 8869
##$NIST SOURCE=COBLENTZ
##$NIST IMAGE=cob8869
##SPECTROMETER/DATA SYSTEM=DOW KBr FOREPRISM
##INSTRUMENT PARAMETERS=GRATING CHANGED AT 5.0, 7.5, 15.0 MICRON
##STATE=GAS (150 mmHg DILUTED TO A TOTAL PRESSURE OF 600 mmHg WITH N2)
##PATH LENGTH=5 CM
##SAMPLING PROCEDURE=TRANSMISSION
##RESOLUTION=4
##DATA PROCESSING=DIGITIZED BY NIST FROM HARD COPY (FROM TWO SEGMENTS)
##XUNITS=1/CM
##YUNITS=TRANSMITTANCE
##XFACTOR=1.000000
##YFACTOR=1
##DELTAX=0.938676
##FIRSTX=454.005
##LASTX=3795.69
##FIRSTY=1.014
##MAXX=3795.69
##MINX=454.005
##MAXY=1.091
##MINY=0
##NPOINTS=3561
##XYDATA=(X++(Y..Y))
454.005000 1.0140 1.0140 1.0140 1.0140 1.0140
458.698378 1.0140 1.0150 1.0150 1.0150 1.0170
463.391756 1.0180 1.0200 1.0200 1.0210 1.0210
468.085134 1.0210 1.0240 1.0260 1.0290 1.0290
472.778512 1.0290 1.0300 1.0300 1.0310 1.0330
477.471890 1.0340 1.0340 1.0370 1.0390 1.0400
482.165268 1.0420 1.0450 1.0470 1.0490 1.0500
486.858646 1.0500 1.0520 1.0520 1.0530 1.0530
491.552024 1.0550 1.0550 1.0560 1.0560 1.0590
496.245402 1.0610 1.0610 1.0610 1.0610 1.0590
500.938780 1.0580 1.0580 1.0590 1.0590 1.0590
505.632158 1.0590 1.0590 1.0580 1.0580 1.0580
510.325536 1.0580 1.0590 1.0590 1.0590 1.0590
515.018914 1.0590 1.0590 1.0590 1.0590 1.0610
519.712292 1.0620 1.0620 1.0620 1.0620 1.0620
524.405670 1.0620 1.0620 1.0620 1.0610 1.0610
529.099048 1.0590 1.0580 1.0560 1.0530 1.0530
533.792426 1.0530 1.0530 1.0520 1.0500 1.0500
538.485804 1.0490 1.0470 1.0460 1.0460 1.0450
543.179182 1.0450 1.0430 1.0430 1.0430 1.0430
547.872560 1.0420 1.0420 1.0420 1.0400 1.0400
552.565937 1.0390 1.0390 1.0390 1.0390 1.0400
557.259315 1.0420 1.0430 1.0450 1.0470 1.0470
561.952693 1.0490 1.0500 1.0500 1.0500 1.0500
566.646071 1.0500 1.0500 1.0520 1.0530 1.0530
571.339449 1.0550 1.0550 1.0560 1.0560 1.0560
576.032827 1.0580 1.0590 1.0590 1.0610 1.0620
580.726205 1.0630 1.0630 1.0650 1.0660 1.0680
585.419583 1.0680 1.0690 1.0690 1.0690 1.0690
590.112961 1.0680 1.0680 1.0690 1.0690 1.0710
594.806339 1.0710 1.0690 1.0690 1.0690 1.0690
599.499717 1.0710 1.0710 1.0710 1.0690 1.0690
604.193095 1.0690 1.0690 1.0680 1.0680 1.0680
608.886473 1.0680 1.0660 1.0630 1.0630 1.0650
613.579851 1.0650 1.0650 1.0650 1.0650 1.0650
618.273229 1.0650 1.0650 1.0630 1.0630 1.0630
622.966607 1.0630 1.0630 1.0630 1.0630 1.0630
627.659985 1.0630 1.0630 1.0650 1.0660 1.0660
632.353363 1.0660 1.0660 1.0680 1.0690 1.0690
637.046741 1.0720 1.0740 1.0750 1.0750 1.0750
641.740119 1.0770 1.0770 1.0780 1.0790 1.0790
646.433497 1.0790 1.0790 1.0790 1.0790 1.0790
651.126875 1.0810 1.0810 1.0810 1.0810 1.0810
655.820253 1.0810 1.0810 1.0810 1.0820 1.0820
660.513631 1.0820 1.0820 1.0820 1.0820 1.0820
665.207009 1.0820 1.0840 1.0840 1.0850 1.0900
669.900387 1.0910 1.0900 1.0810 1.0780 1.0780
674.593765 1.0750 1.0740 1.0720 1.0710 1.0690
679.287143 1.0660 1.0630 1.0620 1.0610 1.0590
683.980521 1.0580 1.0560 1.0550 1.0550 1.0530
688.673899 1.0520 1.0520 1.0460 1.0430 1.0420
693.367277 1.0400 1.0400 1.0390 1.0390 1.0370
698.060655 1.0360 1.0340 1.0330 1.0330 1.0310
702.754033 1.0300 1.0270 1.0270 1.0260 1.0200
707.447411 1.0200 1.0200 1.0180 1.0180 1.0170
712.140789 1.0140 1.0130 1.0100 1.0070 1.0050
716.834167 1.0020 1.0020 1.0020 1.0040 1.0070
721.527545 1.0070 1.0070 1.0050 1.0040 1.0040
726.220923 1.0020 0.9970 0.9970 0.9950 0.9940
730.914301 0.9940 0.9920 0.9920 0.9910 0.9880
735.607679 0.9820 0.9760 0.9760 0.9790 0.9840
740.301057 0.9850 0.9860 0.9820 0.9820 0.9820
744.994435 0.9810 0.9790 0.9780 0.9780 0.9780
749.687812 0.9840 0.9860 0.9840 0.9820 0.9760
754.381190 0.9730 0.9690 0.9600 0.9560 0.9560
759.074568 0.9810 0.9850 0.9850 0.9820 0.9810
763.767946 0.9730 0.9690 0.9690 0.9600 0.9570
768.461324 0.9720 0.9860 0.9860 0.9850 0.9820
773.154702 0.9750 0.9700 0.9660 0.9430 0.9430
777.848080 0.9590 0.9819 0.9860 0.9860 0.9840
782.541458 0.9820 0.9780 0.9680 0.9620 0.9690
787.234836 0.9790 0.9820 0.9840 0.9850 0.9820
791.928214 0.9820 0.9810 0.9730 0.9590 0.9690
796.621592 0.9810 0.9820 0.9820 0.9820 0.9820
801.314970 0.9810 0.9780 0.9780 0.9760 0.9760
806.008348 0.9760 0.9760 0.9760 0.9760 0.9760
810.701726 0.9760 0.9760 0.9750 0.9730 0.9720
815.395104 0.9700 0.9690 0.9680 0.9680 0.9650
820.088482 0.9620 0.9600 0.9590 0.9570 0.9540
824.781860 0.9520 0.9470 0.9430 0.9430 0.9400
829.475238 0.9370 0.9310 0.9240 0.9150 0.8980
834.168616 0.8950 0.8930 0.8820 0.8790 0.8730
838.861994 0.8670 0.8610 0.8600 0.8400 0.8160
843.555372 0.7990 0.7960 0.7960 0.7960 0.7890
848.248750 0.7790 0.7670 0.7550 0.7420 0.7310
852.942128 0.6811 0.6800 0.6860 0.7059 0.7070
857.635506 0.6190 0.6190 0.6830 0.6301 0.6100
862.328884 0.5900 0.5870 0.5651 0.5501 0.5271
867.022262 0.5110 0.4890 0.4860 0.4880 0.5230
871.715640 0.5290 0.4851 0.4790 0.4621 0.4152
876.409018 0.4020 0.3640 0.3640 0.4459 0.4440
881.102396 0.3612 0.3510 0.3610 0.3690 0.3750
885.795774 0.3749 0.2870 0.2520 0.2520 0.3309
890.489152 0.4078 0.4140 0.3602 0.3381 0.2136
895.182530 0.1489 0.1130 0.1131 0.4079 0.3960
899.875908 0.3001 0.1423 0.1420 0.2148 0.3634
904.569286 0.3220 0.3019 0.2070 0.0691 0.0690
909.262664 0.3076 0.3798 0.3720 0.2136 0.2130
913.956042 0.1250 0.1301 0.3560 0.4499 0.4500
918.649420 0.3642 0.2962 0.1883 0.0714 0.0710
923.342798 0.3530 0.3440 0.3250 0.3160 0.3090
928.036176 0.1962 0.1172 0.1170 0.2176 0.2837
932.729554 0.2990 0.2990 0.2870 0.2360 0.1641
937.422932 0.1420 0.1161 0.0931 0.0930 0.1189
942.116310 0.1260 0.1230 0.0770 0.0310 0.0040
946.809687 0.0000 0.0000 0.0000 0.0070 0.0199
951.503065 0.0470 0.0750 0.0950 0.0950 0.1030
956.196443 0.1250 0.1509 0.1610 0.1740 0.2626
960.889821 0.2160 0.1970 0.1970 0.2120 0.2220
965.583199 0.2450 0.1513 0.1510 0.2466 0.2161
970.276577 0.0810 0.0813 0.3400 0.3050 0.2950
974.969955 0.2551 0.2480 0.2121 0.1073 0.0791
979.663333 0.0791 0.1522 0.3380 0.3150 0.3080
984.356711 0.2421 0.2380 0.1722 0.0345 0.0340
989.050089 0.3790 0.3630 0.3380 0.2970 0.2930
993.743467 0.2830 0.2700 0.1554 0.0952 0.0950
998.436845 0.3020 0.3020 0.2920 0.2520 0.2410
1003.130223 0.2310 0.2160 0.1971 0.0745 0.0740
1007.823601 0.1972 0.3241 0.3790 0.3720 0.3450
1012.516979 0.3380 0.2292 0.2150 0.2150 0.3216
1017.210357 0.4080 0.3979 0.2760 0.2410 0.2410
1021.903735 0.3089 0.3429 0.3729 0.4009 0.3731
1026.597113 0.3239 0.2580 0.2580 0.3160 0.4378
1031.290491 0.4470 0.4500 0.4620 0.4730 0.5019
1035.983869 0.5018 0.3890 0.3791 0.4910 0.5690
1040.677247 0.5900 0.5910 0.5900 0.5272 0.5210
1045.370625 0.5200 0.4909 0.4150 0.4150 0.4460
1050.064003 0.5978 0.6619 0.6999 0.7000 0.6801
1054.757381 0.6520 0.6330 0.6190 0.6010 0.6010
1059.450759 0.6330 0.6929 0.7129 0.7230 0.7340
1064.144137 0.7450 0.7540 0.7770 0.7770 0.7540
1068.837515 0.6562 0.6560 0.7258 0.7609 0.7759
1073.530893 0.7790 0.7840 0.7970 0.8050 0.8160
1078.224271 0.8190 0.8190 0.8050 0.8120 0.8309
1082.917649 0.8410 0.8450 0.8560 0.8610 0.8730
1087.611027 0.8770 0.8820 0.8830 0.8850 0.8950
1092.304405 0.8950 0.8770 0.8750 0.8850 0.8920
1096.997783 0.8950 0.9020 0.9060 0.9140 0.9170
1101.691161 0.9240 0.9310 0.9330 0.9360 0.9300
1106.384539 0.9340 0.9360 0.9400 0.9440 0.9460
1111.077917 0.9500 0.9560 0.9600 0.9620 0.9660
1115.771295 0.9700 0.9700 0.9600 0.9590 0.9590
1120.464673 0.9620 0.9650 0.9680 0.9690 0.9700
1125.158051 0.9720 0.9750 0.9810 0.9820 0.9820
1129.851429 0.9820 0.9790 0.9810 0.9810 0.9820
1134.544807 0.9820 0.9840 0.9850 0.9860 0.9880
1139.238185 0.9860 0.9840 0.9820 0.9820 0.9820
1143.931562 0.9840 0.9840 0.9860 0.9880 0.9890
1148.624940 0.9890 0.9910 0.9910 0.9920 0.9940
1153.318318 0.9950 0.9950 0.9970 0.9970 0.9970
1158.011696 0.9970 0.9980 0.9980 0.9980 0.9980
1162.705074 1.0000 1.0000 1.0000 1.0000 1.0000
1167.398452 1.0010 1.0010 1.0010 1.0010 1.0010
1172.091830 1.0010 1.0010 1.0000 1.0000 0.9980
1176.785208 0.9980 0.9950 0.9940 0.9890 0.9940
1181.478586 0.9950 1.0000 1.0020 1.0020 1.0040
1186.171964 1.0020 1.0020 1.0020 1.0010 1.0020
1190.865342 1.0040 1.0040 1.0040 1.0040 1.0040
1195.558720 1.0040 1.0040 1.0040 1.0040 1.0040
1200.252098 1.0020 1.0040 1.0040 1.0040 1.0040
1204.945476 1.0050 1.0050 1.0050 1.0050 1.0070
1209.638854 1.0070 1.0070 1.0070 1.0080 1.0080
1214.332232 1.0080 1.0080 1.0100 1.0100 1.0100
1219.025610 1.0100 1.0110 1.0130 1.0130 1.0130
1223.718988 1.0130 1.0130 1.0110 1.0130 1.0130
1228.412366 1.0130 1.0130 1.0140 1.0140 1.0140
1233.105744 1.0140 1.0140 1.0130 1.0130 1.0110
1237.799122 1.0110 1.0100 1.0080 1.0070 1.0050
1242.492500 1.0040 1.0040 1.0040 1.0020 1.0020
1247.185878 1.0020 1.0020 1.0020 1.0040 1.0040
1251.879256 1.0040 1.0020 1.0020 1.0020 1.0020
1256.572634 1.0020 1.0020 1.0010 1.0010 1.0010
1261.266012 1.0010 1.0010 1.0010 1.0010 1.0010
1265.959390 1.0010 1.0010 1.0010 1.0010 1.0010
1270.652768 1.0010 1.0010 1.0010 1.0000 1.0000
1275.346146 1.0000 1.0000 1.0000 0.9980 0.9980
1280.039524 0.9980 0.9980 0.9980 0.9970 0.9970
1284.732902 0.9970 0.9950 0.9950 0.9950 0.9950
1289.426280 0.9940 0.9940 0.9940 0.9920 0.9910
1294.119658 0.9910 0.9910 0.9910 0.9910 0.9910
1298.813036 0.9910 0.9910 0.9910 0.9910 0.9910
1303.506414 0.9910 0.9910 0.9910 0.9910 0.9910
1308.199792 0.9910 0.9910 0.9910 0.9910 0.9910
1312.893170 0.9910 0.9910 0.9910 0.9910 0.9910
1317.586548 0.9910 0.9920 0.9920 0.9920 0.9940
1322.279926 0.9940 0.9940 0.9940 0.9940 0.9940
1326.973304 0.9940 0.9940 0.9940 0.9940 0.9940
1331.666682 0.9950 0.9950 0.9950 0.9950 0.9950
1336.360060 0.9950 0.9950 0.9950 0.9950 0.9950
1341.053437 0.9950 0.9970 0.9950 0.9950 0.9950
1345.746815 0.9950 0.9950 0.9950 0.9950 0.9950
1350.440193 0.9940 0.9950 0.9950 0.9950 0.9940
1355.133571 0.9940 0.9940 0.9940 0.9940 0.9950
1359.826949 0.9970 0.9980 0.9980 1.0010 1.0010
1364.520327 0.9970 0.9950 0.9950 0.9940 0.9940
1369.213705 0.9920 0.9920 0.9920 0.9920 0.9910
1373.907083 0.9890 0.9890 0.9880 0.9860 0.9820
1378.600461 0.9810 0.9790 0.9750 0.9690 0.9650
1383.293839 0.9600 0.9570 0.9500 0.9470 0.9460
1387.987217 0.9430 0.9380 0.9310 0.9200 0.9140
1392.680595 0.9060 0.8990 0.8860 0.8830 0.8750
1397.373973 0.8530 0.8370 0.8240 0.8110 0.7960
1402.067351 0.7800 0.7630 0.7390 0.7180 0.7150
1406.760729 0.6940 0.6550 0.6510 0.6271 0.6041
1411.454107 0.5940 0.5840 0.5740 0.5680 0.5500
1416.147485 0.5450 0.5260 0.5140 0.5100 0.5080
1420.840863 0.5080 0.5080 0.5100 0.5140 0.5170
1425.534241 0.5230 0.5290 0.5330 0.5500 0.5679
1430.227619 0.5752 0.6510 0.6650 0.6750 0.7120
1434.920997 0.7610 0.7960 0.8000 0.8220 0.9088
1439.614375 0.9089 0.8880 0.8700 0.8510 0.8160
1444.307753 0.6041 0.3003 0.3000 0.3858 0.4568
1449.001131 0.5142 0.6142 0.7120 0.7580 0.7580
1453.694509 0.7470 0.7310 0.7150 0.6990 0.6960
1458.387887 0.6870 0.6830 0.6679 0.6400 0.6220
1463.081265 0.6220 0.6520 0.6230 0.5931 0.5930
1467.774643 0.6539 0.6299 0.6010 0.5770 0.5770
1472.468021 0.6550 0.6550 0.6091 0.6090 0.6539
1477.161399 0.6580 0.6680 0.6880 0.6990 0.7070
1481.854777 0.7160 0.7280 0.7390 0.7420 0.7709
1486.548155 0.7710 0.7840 0.8030 0.8290 0.8310
1491.241533 0.8350 0.8720 0.8750 0.8770 0.8770
1495.934911 0.8851 0.9020 0.9180 0.9220 0.9330
1500.628289 0.9380 0.9430 0.9440 0.9470 0.9490
1505.321667 0.9520 0.9601 0.9850 0.9880 0.9880
1510.015045 0.9850 0.9790 0.9780 0.9780 0.9780
1514.708423 0.9790 0.9790 0.9820 0.9840 0.9850
1519.401801 0.9850 0.9880 0.9890 0.9920 0.9910
1524.095179 0.9890 0.9880 0.9860 0.9890 0.9890
1528.788557 0.9860 0.9850 0.9810 0.9790 0.9790
1533.481935 0.9860 0.9880 0.9910 0.9790 0.9790
1538.175312 0.9820 0.9850 0.9890 0.9910 0.9940
1542.868690 0.9940 0.9910 0.9890 0.9880 0.9860
1547.562068 0.9850 0.9850 0.9840 0.9820 0.9810
1552.255446 0.9810 0.9810 0.9820 0.9860 0.9880
1556.948824 0.9920 1.0010 1.0080 1.0140 1.0050
1561.642202 0.9980 0.9910 0.9840 0.9810 0.9810
1566.335580 0.9810 0.9820 0.9820 0.9850 0.9910
1571.028958 0.9850 0.9840 0.9810 0.9790 0.9810
1575.722336 0.9860 0.9950 0.9950 0.9850 0.9820
1580.415714 0.9810 0.9790 0.9790 0.9790 0.9790
1585.109092 0.9790 0.9790 0.9790 0.9790 0.9790
1589.802470 0.9790 0.9790 0.9790 0.9790 0.9790
1594.495848 0.9790 0.9810 0.9810 0.9810 0.9810
1599.189226 0.9810 0.9810 0.9810 0.9790 0.9780
1603.882604 0.9780 0.9790 0.9790 0.9810 0.9810
1608.575982 0.9810 0.9820 0.9810 0.9790 0.9780
1613.269360 0.9780 0.9760 0.9780 0.9810 0.9860
1617.962738 0.9860 0.9760 0.9760 0.9790 0.9810
1622.656116 0.9810 0.9790 0.9780 0.9760 0.9750
1627.349494 0.9750 0.9750 0.9750 0.9730 0.9720
1632.042872 0.9720 0.9720 0.9780 0.9910 0.9910
1636.736250 0.9820 0.9780 0.9760 0.9730 0.9720
1641.429628 0.9690 0.9690 0.9680 0.9690 0.9780
1646.123006 0.9850 0.9880 0.9790 0.9780 0.9700
1650.816384 0.9700 0.9950 1.0020 1.0020 0.9840
1655.509762 0.9760 0.9720 0.9720 0.9720 0.9720
1660.203140 0.9730 0.9790 0.9820 0.9810 0.9750
1664.896518 0.9730 0.9730 0.9750 0.9790 0.9860
1669.589896 0.9880 0.9860 0.9790 0.9780 0.9820
1674.283274 0.9840 0.9860 0.9790 0.9780 0.9760
1678.976652 0.9760 0.9780 0.9790 0.9880 0.9950
1683.670030 0.9940 0.9910 0.9810 0.9790 0.9780
1688.363408 0.9760 0.9760 0.9760 0.9790 0.9750
1693.056786 0.9760 0.9790 0.9880 0.9920 0.9920
1697.750164 0.9920 0.9920 1.0130 0.9950 0.9860
1702.443542 0.9850 0.9850 0.9850 0.9840 0.9820
1707.136920 0.9790 0.9760 0.9750 0.9750 0.9760
1711.830298 0.9810 0.9810 0.9840 0.9860 0.9880
1716.523676 0.9910 0.9950 0.9920 0.9860 0.9760
1721.217054 0.9730 0.9780 0.9780 0.9750 0.9730
1725.910432 0.9730 0.9750 0.9730 0.9730 0.9730
1730.603809 0.9750 0.9840 0.9880 0.9940 0.9940
1735.297187 0.9760 0.9750 0.9730 0.9730 0.9820
1739.990565 0.9820 0.9720 0.9720 0.9780 0.9780
1744.683943 0.9780 0.9780 0.9780 0.9780 0.9760
1749.377321 0.9750 0.9730 0.9720 0.9700 0.9690
1754.070699 0.9680 0.9680 0.9690 0.9690 0.9690
1758.764077 0.9690 0.9690 0.9700 0.9700 0.9700
1763.457455 0.9700 0.9700 0.9720 0.9730 0.9750
1768.150833 0.9780 0.9790 0.9790 0.9760 0.9730
1772.844211 0.9700 0.9680 0.9680 0.9660 0.9660
1777.537589 0.9660 0.9660 0.9680 0.9680 0.9680
1782.230967 0.9680 0.9680 0.9680 0.9680 0.9660
1786.924345 0.9660 0.9680 0.9720 0.9760 0.9790
1791.617723 0.9780 0.9750 0.9700 0.9700 0.9700
1796.311101 0.9720 0.9720 0.9750 0.9780 0.9730
1801.004479 0.9720 0.9700 0.9690 0.9690 0.9680
1805.697857 0.9690 0.9690 0.9700 0.9720 0.9720
1810.391235 0.9690 0.9660 0.9660 0.9680 0.9680
1815.084613 0.9660 0.9660 0.9650 0.9630 0.9630
1819.777991 0.9630 0.9630 0.9620 0.9620 0.9600
1824.471369 0.9600 0.9570 0.9560 0.9560 0.9560
1829.164747 0.9530 0.9500 0.9410 0.9360 0.9340
1833.858125 0.9340 0.9280 0.9240 0.9200 0.9140
1838.551503 0.9110 0.9080 0.9040 0.8990 0.8950
1843.244881 0.8920 0.8800 0.8770 0.8640 0.8530
1847.938259 0.8530 0.8480 0.8440 0.8250 0.8210
1852.631637 0.8150 0.8130 0.8050 0.7930 0.7890
1857.325015 0.7860 0.7830 0.7800 0.7770 0.7700
1862.018393 0.7640 0.7600 0.7550 0.7520 0.7520
1866.711771 0.7540 0.7550 0.7610 0.7670 0.7710
1871.405149 0.7760 0.7810 0.7860 0.7920 0.7930
1876.098527 0.8150 0.8190 0.8210 0.8320 0.8749
1880.791905 0.8961 0.9170 0.9180 0.9150 0.9090
1885.485283 0.8820 0.8559 0.6540 0.5141 0.5140
1890.178661 0.8004 0.8900 0.8950 0.8980 0.8960
1894.872039 0.8830 0.8730 0.8690 0.8660 0.8510
1899.565417 0.8369 0.8000 0.7860 0.7700 0.7580
1904.258795 0.7480 0.7420 0.7320 0.7190 0.7100
1908.952173 0.7070 0.7090 0.7130 0.7180 0.7200
1913.645551 0.7250 0.7290 0.7320 0.7360 0.7380
1918.338929 0.7420 0.7480 0.7580 0.7740 0.7870
1923.032307 0.7970 0.8000 0.8130 0.8210 0.8280
1927.725684 0.8371 0.8500 0.8570 0.8720 0.8830
1932.419062 0.8900 0.8930 0.8980 0.9020 0.9140
1937.112440 0.9180 0.9240 0.9310 0.9360 0.9380
1941.805818 0.9410 0.9430 0.9440 0.9460 0.9490
1946.499196 0.9500 0.9560 0.9560 0.9570 0.9570
1951.192574 0.9590 0.9590 0.9590 0.9590 0.9600
1955.885952 0.9600 0.9600 0.9600 0.9600 0.9600
1960.579330 0.9600 0.9600 0.9600 0.9600 0.9600
1965.272708 0.9600 0.9600 0.9600 0.9600 0.9600
1969.966086 0.9590 0.9590 0.9590 0.9590 0.9590
1974.659464 0.9590 0.9590 0.9590 0.9590 0.9590
1979.352842 0.9600 0.9600 0.9600 0.9600 0.9600
1984.046220 0.9600 0.9620 0.9620 0.9620 0.9620
1988.739598 0.9620 0.9620 0.9620 0.9620 0.9600
1993.432976 0.9600 0.9590 0.9590 0.9590 0.9570
1998.126354 0.9570 0.9570 0.9570 0.9565 0.9560
2002.819732 0.9560 0.9560 0.9560 0.9560 0.9560
2007.513110 0.9560 0.9550 0.9540 0.9540 0.9540
2012.206488 0.9535 0.9530 0.9530 0.9530 0.9525
2016.899866 0.9520 0.9520 0.9520 0.9510 0.9500
2021.593244 0.9486 0.9471 0.9465 0.9460 0.9460
2026.286622 0.9460 0.9460 0.9460 0.9451 0.9441
2030.980000 0.9440 0.9440 0.9449 0.9459 0.9460
2035.673378 0.9460 0.9460 0.9460 0.9474 0.9489
2040.366756 0.9490 0.9490 0.9504 0.9519 0.9538
2045.060134 0.9558 0.9560 0.9560 0.9564 0.9569
2049.753512 0.9579 0.9589 0.9590 0.9590 0.9173
2054.446890 0.8699 0.8640 0.8640 0.9067 0.9545
2059.140268 0.9587 0.9572 0.9552 0.9533 0.9504
2063.833646 0.9474 0.9466 0.9461 0.9439 0.9414
2068.527024 0.9380 0.9345 0.9302 0.9257 0.9246
2073.220402 0.9241 0.9232 0.9221 0.9220 0.9220
2077.913780 0.9228 0.9238 0.9257 0.9277 0.9288
2082.607158 0.9298 0.9325 0.9355 0.9364 0.9369
2087.300536 0.9386 0.9406 0.9422 0.9437 0.9472
2091.993914 0.9512 0.9536 0.9556 0.9564 0.9569
2096.687292 0.9578 0.9588 0.9590 0.9590 0.9602
2101.380670 0.9617 0.9624 0.9629 0.9630 0.9630
2106.074048 0.9630 0.9630 0.9642 0.9657 0.9660
2110.767426 0.9660 0.9660 0.9660 0.9660 0.9660
2115.460804 0.9660 0.9660 0.9660 0.9660 0.9656
2120.154182 0.9651 0.9650 0.9650 0.9643 0.9633
2124.847559 0.9630 0.9630 0.9630 0.9630 0.9626
2129.540937 0.9621 0.9620 0.9620 0.9613 0.9603
2134.234315 0.9600 0.9600 0.9600 0.9600 0.9600
2138.927693 0.9600 0.9596 0.9591 0.9590 0.9590
2143.621071 0.9590 0.9590 0.9590 0.9590 0.9590
2148.314449 0.9590 0.9590 0.9590 0.9583 0.9573
2153.007827 0.9570 0.9570 0.9570 0.9570 0.9570
2157.701205 0.9570 0.9570 0.9570 0.9577 0.9587
2162.394583 0.9590 0.9590 0.9590 0.9590 0.9593
2167.087961 0.9598 0.9607 0.9617 0.9620 0.9620
2171.781339 0.9620 0.9620 0.9620 0.9620 0.9620
2176.474717 0.9620 0.9620 0.9620 0.9614 0.9604
2181.168095 0.9591 0.9576 0.9567 0.9562 0.9560
2185.861473 0.9560 0.9560 0.9560 0.9554 0.9544
2190.554851 0.9540 0.9540 0.9537 0.9532 0.9530
2195.248229 0.9530 0.9530 0.9530 0.9533 0.9538
2199.941607 0.9546 0.9556 0.9560 0.9560 0.9560
2204.634985 0.9560 0.9560 0.9560 0.9560 0.9560
2209.328363 0.9563 0.9568 0.9570 0.9570 0.9570
2214.021741 0.9570 0.9570 0.9570 0.9576 0.9586
2218.715119 0.9593 0.9598 0.9600 0.9600 0.9600
2223.408497 0.9600 0.9600 0.9600 0.9597 0.9592
2228.101875 0.9593 0.9598 0.9600 0.9600 0.9608
2232.795253 0.9623 0.9630 0.9630 0.9630 0.9630
2237.488631 0.9635 0.9645 0.9650 0.9650 0.9650
2242.182009 0.9650 0.9650 0.9650 0.9650 0.9650
2246.875387 0.9645 0.9635 0.9627 0.9623 0.9613
2251.568765 0.9598 0.9590 0.9590 0.9585 0.9575
2256.262143 0.9575 0.9585 0.9599 0.9619 0.9637
2260.955521 0.9652 0.9667 0.9682 0.9690 0.9690
2265.648899 0.9690 0.9690 0.9690 0.9690 0.9690
2270.342277 0.9690 0.9690 0.9690 0.9690 0.9690
2275.035655 0.9690 0.9690 0.9692 0.9697 0.9700
2279.729033 0.9700 0.9700 0.9700 0.9700 0.9700
2284.422411 0.9700 0.9700 0.9700 0.9700 0.9700
2289.115789 0.9700 0.9700 0.9700 0.9704 0.9714
2293.809167 0.9720 0.9720 0.9720 0.9720 0.9720
2298.502545 0.9720 0.9720 0.9720 0.9722 0.9727
2303.195923 0.9734 0.9744 0.9750 0.9750 0.9752
2307.889301 0.9757 0.9764 0.9774 0.9780 0.9780
2312.582679 0.9782 0.9787 0.9790 0.9790 0.9794
2317.276057 0.9804 0.9810 0.9810 0.9810 0.9810
2321.969434 0.9812 0.9817 0.9820 0.9820 0.9825
2326.662812 0.9840 0.9850 0.9850 0.9855 0.9870
2331.356190 0.9885 0.9900 0.9912 0.9917 0.9920
2336.049568 0.9920 0.9920 0.9920 0.9923 0.9933
2340.742946 0.9937 0.9927 0.9914 0.9894 0.9877
2345.436324 0.9867 0.9858 0.9854 0.9849 0.9844
2350.129702 0.9840 0.9840 0.9840 0.9840 0.9840
2354.823080 0.9840 0.9841 0.9846 0.9850 0.9850
2359.516458 0.9851 0.9856 0.9864 0.9879 0.9890
