##TITLE=SULFUR DIOXIDE
##JCAMP-DX=4.24
##DATA TYPE=INFRARED SPECTRUM
##CLASS=COBLENTZ
##ORIGIN=DOW CHEMICAL COMPANY
##OWNER=COBLENTZ SOCIETY
Collection (C) 2018 copyright by the U.S. Secretary of Commerce
on behalf of the United States of America. All rights reserved.
##DATE=1977/11/16
##NAMES=oxosulfane oxide
##CAS REGISTRY NO=7446-09-5
##MOLFORM=O2 S
##SOURCE REFERENCE=COBLENTZ NO. 10500
##$NIST SOURCE=COBLENTZ
##$NIST IMAGE=cob10500
##SPECTROMETER/DATA SYSTEM=PERKIN-ELMER 180
##INSTRUMENT PARAMETERS=I0 MODE, RESOLUTION: 1 CM^-^1 AT 4000 CM^-^1
##STATE=GAS (100 mmHg DILUTED TO A TOTAL PRESSURE OF 600 mmHg WITH N2)
##PATH LENGTH=1 CM CELL
##SAMPLING PROCEDURE=TRANSMISSION
##RESOLUTION=4
##DATA PROCESSING=DIGITIZED BY NIST FROM HARD COPY (FROM TWO SEGMENTS)
##XUNITS=1/CM
##YUNITS=TRANSMITTANCE
##XFACTOR=1.000000
##YFACTOR=1
##DELTAX=1.045753
##FIRSTX=300.654
##LASTX=4004.71
##FIRSTY=0
##MAXX=4004.71
##MINX=300.654
##MAXY=0.918
##MINY=0
##NPOINTS=3543
##XYDATA=(X++(Y..Y))
300.654000 0.0000 0.0000 0.0000 0.0000 0.0000
305.882766 0.0000 0.0000 0.0010 0.0020 0.0040
311.111532 0.0050 0.0060 0.0070 0.0080 0.0090
316.340298 0.0100 0.0110 0.0120 0.0140 0.0150
321.569064 0.0170 0.0170 0.0200 0.0210 0.0240
326.797830 0.0280 0.0300 0.0320 0.0340 0.0400
332.026597 0.0430 0.0470 0.0490 0.0510 0.0580
337.255363 0.0620 0.0650 0.0730 0.0790 0.0840
342.484129 0.0890 0.0920 0.0980 0.1020 0.1090
347.712895 0.1160 0.1210 0.1270 0.1330 0.1410
352.941661 0.1520 0.1560 0.1610 0.1680 0.1740
358.170427 0.1800 0.1850 0.1989 0.2040 0.2149
363.399193 0.2190 0.2240 0.2310 0.2390 0.2450
368.627959 0.2500 0.2540 0.2669 0.2809 0.2909
373.856725 0.3000 0.3060 0.3110 0.3200 0.3250
379.085491 0.3440 0.3500 0.3590 0.3660 0.3710
384.314257 0.3780 0.3840 0.3910 0.3980 0.4070
389.543023 0.4160 0.4220 0.4340 0.4400 0.4450
394.771790 0.4520 0.4590 0.4660 0.4720 0.4810
400.000556 0.4890 0.4960 0.5070 0.5150 0.5210
405.229322 0.5290 0.5350 0.5400 0.5470 0.5550
410.458088 0.5630 0.5690 0.5750 0.5820 0.5880
415.686854 0.5930 0.5990 0.6060 0.6120 0.6180
420.915620 0.6240 0.6320 0.6380 0.6440 0.6500
426.144386 0.6550 0.6600 0.6700 0.6760 0.6800
431.373152 0.6870 0.6910 0.6930 0.6970 0.7000
436.601918 0.7030 0.7060 0.7120 0.7180 0.7190
441.830684 0.7210 0.7240 0.7260 0.7290 0.7330
447.059450 0.7350 0.7390 0.7400 0.7440 0.7470
452.288216 0.7490 0.7510 0.7520 0.7540 0.7560
457.516983 0.7570 0.7590 0.7600 0.7600 0.7600
462.745749 0.7610 0.7610 0.7620 0.7620 0.7620
467.974515 0.7620 0.7610 0.7590 0.7590 0.7580
473.203281 0.7580 0.7570 0.7560 0.7540 0.7530
478.432047 0.7520 0.7500 0.7490 0.7440 0.7440
483.660813 0.7420 0.7400 0.7370 0.7330 0.7290
488.889579 0.7250 0.7200 0.7160 0.7120 0.7080
494.118345 0.7050 0.7020 0.6990 0.6960 0.6930
499.347111 0.6910 0.6900 0.6890 0.6880 0.6890
504.575877 0.6900 0.6930 0.7000 0.7060 0.7179
509.804643 0.7290 0.7410 0.7590 0.7670 0.7760
515.033410 0.7810 0.7900 0.7910 0.7880 0.7850
520.262176 0.7760 0.7610 0.7440 0.7340 0.7260
525.490942 0.7170 0.7110 0.7040 0.7010 0.7000
530.719708 0.7010 0.7050 0.7110 0.7120 0.7140
535.948474 0.7170 0.7230 0.7260 0.7350 0.7459
541.177240 0.7520 0.7560 0.7610 0.7660 0.7720
546.406006 0.7760 0.7810 0.7850 0.7900 0.7940
551.634772 0.7980 0.8010 0.8050 0.8080 0.8120
556.863538 0.8160 0.8190 0.8200 0.8240 0.8270
562.092304 0.8290 0.8310 0.8340 0.8350 0.8370
567.321070 0.8380 0.8390 0.8410 0.8430 0.8450
572.549836 0.8490 0.8500 0.8510 0.8510 0.8530
577.778603 0.8540 0.8580 0.8600 0.8610 0.8630
583.007369 0.8640 0.8660 0.8690 0.8700 0.8700
588.236135 0.8710 0.8710 0.8730 0.8740 0.8750
593.464901 0.8760 0.8770 0.8780 0.8790 0.8790
598.693667 0.8800 0.8810 0.8820 0.8820 0.8830
603.922433 0.8840 0.8840 0.8850 0.8850 0.8860
609.151199 0.8860 0.8870 0.8870 0.8880 0.8880
614.379965 0.8890 0.8890 0.8890 0.8900 0.8900
619.608731 0.8900 0.8900 0.8900 0.8910 0.8910
624.837497 0.8910 0.8910 0.8910 0.8920 0.8920
630.066263 0.8920 0.8920 0.8920 0.8920 0.8920
635.295029 0.8920 0.8930 0.8930 0.8930 0.8930
640.523796 0.8950 0.8950 0.8950 0.8950 0.8960
645.752562 0.8960 0.8970 0.8970 0.8970 0.8980
650.981328 0.8980 0.8980 0.8980 0.8980 0.8990
656.210094 0.8990 0.8990 0.8990 0.8990 0.8990
661.438860 0.8990 0.9000 0.9000 0.9000 0.9000
666.667626 0.9000 0.9000 0.9000 0.9000 0.9000
671.896392 0.9010 0.9010 0.9020 0.9020 0.9020
677.125158 0.9020 0.9030 0.9030 0.9020 0.9020
682.353924 0.9020 0.9020 0.9020 0.9020 0.9030
687.582690 0.9030 0.9030 0.9030 0.9030 0.9040
692.811456 0.9040 0.9040 0.9040 0.9050 0.9050
698.040223 0.9050 0.9050 0.9050 0.9050 0.9050
703.268989 0.9050 0.9040 0.9040 0.9040 0.9030
708.497755 0.9030 0.9030 0.9020 0.9020 0.9020
713.726521 0.9020 0.9010 0.9010 0.9010 0.9000
718.955287 0.9000 0.9000 0.9010 0.9010 0.9020
724.184053 0.9030 0.9040 0.9050 0.9060 0.9060
729.412819 0.9070 0.9080 0.9090 0.9090 0.9090
734.641585 0.9090 0.9100 0.9100 0.9100 0.9100
739.870351 0.9100 0.9100 0.9090 0.9090 0.9090
745.099117 0.9090 0.9090 0.9090 0.9100 0.9100
750.327883 0.9100 0.9100 0.9100 0.9100 0.9100
755.556649 0.9100 0.9100 0.9110 0.9110 0.9120
760.785416 0.9130 0.9130 0.9140 0.9140 0.9140
766.014182 0.9160 0.9160 0.9160 0.9150 0.9140
771.242948 0.9140 0.9140 0.9150 0.9150 0.9150
776.471714 0.9160 0.9170 0.9180 0.9180 0.9180
781.700480 0.9160 0.9150 0.9140 0.9140 0.9140
786.929246 0.9140 0.9140 0.9140 0.9150 0.9160
792.158012 0.9160 0.9160 0.9150 0.9140 0.9140
797.386778 0.9140 0.9130 0.9130 0.9130 0.9140
802.615544 0.9140 0.9150 0.9160 0.9170 0.9180
807.844310 0.9180 0.9180 0.9180 0.9170 0.9160
813.073076 0.9140 0.9130 0.9120 0.9120 0.9120
818.301842 0.9120 0.9120 0.9130 0.9130 0.9130
823.530609 0.9130 0.9130 0.9130 0.9130 0.9130
828.759375 0.9120 0.9120 0.9120 0.9120 0.9120
833.988141 0.9120 0.9120 0.9120 0.9120 0.9110
839.216907 0.9110 0.9110 0.9110 0.9110 0.9110
844.445673 0.9100 0.9100 0.9100 0.9100 0.9090
849.674439 0.9090 0.9090 0.9090 0.9080 0.9080
854.903205 0.9080 0.9070 0.9070 0.9070 0.9060
860.131971 0.9060 0.9050 0.9050 0.9050 0.9050
865.360737 0.9060 0.9060 0.9060 0.9060 0.9070
870.589503 0.9070 0.9070 0.9080 0.9080 0.9080
875.818269 0.9070 0.9070 0.9070 0.9060 0.9060
881.047036 0.9050 0.9050 0.9040 0.9040 0.9040
886.275802 0.9040 0.9040 0.9040 0.9050 0.9050
891.504568 0.9050 0.9050 0.9050 0.9050 0.9050
896.733334 0.9040 0.9040 0.9040 0.9040 0.9040
901.962100 0.9040 0.9040 0.9040 0.9040 0.9040
907.190866 0.9040 0.9040 0.9040 0.9030 0.9030
912.419632 0.9030 0.9030 0.9020 0.9020 0.9020
917.648398 0.9020 0.9020 0.9010 0.9010 0.9000
922.877164 0.9000 0.9000 0.9000 0.9000 0.9010
928.105930 0.9010 0.9020 0.9020 0.9020 0.9020
933.334696 0.9020 0.9020 0.9010 0.9010 0.9010
938.563462 0.9000 0.9000 0.9010 0.9010 0.9020
943.792229 0.9020 0.9020 0.9020 0.9020 0.9020
949.020995 0.9010 0.9010 0.9010 0.9010 0.9010
954.249761 0.9010 0.8990 0.8990 0.8990 0.8990
959.478527 0.8990 0.8990 0.8990 0.8990 0.8980
964.707293 0.8980 0.8980 0.8980 0.8980 0.8990
969.936059 0.8990 0.8990 0.8990 0.8990 0.9000
975.164825 0.9000 0.9000 0.9010 0.9010 0.9010
980.393591 0.9010 0.9010 0.9010 0.9010 0.9010
985.622357 0.9010 0.9010 0.9010 0.9010 0.9010
990.851123 0.9000 0.9000 0.9000 0.8980 0.8980
996.079889 0.8970 0.8970 0.8960 0.8950 0.8930
1001.308655 0.8920 0.8910 0.8890 0.8860 0.8850
1006.537422 0.8850 0.8840 0.8830 0.8830 0.8830
1011.766188 0.8820 0.8820 0.8820 0.8820 0.8820
1016.994954 0.8820 0.8820 0.8820 0.8820 0.8830
1022.223720 0.8830 0.8830 0.8830 0.8830 0.8830
1027.452486 0.8830 0.8830 0.8830 0.8830 0.8830
1032.681252 0.8830 0.8840 0.8840 0.8840 0.8840
1037.910018 0.8840 0.8840 0.8840 0.8840 0.8840
1043.138784 0.8850 0.8850 0.8850 0.8850 0.8850
1048.367550 0.8850 0.8850 0.8850 0.8860 0.8860
1053.596316 0.8860 0.8860 0.8860 0.8860 0.8860
1058.825082 0.8860 0.8860 0.8850 0.8840 0.8840
1064.053849 0.8840 0.8830 0.8830 0.8820 0.8810
1069.282615 0.8800 0.8790 0.8780 0.8770 0.8760
1074.511381 0.8750 0.8740 0.8730 0.8730 0.8720
1079.740147 0.8720 0.8720 0.8720 0.8720 0.8720
1084.968913 0.8720 0.8720 0.8710 0.8710 0.8700
1090.197679 0.8670 0.8650 0.8640 0.8630 0.8620
1095.426445 0.8610 0.8600 0.8600 0.8580 0.8580
1100.655211 0.8550 0.8510 0.8490 0.8480 0.8470
1105.883977 0.8460 0.8430 0.8400 0.8390 0.8370
1111.112743 0.8330 0.8290 0.8260 0.8240 0.8210
1116.341509 0.8190 0.8130 0.8120 0.8070 0.8020
1121.570275 0.7990 0.7950 0.7920 0.7870 0.7840
1126.799042 0.7790 0.7730 0.7680 0.7590 0.7570
1132.027808 0.7530 0.7490 0.7450 0.7440 0.7440
1137.256574 0.7450 0.7490 0.7530 0.7550 0.7610
1142.485340 0.7660 0.7680 0.7720 0.7800 0.7860
1147.714106 0.7960 0.8070 0.8160 0.8200 0.8200
1152.942872 0.8170 0.8100 0.8030 0.7930 0.7800
1158.171638 0.7700 0.7580 0.7500 0.7430 0.7350
1163.400404 0.7300 0.7280 0.7270 0.7270 0.7290
1168.629170 0.7310 0.7340 0.7430 0.7480 0.7540
1173.857936 0.7580 0.7620 0.7680 0.7720 0.7770
1179.086702 0.7830 0.7900 0.7960 0.8010 0.8050
1184.315468 0.8050 0.8100 0.8140 0.8170 0.8190
1189.544235 0.8210 0.8220 0.8230 0.8240 0.8250
1194.773001 0.8260 0.8280 0.8290 0.8290 0.8310
1200.001767 0.8340 0.8370 0.8410 0.8450 0.8480
1205.230533 0.8500 0.8520 0.8540 0.8570 0.8580
1210.459299 0.8600 0.8610 0.8610 0.8620 0.8640
1215.688065 0.8650 0.8670 0.8690 0.8690 0.8700
1220.916831 0.8720 0.8730 0.8740 0.8750 0.8780
1226.145597 0.8790 0.8800 0.8810 0.8820 0.8830
1231.374363 0.8840 0.8850 0.8850 0.8850 0.8850
1236.603129 0.8860 0.8860 0.8870 0.8870 0.8870
1241.831895 0.8880 0.8880 0.8890 0.8890 0.8890
1247.060662 0.8900 0.8900 0.8910 0.8910 0.8910
1252.289428 0.8910 0.8910 0.8910 0.8900 0.8900
1257.518194 0.8900 0.8900 0.8890 0.8890 0.8890
1262.746960 0.8900 0.8900 0.8910 0.8910 0.8910
1267.975726 0.8910 0.8910 0.8920 0.8920 0.8920
1273.204492 0.8930 0.8930 0.8930 0.8930 0.8930
1278.433258 0.8930 0.8930 0.8930 0.8930 0.8930
1283.662024 0.8930 0.8930 0.8930 0.8930 0.8930
1288.890790 0.8930 0.8930 0.8930 0.8930 0.8930
1294.119556 0.8930 0.8930 0.8930 0.8930 0.8930
1299.348322 0.8930 0.8930 0.8920 0.8920 0.8910
1304.577088 0.8890 0.8860 0.8840 0.8810 0.8780
1309.805855 0.8760 0.8710 0.8670 0.8560 0.8550
1315.034621 0.8490 0.8430 0.8330 0.8220 0.8090
1320.263387 0.7940 0.7750 0.7551 0.7331 0.7091
1325.492153 0.6850 0.6720 0.6600 0.6300 0.6090
1330.720919 0.5620 0.5251 0.4512 0.4321 0.3901
1335.949685 0.3490 0.3370 0.3250 0.2950 0.2640
1341.178451 0.2301 0.2001 0.1741 0.1630 0.1471
1346.407217 0.1410 0.1360 0.1350 0.1350 0.1360
1351.635983 0.1380 0.1430 0.1490 0.1590 0.1690
1356.864749 0.1770 0.1790 0.1770 0.1710 0.1630
1362.093515 0.1001 0.0601 0.0600 0.1956 0.5347
1367.322281 0.5358 0.4248 0.3118 0.1350 0.0990
1372.551048 0.0840 0.0840 0.0850 0.0910 0.0970
1377.779814 0.1030 0.1100 0.1330 0.1480 0.1670
1383.008580 0.1990 0.2299 0.2659 0.3358 0.3778
1388.237346 0.4281 0.4561 0.5241 0.6670 0.7270
1393.466112 0.7650 0.7880 0.8050 0.8230 0.8469
1398.694878 0.8520 0.8630 0.8730 0.8810 0.8840
1403.923644 0.8850 0.8850 0.8860 0.8870 0.8870
1409.152410 0.8880 0.8880 0.8890 0.8890 0.8890
1414.381176 0.8890 0.8890 0.8890 0.8880 0.8880
1419.609942 0.8870 0.8860 0.8860 0.8850 0.8850
1424.838708 0.8860 0.8860 0.8870 0.8870 0.8870
1430.067475 0.8880 0.8880 0.8880 0.8880 0.8880
1435.296241 0.8880 0.8890 0.8900 0.8900 0.8900
1440.525007 0.8900 0.8900 0.8900 0.8900 0.8890
1445.753773 0.8890 0.8890 0.8890 0.8890 0.8890
1450.982539 0.8880 0.8880 0.8880 0.8880 0.8870
1456.211305 0.8870 0.8860 0.8860 0.8850 0.8850
1461.440071 0.8840 0.8840 0.8830 0.8830 0.8830
1466.668837 0.8830 0.8840 0.8840 0.8850 0.8850
1471.897603 0.8850 0.8860 0.8860 0.8860 0.8870
1477.126369 0.8870 0.8880 0.8880 0.8880 0.8890
1482.355135 0.8890 0.8900 0.8910 0.8910 0.8920
1487.583901 0.8920 0.8930 0.8930 0.8950 0.8950
1492.812668 0.8950 0.8960 0.8960 0.8960 0.8960
1498.041434 0.8950 0.8950 0.8930 0.8930 0.8930
1503.270200 0.8920 0.8920 0.8920 0.8920 0.8920
1508.498966 0.8920 0.8930 0.8930 0.8930 0.8950
1513.727732 0.8950 0.8960 0.8960 0.8960 0.8960
1518.956498 0.8960 0.8970 0.8970 0.8970 0.8970
1524.185264 0.8960 0.8960 0.8960 0.8960 0.8960
1529.414030 0.8960 0.8960 0.8950 0.8950 0.8960
1534.642796 0.8960 0.8960 0.8960 0.8950 0.8950
1539.871562 0.8950 0.8950 0.8930 0.8930 0.8930
1545.100328 0.8920 0.8920 0.8920 0.8920 0.8920
1550.329094 0.8920 0.8920 0.8920 0.8920 0.8920
1555.557861 0.8910 0.8910 0.8900 0.8900 0.8900
1560.786627 0.8910 0.8910 0.8910 0.8910 0.8910
1566.015393 0.8900 0.8900 0.8900 0.8900 0.8900
1571.244159 0.8900 0.8900 0.8900 0.8900 0.8890
1576.472925 0.8890 0.8880 0.8880 0.8880 0.8880
1581.701691 0.8880 0.8880 0.8880 0.8890 0.8890
1586.930457 0.8890 0.8890 0.8890 0.8890 0.8880
1592.159223 0.8880 0.8880 0.8870 0.8870 0.8870
1597.387989 0.8860 0.8860 0.8860 0.8850 0.8850
1602.616755 0.8850 0.8850 0.8850 0.8840 0.8840
1607.845521 0.8840 0.8840 0.8840 0.8840 0.8840
1613.074288 0.8840 0.8840 0.8840 0.8840 0.8850
1618.303054 0.8850 0.8860 0.8860 0.8860 0.8860
1623.531820 0.8860 0.8860 0.8860 0.8860 0.8850
1628.760586 0.8840 0.8830 0.8830 0.8830 0.8830
1633.989352 0.8820 0.8820 0.8820 0.8820 0.8830
1639.218118 0.8840 0.8840 0.8850 0.8860 0.8870
1644.446884 0.8880 0.8880 0.8880 0.8880 0.8880
1649.675650 0.8870 0.8870 0.8850 0.8850 0.8840
1654.904416 0.8840 0.8850 0.8860 0.8860 0.8870
1660.133182 0.8880 0.8880 0.8890 0.8900 0.8900
1665.361948 0.8900 0.8910 0.8920 0.8920 0.8920
1670.590714 0.8920 0.8920 0.8920 0.8920 0.8920
1675.819481 0.8920 0.8920 0.8920 0.8930 0.8930
1681.048247 0.8930 0.8920 0.8920 0.8920 0.8910
1686.277013 0.8910 0.8910 0.8920 0.8930 0.8930
1691.505779 0.8930 0.8930 0.8950 0.8950 0.8950
1696.734545 0.8920 0.8920 0.8910 0.8910 0.8910
1701.963311 0.8910 0.8910 0.8920 0.8920 0.8920
1707.192077 0.8910 0.8910 0.8910 0.8910 0.8910
1712.420843 0.8930 0.8930 0.8930 0.8930 0.8920
1717.649609 0.8910 0.8910 0.8900 0.8900 0.8910
1722.878375 0.8920 0.8920 0.8930 0.8930 0.8930
1728.107141 0.8930 0.8930 0.8930 0.8930 0.8920
1733.335907 0.8920 0.8920 0.8920 0.8910 0.8910
1738.564674 0.8910 0.8920 0.8930 0.8930 0.8950
1743.793440 0.8950 0.8950 0.8950 0.8930 0.8930
1749.022206 0.8930 0.8930 0.8930 0.8930 0.8950
1754.250972 0.8950 0.8960 0.8960 0.8970 0.8970
1759.479738 0.8980 0.8980 0.8980 0.8980 0.8980
1764.708504 0.8990 0.8990 0.8990 0.8990 0.8990
1769.937270 0.8990 0.8990 0.8990 0.8990 0.8990
1775.166036 0.8990 0.8990 0.8990 0.8990 0.8990
1780.394802 0.8990 0.8990 0.8990 0.8990 0.8990
1785.623568 0.8990 0.8990 0.8990 0.8990 0.8990
1790.852334 0.8990 0.8990 0.8990 0.8990 0.8990
1796.081101 0.8990 0.8990 0.8990 0.8990 0.8990
1801.309867 0.8990 0.8990 0.8990 0.8990 0.8990
1806.538633 0.8990 0.8990 0.8990 0.8990 0.8990
1811.767399 0.8990 0.8990 0.8990 0.8990 0.8990
1816.996165 0.8990 0.8990 0.8990 0.8990 0.8990
1822.224931 0.8990 0.8990 0.8990 0.8990 0.8990
1827.453697 0.8990 0.8990 0.8990 0.8990 0.8990
1832.682463 0.8990 0.8990 0.8990 0.8990 0.8990
1837.911229 0.8990 0.8990 0.8990 0.8990 0.8990
1843.139995 0.8990 0.8990 0.8990 0.8990 0.8990
1848.368761 0.8990 0.8990 0.8990 0.8990 0.8990
1853.597527 0.8990 0.8990 0.8990 0.8990 0.8990
1858.826294 0.8990 0.8990 0.8990 0.8990 0.8990
1864.055060 0.8990 0.8990 0.8990 0.8990 0.8990
1869.283826 0.8990 0.8990 0.8990 0.8990 0.8990
1874.512592 0.8990 0.8990 0.8980 0.8980 0.8980
1879.741358 0.8980 0.8980 0.8980 0.8980 0.8980
1884.970124 0.8980 0.8980 0.8980 0.8980 0.8980
1890.198890 0.8980 0.8980 0.8980 0.8980 0.8980
1895.427656 0.8980 0.8980 0.8980 0.8980 0.8980
1900.656422 0.8980 0.8980 0.8980 0.8980 0.8980
1905.885188 0.8980 0.8980 0.8980 0.8980 0.8980
1911.113954 0.8990 0.8990 0.8990 0.8990 0.8990
1916.342720 0.8990 0.8980 0.8980 0.8980 0.8980
1921.571487 0.8980 0.8980 0.8970 0.8970 0.8970
1926.800253 0.8970 0.8970 0.8970 0.8960 0.8960
1932.029019 0.8960 0.8960 0.8960 0.8960 0.8950
1937.257785 0.8950 0.8950 0.8950 0.8950 0.8960
1942.486551 0.8960 0.8960 0.8960 0.8960 0.8960
1947.715317 0.8970 0.8970 0.8970 0.8980 0.8980
1952.944083 0.8980 0.8990 0.8990 0.8990 0.8990
1958.172849 0.8990 0.8990 0.8990 0.8990 0.8980
1963.401615 0.8980 0.8960 0.8950 0.8950 0.8930
1968.630381 0.8920 0.8920 0.8920 0.8910 0.8910
1973.859147 0.8910 0.8910 0.8920 0.8920 0.8930
1979.087914 0.8930 0.8930 0.8950 0.8960 0.8960
1984.316680 0.8960 0.8950 0.8950 0.8930 0.8920
1989.545446 0.8920 0.8920 0.8920 0.8930 0.8950
1994.774212 0.8950 0.8960 0.8970 0.8970 0.8980
2000.002978 0.8980 0.8985 0.8990 0.8995 0.9000
2005.231744 0.9005 0.9010 0.9015 0.9020 0.9030
2010.460510 0.9040 0.9050 0.9060 0.9060 0.9060
2015.689276 0.9065 0.9070 0.9070 0.9070 0.9070
2020.918042 0.9070 0.9070 0.9070 0.9065 0.9060
2026.146808 0.9060 0.9060 0.9055 0.9050 0.9050
2031.375574 0.9050 0.9050 0.9050 0.9045 0.9040
2036.604340 0.9040 0.9040 0.9040 0.9040 0.9035
2041.833107 0.9030 0.9030 0.9030 0.9030 0.9030
2047.061873 0.9030 0.9029 0.9024 0.9020 0.9020
2052.290639 0.9020 0.9020 0.9020 0.9020 0.9020
2057.519405 0.9020 0.9020 0.9020 0.9020 0.9020
2062.748171 0.9020 0.9020 0.9020 0.9020 0.9020
2067.976937 0.9020 0.9020 0.9020 0.9020 0.9020
2073.205703 0.9020 0.9020 0.9020 0.9020 0.9020
2078.434469 0.9020 0.9020 0.9020 0.9020 0.9020
2083.663235 0.9020 0.9020 0.9020 0.9020 0.9020
2088.892001 0.9020 0.9020 0.9020 0.9020 0.9020
2094.120767 0.9020 0.9020 0.9020 0.9020 0.9020
2099.349533 0.9020 0.9020 0.9020 0.9020 0.9020
2104.578300 0.9020 0.9020 0.9020 0.9020 0.9020
2109.807066 0.9020 0.9020 0.9020 0.9020 0.9020
2115.035832 0.9020 0.9020 0.9020 0.9020 0.9020
2120.264598 0.9020 0.9019 0.9014 0.9010 0.9010
2125.493364 0.9010 0.9010 0.9010 0.9010 0.9010
2130.722130 0.9010 0.9010 0.9010 0.9010 0.9010
2135.950896 0.9010 0.9010 0.9010 0.9010 0.9010
2141.179662 0.9010 0.9010 0.9010 0.9010 0.9010
2146.408428 0.9010 0.9010 0.9010 0.9010 0.9010
2151.637194 0.9010 0.9010 0.9010 0.9010 0.9010
2156.865960 0.9010 0.9010 0.9010 0.9010 0.9010
2162.094727 0.9010 0.9010 0.9010 0.9010 0.9010
2167.323493 0.9010 0.9010 0.9010 0.9010 0.9010
2172.552259 0.9010 0.9010 0.9010 0.9010 0.9010
2177.781025 0.9010 0.9010 0.9010 0.9010 0.9010
2183.009791 0.9010 0.9010 0.9010 0.9010 0.9010
2188.238557 0.9010 0.9010 0.9010 0.9010 0.9010
2193.467323 0.9010 0.9008 0.9003 0.9000 0.9000
2198.696089 0.9000 0.9000 0.9000 0.9000 0.9000
2203.924855 0.9000 0.9000 0.9000 0.9000 0.9000
2209.153621 0.9000 0.9000 0.9000 0.9000 0.9000
2214.382387 0.9000 0.9000 0.9000 0.9000 0.9000
2219.611153 0.9000 0.9000 0.8997 0.8992 0.8990
2224.839920 0.8990 0.8990 0.8990 0.8990 0.8990
2230.068686 0.8990 0.8990 0.8990 0.8990 0.8990
2235.297452 0.8990 0.8990 0.8990 0.8990 0.8990
2240.526218 0.8990 0.8990 0.8990 0.8990 0.8990
2245.754984 0.8990 0.8990 0.8990 0.8990 0.8990
2250.983750 0.8990 0.8990 0.8990 0.8990 0.8987
2256.212516 0.8982 0.8980 0.8980 0.8980 0.8980
2261.441282 0.8980 0.8980 0.8980 0.8980 0.8980
2266.670048 0.8980 0.8980 0.8980 0.8980 0.8980
2271.898814 0.8980 0.8980 0.8980 0.8980 0.8977
2277.127580 0.8972 0.8970 0.8970 0.8970 0.8970
2282.356346 0.8970 0.8970 0.8970 0.8970 0.8970
2287.585113 0.8970 0.8970 0.8970 0.8970 0.8970
2292.813879 0.8970 0.8970 0.8970 0.8970 0.8966
2298.042645 0.8961 0.8960 0.8960 0.8960 0.8960
2303.271411 0.8956 0.8951 0.8950 0.8950 0.8950
2308.500177 0.8950 0.8943 0.8933 0.8930 0.8930
2313.728943 0.8930 0.8930 0.8930 0.8930 0.8930
2318.957709 0.8930 0.8930 0.8930 0.8926 0.8921
2324.186475 0.8920 0.8920 0.8920 0.8920 0.8920
2329.415241 0.8920 0.8916 0.8911 0.8910 0.8910
2334.644007 0.8910 0.8910 0.8910 0.8910 0.8910
2339.872773 0.8910 0.8910 0.8910 0.8910 0.8910
2345.101540 0.8910 0.8910 0.8910 0.8910 0.8914
2350.330306 0.8919 0.8920 0.8920 0.8920 0.8920
2355.559072 0.8920 0.8920 0.8924 0.8929 0.8930
2360.787838 0.8930 0.8930 0.8930 0.8930 0.8930
2366.016604 0.8930 0.8930 0.8930 0.8930 0.8930
2371.245370 0.8930 0.8930 0.8930 0.8930 0.8930
2376.474136 0.8930 0.8930 0.8930 0.8930 0.8930
2381.702902 0.8930 0.8930 0.8930 0.8930 0.8930
2386.931668 0.8930 0.8930 0.8930 0.8930 0.8930
2392.160434 0.8930 0.8930 0.8930 0.8930 0.8930
2397.389200 0.8930 0.8930 0.8930 0.8930 0.8930
2402.617966 0.8930 0.8930 0.8930 0.8930 0.8930
2407.846733 0.8930 0.8930 0.8930 0.8930 0.8930
2413.075499 0.8930 0.8930 0.8930 0.8930 0.8930
2418.304265 0.8930 0.8930 0.8930 0.8930 0.8930
2423.533031 0.8930 0.8930 0.8930 0.8930 0.8930
