##TITLE=ACETALDEHYDE
##JCAMP-DX=4.24
##DATA TYPE=INFRARED SPECTRUM
##CLASS=COBLENTZ
##ORIGIN=WYANDOTTE CHEMICALS CORP., WYANDOTTE, MICHIGAN, USA
##OWNER=COBLENTZ SOCIETY
Collection (C) 2018 copyright by the U.S. Secretary of Commerce
on behalf of the United States of America. All rights reserved.
##DATE=Not specified, most likely prior to 1970
##CAS REGISTRY NO=75-07-0
##MOLFORM=C2 H4 O
##SOURCE REFERENCE=COBLENTZ NO. 1301
##$NIST SOURCE=COBLENTZ
##$NIST IMAGE=cob1301
##SPECTROMETER/DATA SYSTEM=Not specified, most likely a prism, grating, or hybrid spectrometer.
##STATE=GAS (180 mmHg PRESSURE)
##PATH LENGTH=5 CM
##SAMPLING PROCEDURE=TRANSMISSION
##RESOLUTION=4
##DATA PROCESSING=DIGITIZED BY NIST FROM HARD COPY
##XUNITS=MICROMETERS
##YUNITS=TRANSMITTANCE
##XFACTOR=1.000000
##YFACTOR=1
##DELTAX=000.006806
##FIRSTX=2.143
##LASTX=15.993
##FIRSTY=0.982
##MAXX=15.993
##MINX=2.143
##MAXY=0.998
##MINY=0.032
##NPOINTS=2036
##XYDATA=(X++(Y..Y))
2.143000 0.9820 0.9810 0.9790 0.9740 0.9740
2.177047 0.9720 0.9720 0.9720 0.9720 0.9720
2.211000 0.9720 0.9720 0.9770 0.9790 0.9820
2.245047 0.9890 0.9930 0.9960 0.9980 0.9980
2.279000 0.9980 0.9960 0.9940 0.9930 0.9930
2.313047 0.9930 0.9930 0.9930 0.9930 0.9910
2.347000 0.9890 0.9880 0.9860 0.9860 0.9840
2.381047 0.9820 0.9820 0.9810 0.9810 0.9790
2.415000 0.9770 0.9770 0.9790 0.9790 0.9790
2.449047 0.9790 0.9770 0.9770 0.9770 0.9770
2.483000 0.9770 0.9810 0.9810 0.9810 0.9790
2.517047 0.9790 0.9790 0.9790 0.9790 0.9790
2.551000 0.9810 0.9810 0.9810 0.9810 0.9770
2.585047 0.9770 0.9770 0.9770 0.9790 0.9820
2.619000 0.9860 0.9890 0.9910 0.9890 0.9890
2.653047 0.9880 0.9820 0.9810 0.9790 0.9790
2.687000 0.9770 0.9760 0.9760 0.9760 0.9740
2.721047 0.9720 0.9720 0.9720 0.9720 0.9720
2.755000 0.9720 0.9710 0.9710 0.9670 0.9670
2.789047 0.9650 0.9620 0.9570 0.9420 0.9350
2.824000 0.9300 0.9160 0.9020 0.8870 0.8720
2.858047 0.8560 0.8460 0.8460 0.8500 0.8560
2.892000 0.8600 0.8720 0.8870 0.8990 0.9110
2.926047 0.9210 0.9280 0.9310 0.9380 0.9420
2.960000 0.9430 0.9480 0.9480 0.9480 0.9480
2.994047 0.9470 0.9450 0.9450 0.9430 0.9430
3.028000 0.9430 0.9430 0.9430 0.9420 0.9420
3.062047 0.9400 0.9400 0.9400 0.9400 0.9380
3.096000 0.9380 0.9360 0.9330 0.9310 0.9280
3.130047 0.9280 0.9250 0.9230 0.9210 0.9180
3.164000 0.9130 0.9090 0.9080 0.9010 0.8940
3.198047 0.8870 0.8800 0.8700 0.8620 0.8530
3.232000 0.8500 0.8480 0.8380 0.8290 0.8160
3.266047 0.7950 0.7710 0.7420 0.7010 0.5860
3.300000 0.4680 0.4650 0.4680 0.5800 0.6950
3.334047 0.6960 0.6960 0.6790 0.6400 0.6200
3.368000 0.6180 0.6200 0.6550 0.6760 0.6980
3.402047 0.7050 0.7010 0.6890 0.6690 0.6590
3.436000 0.6520 0.6430 0.6210 0.5860 0.5290
3.470047 0.4990 0.4680 0.4150 0.3790 0.3060
3.504000 0.2670 0.2410 0.2380 0.2380 0.2410
3.538047 0.2470 0.2530 0.2620 0.2750 0.2810
3.572000 0.2840 0.2860 0.2910 0.2910 0.2910
3.606047 0.2910 0.2910 0.2890 0.2700 0.2500
3.640000 0.2360 0.2180 0.1950 0.1940 0.1950
3.674047 0.2180 0.2410 0.2650 0.2740 0.2750
3.708000 0.2990 0.3330 0.3520 0.4340 0.5620
3.742047 0.6140 0.6640 0.7060 0.7420 0.7730
3.776000 0.7970 0.8140 0.8390 0.8510 0.8650
3.810047 0.8720 0.8720 0.8750 0.8790 0.8840
3.844000 0.8890 0.8990 0.9040 0.9140 0.9180
3.878047 0.9210 0.9250 0.9230 0.9210 0.9180
3.912000 0.9160 0.9160 0.9180 0.9180 0.9180
3.946047 0.9190 0.9180 0.9180 0.9180 0.9180
3.981000 0.9180 0.9180 0.9190 0.9180 0.9180
4.015047 0.9190 0.9180 0.9180 0.9160 0.9140
4.049000 0.9130 0.9110 0.9090 0.9090 0.9080
4.083047 0.9080 0.9080 0.9080 0.9090 0.9090
4.117000 0.9090 0.9090 0.9110 0.9110 0.9140
4.151047 0.9140 0.9160 0.9160 0.9180 0.9190
4.185000 0.9190 0.9210 0.9210 0.9210 0.9210
4.219047 0.9190 0.9190 0.9180 0.9140 0.9090
4.253000 0.9080 0.9110 0.9280 0.9310 0.9330
4.287047 0.9380 0.9430 0.9470 0.9480 0.9480
4.321000 0.9480 0.9480 0.9500 0.9520 0.9540
4.355047 0.9570 0.9540 0.9500 0.9470 0.9330
4.389000 0.9310 0.9260 0.9210 0.9140 0.9090
4.423047 0.9080 0.9080 0.9080 0.9080 0.9080
4.457000 0.9060 0.9060 0.9060 0.9060 0.9060
4.491047 0.9060 0.9060 0.9060 0.9060 0.9060
4.525000 0.9060 0.9060 0.9060 0.9080 0.9080
4.559047 0.9080 0.9080 0.9080 0.9090 0.9090
4.593000 0.9090 0.9090 0.9090 0.9090 0.9110
4.627047 0.9110 0.9130 0.9140 0.9140 0.9160
4.661000 0.9160 0.9180 0.9180 0.9230 0.9260
4.695047 0.9300 0.9360 0.9360 0.9310 0.9280
4.729000 0.9260 0.9250 0.9230 0.9230 0.9230
4.763047 0.9230 0.9230 0.9230 0.9230 0.9230
4.797000 0.9230 0.9210 0.9210 0.9210 0.9210
4.831047 0.9210 0.9210 0.9190 0.9190 0.9190
4.865000 0.9190 0.9180 0.9160 0.9140 0.9140
4.899047 0.9130 0.9110 0.9090 0.9080 0.9020
4.933000 0.9010 0.8990 0.8970 0.8920 0.8890
4.967047 0.8870 0.8840 0.8840 0.8840 0.8840
5.001000 0.8840 0.8840 0.8840 0.8840 0.8840
5.035047 0.8840 0.8840 0.8840 0.8840 0.8820
5.070000 0.8820 0.8790 0.8750 0.8730 0.8730
5.104047 0.8730 0.8730 0.8750 0.8790 0.8790
5.138000 0.8840 0.8850 0.8850 0.8870 0.8870
5.172047 0.8890 0.8900 0.8940 0.8960 0.8970
5.206000 0.8990 0.9010 0.9010 0.9080 0.9090
5.240047 0.9090 0.9090 0.9090 0.9090 0.9090
5.274000 0.9080 0.9060 0.9060 0.9040 0.9040
5.308047 0.9040 0.9040 0.9040 0.9020 0.9010
5.342000 0.8990 0.8970 0.8940 0.8870 0.8800
5.376047 0.8790 0.8770 0.8720 0.8650 0.8550
5.410000 0.8440 0.8380 0.8270 0.8170 0.8100
5.444047 0.8070 0.8000 0.7950 0.7760 0.7640
5.478000 0.7580 0.7560 0.7510 0.7410 0.7270
5.512047 0.7170 0.7080 0.6980 0.6840 0.6660
5.546000 0.6470 0.6130 0.5680 0.5170 0.4940
5.580047 0.4680 0.4070 0.3490 0.3010 0.2650
5.614000 0.2410 0.2230 0.1970 0.1600 0.1260
5.648047 0.0910 0.0740 0.0560 0.0440 0.0340
5.682000 0.0320 0.0320 0.0320 0.0340 0.0370
5.716047 0.0390 0.0420 0.0420 0.0420 0.0420
5.750000 0.0440 0.0440 0.0440 0.0450 0.0450
5.784047 0.0490 0.0950 0.1440 0.1950 0.2480
5.818000 0.3010 0.3520 0.3980 0.4410 0.4750
5.852047 0.5480 0.5790 0.6180 0.6470 0.6690
5.886000 0.6880 0.7010 0.7150 0.7270 0.7410
5.920047 0.7580 0.7750 0.7880 0.7970 0.8040
5.954000 0.8140 0.8240 0.8310 0.8380 0.8380
5.988047 0.8460 0.8480 0.8510 0.8530 0.8560
6.022000 0.8580 0.8600 0.8620 0.8620 0.8560
6.056047 0.8550 0.8510 0.8510 0.8510 0.8510
6.090000 0.8510 0.8510 0.8500 0.8500 0.8500
6.124047 0.8480 0.8480 0.8480 0.8460 0.8460
6.158000 0.8440 0.8440 0.8430 0.8410 0.8410
6.192047 0.8390 0.8380 0.8340 0.8310 0.8310
6.227000 0.8310 0.8340 0.8380 0.8390 0.8390
6.261047 0.8380 0.8380 0.8360 0.8380 0.8380
6.295000 0.8380 0.8380 0.8340 0.8330 0.8310
6.329047 0.8270 0.8260 0.8220 0.8210 0.8210
6.363000 0.8210 0.8210 0.8190 0.8190 0.8160
6.397047 0.8100 0.8090 0.8070 0.8070 0.8090
6.431000 0.8090 0.8090 0.8090 0.8100 0.8100
6.465047 0.8090 0.8090 0.8090 0.8070 0.8050
6.499000 0.8000 0.7980 0.7920 0.7900 0.7920
6.533047 0.7900 0.7900 0.7870 0.7870 0.7800
6.567000 0.7750 0.7730 0.7710 0.7710 0.7700
6.601047 0.7700 0.7680 0.7680 0.7660 0.7640
6.635000 0.7610 0.7580 0.7510 0.7460 0.7350
6.669047 0.7300 0.7290 0.7270 0.7240 0.7200
6.703000 0.7060 0.7010 0.6880 0.6830 0.6810
6.737047 0.6780 0.6690 0.6590 0.6430 0.6280
6.771000 0.6110 0.5910 0.5700 0.5500 0.5280
6.805047 0.5070 0.4970 0.4850 0.4750 0.4650
6.839000 0.4580 0.4510 0.4460 0.4390 0.4370
6.873047 0.4320 0.4290 0.4270 0.4240 0.4220
6.907000 0.4220 0.4250 0.4250 0.4290 0.4360
6.941047 0.4460 0.4540 0.4650 0.4680 0.4680
6.975000 0.4580 0.4440 0.4310 0.4100 0.3950
7.009047 0.3860 0.3790 0.3670 0.3500 0.3350
7.043000 0.3250 0.3010 0.2750 0.2570 0.2450
7.077047 0.2310 0.2280 0.2230 0.2210 0.2190
7.111000 0.2160 0.2140 0.2120 0.2160 0.2580
7.145047 0.2620 0.2620 0.2620 0.2620 0.2690
7.179000 0.2770 0.3010 0.3210 0.3400 0.3540
7.213047 0.3540 0.3440 0.3230 0.2990 0.2840
7.247000 0.2720 0.2620 0.2530 0.2410 0.2310
7.281047 0.2230 0.2180 0.2140 0.2140 0.2210
7.316000 0.2410 0.2690 0.2930 0.3280 0.3540
7.350047 0.3690 0.3710 0.3690 0.3130 0.2550
7.384000 0.2160 0.1780 0.1490 0.1480 0.1510
7.418047 0.1700 0.1800 0.1850 0.2040 0.2350
7.452000 0.2740 0.3150 0.3610 0.3980 0.4310
7.486047 0.4610 0.4870 0.5360 0.5620 0.5890
7.520000 0.6160 0.6400 0.6600 0.6760 0.6960
7.554047 0.7150 0.7340 0.7510 0.7680 0.7810
7.588000 0.7870 0.7920 0.7980 0.8040 0.8100
7.622047 0.8170 0.8240 0.8290 0.8290 0.8310
7.656000 0.8310 0.8330 0.8340 0.8360 0.8380
7.690047 0.8380 0.8390 0.8410 0.8480 0.8510
7.724000 0.8530 0.8530 0.8500 0.8500 0.8500
7.758047 0.8500 0.8500 0.8500 0.8500 0.8510
7.792000 0.8530 0.8530 0.8530 0.8550 0.8530
7.826047 0.8510 0.8510 0.8510 0.8530 0.8550
7.860000 0.8580 0.8580 0.8580 0.8580 0.8580
7.894047 0.8580 0.8560 0.8560 0.8550 0.8530
7.928000 0.8510 0.8510 0.8510 0.8510 0.8510
7.962047 0.8510 0.8530 0.8530 0.8510 0.8510
7.996000 0.8510 0.8510 0.8510 0.8510 0.8510
8.030047 0.8500 0.8500 0.8480 0.8480 0.8480
8.064000 0.8500 0.8480 0.8460 0.8480 0.8480
8.098047 0.8480 0.8440 0.8430 0.8410 0.8430
8.132000 0.8430 0.8410 0.8390 0.8390 0.8380
8.166047 0.8380 0.8380 0.8340 0.8330 0.8290
8.200000 0.8270 0.8260 0.8210 0.8170 0.8160
8.234047 0.8140 0.8140 0.8070 0.8000 0.7850
8.268000 0.7680 0.7560 0.7420 0.7270 0.6910
8.302047 0.6350 0.5680 0.5310 0.4920 0.4130
8.336000 0.3330 0.2600 0.1950 0.1490 0.1150
8.370047 0.1070 0.0980 0.0880 0.0710 0.0640
8.404000 0.0630 0.0610 0.0610 0.0610 0.0610
8.438047 0.0660 0.0800 0.0900 0.1030 0.1200
8.473000 0.1430 0.1580 0.1700 0.1870 0.2040
8.507047 0.2240 0.2450 0.2690 0.2940 0.3210
8.541000 0.3490 0.3790 0.4120 0.4460 0.4800
8.575047 0.5580 0.5630 0.5670 0.6090 0.6490
8.609000 0.6710 0.6810 0.6890 0.6980 0.7000
8.643047 0.7000 0.7000 0.7000 0.7000 0.6910
8.677000 0.6790 0.6690 0.6590 0.6500 0.6400
8.711047 0.6280 0.6130 0.5940 0.5700 0.5450
8.745000 0.5090 0.4970 0.4850 0.4650 0.4460
8.779047 0.4310 0.4190 0.3930 0.3710 0.3520
8.813000 0.3400 0.3270 0.3130 0.2940 0.2750
8.847047 0.2650 0.2520 0.2430 0.2290 0.2240
8.881000 0.2140 0.2040 0.1940 0.1820 0.1680
8.915047 0.1600 0.1490 0.1460 0.1410 0.1390
8.949000 0.1360 0.1310 0.1290 0.1290 0.1290
8.983047 0.1290 0.1290 0.1290 0.1270 0.1260
9.017000 0.1260 0.1270 0.1310 0.1340 0.1410
9.051047 0.1490 0.1610 0.1820 0.2090 0.2280
9.085000 0.2470 0.2620 0.2750 0.2910 0.3060
9.119047 0.3250 0.3420 0.3570 0.3740 0.3910
9.153000 0.4070 0.4240 0.4410 0.4560 0.4730
9.187047 0.4870 0.5110 0.5220 0.5330 0.5430
9.221000 0.5510 0.5630 0.5740 0.5860 0.5970
9.255047 0.6040 0.6130 0.6210 0.6300 0.6370
9.289000 0.6450 0.6540 0.6620 0.6640 0.6690
9.323047 0.6740 0.6810 0.6830 0.6910 0.7000
9.357000 0.7050 0.7080 0.7120 0.7170 0.7180
9.391047 0.7270 0.7350 0.7440 0.7470 0.7490
9.425000 0.7520 0.7560 0.7640 0.7660 0.7700
9.459047 0.7710 0.7730 0.7730 0.7750 0.7780
9.493000 0.7810 0.7830 0.7850 0.7870 0.7880
9.527047 0.7880 0.7880 0.7900 0.7920 0.7970
9.561000 0.7980 0.8000 0.8020 0.8040 0.8070
9.595047 0.8100 0.8140 0.8170 0.8190 0.8190
9.630000 0.8190 0.8190 0.8210 0.8210 0.8210
9.664047 0.8210 0.8210 0.8220 0.8220 0.8240
9.698000 0.8240 0.8260 0.8270 0.8270 0.8270
9.732047 0.8270 0.8270 0.8290 0.8290 0.8310
9.766000 0.8310 0.8310 0.8330 0.8330 0.8330
9.800047 0.8330 0.8330 0.8330 0.8340 0.8360
9.834000 0.8380 0.8380 0.8390 0.8430 0.8440
9.868047 0.8440 0.8430 0.8430 0.8430 0.8410
9.902000 0.8410 0.8390 0.8390 0.8390 0.8390
9.936047 0.8380 0.8340 0.8340 0.8330 0.8360
9.970000 0.8360 0.8380 0.8390 0.8410 0.8410
10.004047 0.8430 0.8430 0.8430 0.8440 0.8440
10.038000 0.8440 0.8440 0.8440 0.8440 0.8440
10.072047 0.8440 0.8440 0.8440 0.8440 0.8440
10.106000 0.8440 0.8440 0.8440 0.8440 0.8430
10.140047 0.8410 0.8410 0.8390 0.8380 0.8360
10.174000 0.8340 0.8340 0.8330 0.8330 0.8310
10.208047 0.8270 0.8270 0.8270 0.8260 0.8220
10.242000 0.8210 0.8190 0.8190 0.8170 0.8100
10.276047 0.8100 0.8070 0.8020 0.7980 0.7920
10.310000 0.7870 0.7810 0.7780 0.7730 0.7680
10.344047 0.7680 0.7640 0.7560 0.7460 0.7350
10.378000 0.7290 0.7240 0.7120 0.6960 0.6830
10.412047 0.6670 0.6520 0.6370 0.6200 0.6040
10.446000 0.5890 0.5650 0.5460 0.5340 0.5160
10.480047 0.5040 0.4950 0.4870 0.4780 0.4710
10.514000 0.4680 0.4650 0.4610 0.4590 0.4580
10.548047 0.4560 0.4560 0.4560 0.4560 0.4560
10.582000 0.4560 0.4580 0.4590 0.4630 0.4680
10.616047 0.4710 0.4750 0.4820 0.4950 0.5190
10.650000 0.5290 0.5330 0.5380 0.5380 0.5400
10.684047 0.5430 0.5500 0.5580 0.5600 0.5670
10.719000 0.5750 0.5860 0.5960 0.6010 0.6090
10.753047 0.6140 0.6200 0.6230 0.6280 0.6320
10.787000 0.6420 0.6520 0.6590 0.6640 0.6670
10.821047 0.6710 0.6740 0.6790 0.6790 0.6830
10.855000 0.6910 0.6980 0.6980 0.6980 0.6910
10.889047 0.6880 0.6840 0.6740 0.6720 0.6740
10.923000 0.6830 0.6950 0.6980 0.7100 0.7130
10.957047 0.7130 0.7120 0.7080 0.7050 0.7030
10.991000 0.7000 0.6960 0.6960 0.6950 0.6930
11.025047 0.6910 0.6910 0.6910 0.6910 0.6910
11.059000 0.6960 0.7010 0.7010 0.7030 0.7030
11.093047 0.7010 0.7000 0.7000 0.7000 0.7000
11.127000 0.7000 0.7000 0.7000 0.7060 0.7060
11.161047 0.7080 0.7060 0.7060 0.7060 0.7080
11.195000 0.7080 0.7100 0.7120 0.7150 0.7180
11.229047 0.7180 0.7200 0.7220 0.7220 0.7240
11.263000 0.7270 0.7270 0.7270 0.7240 0.7180
11.297047 0.7170 0.7170 0.7170 0.7170 0.7150
11.331000 0.7130 0.7100 0.7080 0.7080 0.7080
11.365047 0.7060 0.7060 0.7050 0.7010 0.7010
11.399000 0.7010 0.7010 0.7010 0.7010 0.7010
11.433047 0.7030 0.7050 0.7080 0.7100 0.7100
11.467000 0.7100 0.7120 0.7130 0.7130 0.7130
11.501047 0.7130 0.7100 0.7080 0.7000 0.6950
11.535000 0.6880 0.6740 0.6600 0.6370 0.6200
11.569047 0.6090 0.6060 0.6080 0.6260 0.6420
11.603000 0.6570 0.6620 0.6670 0.6670 0.6600
11.637047 0.6570 0.6520 0.6490 0.6490 0.6400
11.671000 0.6380 0.6320 0.6280 0.6260 0.6230
11.705047 0.6210 0.6210 0.6230 0.6260 0.6260
11.739000 0.6280 0.6280 0.6280 0.6300 0.6320
11.773047 0.6330 0.6350 0.6370 0.6420 0.6490
11.807000 0.6520 0.6550 0.6570 0.6620 0.6670
11.841047 0.6710 0.6720 0.6780 0.6840 0.6910
11.876000 0.6960 0.7000 0.7030 0.7060 0.7080
11.910047 0.7100 0.7100 0.7120 0.7120 0.7100
11.944000 0.7060 0.7010 0.6980 0.6950 0.6950
11.978047 0.6980 0.7080 0.7180 0.7250 0.7370
12.012000 0.7510 0.7610 0.7640 0.7660 0.7680
12.046047 0.7700 0.7700 0.7710 0.7730 0.7750
12.080000 0.7750 0.7760 0.7760 0.7780 0.7800
12.114047 0.7810 0.7830 0.7880 0.7900 0.7900
12.148000 0.7900 0.7950 0.7970 0.7980 0.7980
12.182047 0.8000 0.8020 0.8050 0.8090 0.8100
12.216000 0.8120 0.8120 0.8140 0.8140 0.8160
12.250047 0.8160 0.8160 0.8160 0.8140 0.8140
12.284000 0.8140 0.8160 0.8160 0.8170 0.8170
12.318047 0.8170 0.8170 0.8170 0.8170 0.8160
12.352000 0.8160 0.8140 0.8120 0.8120 0.8120
12.386047 0.8120 0.8120 0.8120 0.8100 0.8120
12.420000 0.8120 0.8120 0.8100 0.8100 0.8100
12.454047 0.8100 0.8100 0.8100 0.8100 0.8100
12.488000 0.8120 0.8120 0.8100 0.8090 0.8070
12.522047 0.8070 0.8070 0.8050 0.8050 0.8040
12.556000 0.8040 0.8040 0.8040 0.8040 0.8040
12.590047 0.8040 0.8040 0.8040 0.8020 0.8020
12.624000 0.8000 0.8000 0.7980 0.7980 0.7970
12.658047 0.7970 0.7970 0.7970 0.7970 0.7970
12.692000 0.7970 0.7970 0.7950 0.7950 0.7950
12.726047 0.7930 0.7930 0.7930 0.7930 0.7930
12.760000 0.7920 0.7920 0.7920 0.7920 0.7920
12.794047 0.7920 0.7900 0.7900 0.7900 0.7900
12.828000 0.7920 0.7920 0.7900 0.7900 0.7900
12.862047 0.7900 0.7900 0.7900 0.7880 0.7880
12.896000 0.7900 0.7880 0.7880 0.7870 0.7870
12.930047 0.7870 0.7870 0.7870 0.7870 0.7870
12.965000 0.7880 0.7880 0.7880 0.7880 0.7880
12.999047 0.7880 0.7880 0.7870 0.7870 0.7850
13.033000 0.7800 0.7760 0.7710 0.7680 0.7660
13.067047 0.7640 0.7610 0.7580 0.7560 0.7540
13.101000 0.7540 0.7580 0.7590 0.7610 0.7660
13.135047 0.7700 0.7750 0.7800 0.7830 0.7850
13.169000 0.7830 0.7780 0.7750 0.7730 0.7680
13.203047 0.7590 0.7540 0.7490 0.7460 0.7410
13.237000 0.7390 0.7410 0.7440 0.7520 0.7590
13.271047 0.7660 0.7730 0.7780 0.7830 0.7850
13.305000 0.7850 0.7850 0.7870 0.7880 0.7880
13.339047 0.7880 0.7880 0.7880 0.7880 0.7870
13.373000 0.7870 0.7870 0.7880 0.7880 0.7880
13.407047 0.7950 0.7950 0.7970 0.7970 0.7980
13.441000 0.8000 0.8000 0.8020 0.8040 0.8040
13.475047 0.8040 0.8050 0.8050 0.8070 0.8090
13.509000 0.8070 0.8090 0.8090 0.8090 0.8090
13.543047 0.8090 0.8100 0.8090 0.8090 0.8090
13.577000 0.8090 0.8090 0.8090 0.8090 0.8090
13.611047 0.8090 0.8090 0.8090 0.8090 0.8090
13.645000 0.8090 0.8090 0.8100 0.8100 0.8090
13.679047 0.8090 0.8090 0.8090 0.8090 0.8090
13.713000 0.8100 0.8120 0.8140 0.8120 0.8140
13.747047 0.8140 0.8160 0.8170 0.8190 0.8190
13.781000 0.8190 0.8190 0.8190 0.8190 0.8170
13.815047 0.8170 0.8170 0.8160 0.8160 0.8120
13.849000 0.8120 0.8120 0.8120 0.8120 0.8100
13.883047 0.8100 0.8100 0.8120 0.8100 0.8100
13.917000 0.8120 0.8120 0.8120 0.8120 0.8140
13.951047 0.8140 0.8140 0.8140 0.8160 0.8160
13.985000 0.8190 0.8190 0.8210 0.8210 0.8190
14.019047 0.8170 0.8170 0.8170 0.8190 0.8190
14.053000 0.8190 0.8190 0.8190 0.8190 0.8190
14.087047 0.8210 0.8210 0.8210 0.8210 0.8210
14.122000 0.8210 0.8210 0.8210 0.8210 0.8190
14.156047 0.8190 0.8190 0.8170 0.8170 0.8170
14.190000 0.8170 0.8190 0.8210 0.8210 0.8210
14.224047 0.8210 0.8210 0.8190 0.8170 0.8160
14.258000 0.8160 0.8160 0.8170 0.8190 0.8210
14.292047 0.8190 0.8190 0.8170 0.8170 0.8170
14.326000 0.8170 0.8170 0.8160 0.8160 0.8170
14.360047 0.8160 0.8160 0.8160 0.8160 0.8160
14.394000 0.8160 0.8160 0.8140 0.8160 0.8160
14.428047 0.8160 0.8160 0.8160 0.8140 0.8140
14.462000 0.8120 0.8120 0.8120 0.8120 0.8140
14.496047 0.8140 0.8140 0.8120 0.8120 0.8120
14.530000 0.8100 0.8100 0.8090 0.8090 0.8070
14.564047 0.8070 0.8070 0.8070 0.8050 0.8050
14.598000 0.8050 0.8050 0.8070 0.8050 0.8050
14.632047 0.8050 0.8040 0.8020 0.7980 0.7980
14.666000 0.7980 0.7970 0.7970 0.7980 0.7980
14.700047 0.7980 0.7980 0.7980 0.7950 0.7950
14.734000 0.7930 0.7930 0.7920 0.7920 0.7900
14.768047 0.7900 0.7900 0.7900 0.7900 0.7900
14.802000 0.7900 0.7920 0.7900 0.7900 0.7900
14.836047 0.7900 0.7900 0.7880 0.7880 0.7880
14.870000 0.7880 0.7880 0.7900 0.7900 0.7880
14.904047 0.7880 0.7880 0.7870 0.7870 0.7870
14.938000 0.7870 0.7870 0.7850 0.7850 0.7850
14.972047 0.7830 0.7810 0.7780 0.7760 0.7730
15.006000 0.7700 0.7640 0.7610 0.7580 0.7560
15.040047 0.7520 0.7510 0.7490 0.7470 0.7470
15.074000 0.7470 0.7490 0.7490 0.7510 0.7560
15.108047 0.7610 0.7630 0.7680 0.7700 0.7700
15.142000 0.7710 0.7710 0.7710 0.7710 0.7730
15.176047 0.7730 0.7760 0.7760 0.7760 0.7750
15.211000 0.7730 0.7710 0.7680 0.7660 0.7660
15.245047 0.7660 0.7640 0.7640 0.7610 0.7610
15.279000 0.7610 0.7610 0.7610 0.7590 0.7590
15.313047 0.7590 0.7580 0.7560 0.7560 0.7510
15.347000 0.7490 0.7490 0.7490 0.7490 0.7520
15.381047 0.7520 0.7510 0.7510 0.7510 0.7490
15.415000 0.7490 0.7470 0.7470 0.7460 0.7460
15.449047 0.7460 0.7460 0.7440 0.7420 0.7410
15.483000 0.7390 0.7370 0.7370 0.7350 0.7350
15.517047 0.7350 0.7350 0.7340 0.7320 0.7320
15.551000 0.7320 0.7320 0.7300 0.7290 0.7290
15.585047 0.7290 0.7270 0.7290 0.7270 0.7270
15.619000 0.7250 0.7250 0.7220 0.7220 0.7220
15.653047 0.7220 0.7220 0.7220 0.7220 0.7220
15.687000 0.7220 0.7220 0.7220 0.7200 0.7180
15.721047 0.7180 0.7180 0.7180 0.7180 0.7180
15.755000 0.7170 0.7170 0.7170 0.7150 0.7150
15.789047 0.7150 0.7150 0.7130 0.7130 0.7120
15.823000 0.7100 0.7120 0.7100 0.7080 0.7060
15.857047 0.7060 0.7050 0.7050 0.7050 0.7030
15.891000 0.7030 0.7030 0.7030 0.7030 0.7010
15.925047 0.7000 0.6980 0.6960 0.6950 0.6950
15.959000 0.6950 0.6960 0.6960 0.6960 0.6980
15.993047 0.6960
##END=
