##TITLE=SULFIDE, METHYL-
##JCAMP-DX=4.24
$$ By DXEDIT 1.05 (RS McDonald)
##DATA TYPE=INFRARED SPECTRUM
##CLASS=COBLENTZ III
##ORIGIN=WYANDOTTE CHEMICALS CORP.
##OWNER=COBLENTZ SOC.
Collection (C) 2018 copyright by the U.S. Secretary of Commerce
on behalf of the United States of America. All rights reserved.
##DATE=Not specified, most likely prior to 1970
##NAMES=dimethyl sulfide
(methylsulfanyl)methane
##CAS REGISTRY NO=75-18-3
##MOLFORM=C2 H6 S
##BP=37-38 C
##SOURCE REFERENCE=COBLENTZ NO. 05969
##$NIST SOURCE=COBLENTZ
##$NIST IMAGE=cob5969
##SPECTROMETER/DATA SYSTEM=BAIRD (GRATING)
##INSTRUMENT PARAMETERS=NaCl PRISM
##STATE=LIQUID
##PATH LENGTH=0.005 CM
##SAMPLING PROCEDURE=TRANSMISSION
##RESOLUTION=2
##DATA PROCESSING=DIGITIZED BY COBLENTZ SOCIETY (BATCH I) FROM HARD COPY
##XUNITS=1/CM
##YUNITS=TRANSMITTANCE
##XLABEL=Wavenumbers (cm-1)
##YLABEL=Transmittance
##XFACTOR=1
##YFACTOR=1
##DELTAX=1
##FIRSTX=4000
##LASTX=625
##FIRSTY=0.8392
##MAXX=4000
##MINX=625
##MAXY=0.9746
##MINY=0.0519
##NPOINTS=3376
##XYDATA=(X++(Y..Y))
4000.000000 0.8392 0.8392 0.8392 0.8392 0.8393
3995.000000 0.8393 0.8393 0.8394 0.8394 0.8394
3990.000000 0.8394 0.8394 0.8394 0.8395 0.8395
3985.000000 0.8395 0.8396 0.8396 0.8396 0.8396
3980.000000 0.8397 0.8398 0.8399 0.8400 0.8401
3975.000000 0.8402 0.8403 0.8405 0.8407 0.8409
3970.000000 0.8410 0.8412 0.8414 0.8415 0.8417
3965.000000 0.8418 0.8420 0.8421 0.8423 0.8425
3960.000000 0.8427 0.8428 0.8430 0.8432 0.8434
3955.000000 0.8436 0.8437 0.8439 0.8441 0.8443
3950.000000 0.8445 0.8446 0.8448 0.8450 0.8452
3945.000000 0.8453 0.8455 0.8457 0.8458 0.8460
3940.000000 0.8462 0.8463 0.8465 0.8467 0.8468
3935.000000 0.8470 0.8471 0.8474 0.8475 0.8477
3930.000000 0.8478 0.8481 0.8483 0.8485 0.8487
3925.000000 0.8489 0.8491 0.8493 0.8495 0.8497
3920.000000 0.8499 0.8501 0.8504 0.8506 0.8508
3915.000000 0.8510 0.8512 0.8514 0.8516 0.8518
3910.000000 0.8521 0.8523 0.8525 0.8527 0.8528
3905.000000 0.8531 0.8533 0.8535 0.8537 0.8539
3900.000000 0.8541 0.8543 0.8545 0.8547 0.8549
3895.000000 0.8552 0.8554 0.8555 0.8556 0.8558
3890.000000 0.8559 0.8560 0.8562 0.8563 0.8564
3885.000000 0.8566 0.8567 0.8568 0.8568 0.8571
3880.000000 0.8571 0.8573 0.8574 0.8575 0.8575
3875.000000 0.8577 0.8578 0.8578 0.8578 0.8580
3870.000000 0.8580 0.8581 0.8581 0.8581 0.8581
3865.000000 0.8581 0.8581 0.8582 0.8582 0.8582
3860.000000 0.8582 0.8582 0.8583 0.8583 0.8583
3855.000000 0.8584 0.8584 0.8584 0.8585 0.8585
3850.000000 0.8585 0.8585 0.8585 0.8585 0.8586
3845.000000 0.8586 0.8586 0.8587 0.8587 0.8587
3840.000000 0.8588 0.8588 0.8588 0.8588 0.8588
3835.000000 0.8588 0.8589 0.8589 0.8589 0.8590
3830.000000 0.8590 0.8590 0.8591 0.8591 0.8591
3825.000000 0.8591 0.8591 0.8591 0.8592 0.8592
3820.000000 0.8592 0.8592 0.8592 0.8592 0.8592
3815.000000 0.8592 0.8592 0.8592 0.8592 0.8592
3810.000000 0.8592 0.8592 0.8592 0.8592 0.8592
3805.000000 0.8591 0.8591 0.8591 0.8591 0.8591
3800.000000 0.8591 0.8591 0.8591 0.8591 0.8591
3795.000000 0.8591 0.8591 0.8590 0.8590 0.8590
3790.000000 0.8590 0.8590 0.8590 0.8590 0.8590
3785.000000 0.8590 0.8590 0.8590 0.8590 0.8590
3780.000000 0.8590 0.8590 0.8590 0.8590 0.8589
3775.000000 0.8589 0.8589 0.8589 0.8589 0.8589
3770.000000 0.8589 0.8589 0.8589 0.8589 0.8589
3765.000000 0.8588 0.8588 0.8588 0.8588 0.8588
3760.000000 0.8588 0.8588 0.8588 0.8588 0.8588
3755.000000 0.8588 0.8588 0.8587 0.8587 0.8587
3750.000000 0.8587 0.8587 0.8587 0.8587 0.8587
3745.000000 0.8587 0.8587 0.8587 0.8588 0.8588
3740.000000 0.8588 0.8588 0.8588 0.8588 0.8588
3735.000000 0.8588 0.8588 0.8588 0.8588 0.8589
3730.000000 0.8589 0.8589 0.8589 0.8589 0.8589
3725.000000 0.8589 0.8589 0.8589 0.8589 0.8589
3720.000000 0.8589 0.8589 0.8589 0.8589 0.8589
3715.000000 0.8589 0.8590 0.8590 0.8590 0.8590
3710.000000 0.8590 0.8590 0.8590 0.8590 0.8590
3705.000000 0.8590 0.8590 0.8590 0.8590 0.8590
3700.000000 0.8590 0.8590 0.8591 0.8591 0.8591
3695.000000 0.8591 0.8591 0.8591 0.8591 0.8591
3690.000000 0.8591 0.8591 0.8591 0.8592 0.8592
3685.000000 0.8592 0.8592 0.8592 0.8592 0.8592
3680.000000 0.8592 0.8592 0.8592 0.8592 0.8592
3675.000000 0.8592 0.8592 0.8592 0.8592 0.8592
3670.000000 0.8592 0.8592 0.8592 0.8592 0.8592
3665.000000 0.8591 0.8591 0.8591 0.8591 0.8591
3660.000000 0.8590 0.8590 0.8590 0.8589 0.8589
3655.000000 0.8589 0.8588 0.8588 0.8588 0.8588
3650.000000 0.8588 0.8587 0.8587 0.8587 0.8586
3645.000000 0.8586 0.8585 0.8585 0.8585 0.8585
3640.000000 0.8585 0.8584 0.8584 0.8584 0.8584
3635.000000 0.8584 0.8584 0.8583 0.8583 0.8582
3630.000000 0.8582 0.8582 0.8581 0.8581 0.8581
3625.000000 0.8581 0.8581 0.8580 0.8580 0.8580
3620.000000 0.8580 0.8580 0.8580 0.8578 0.8578
3615.000000 0.8578 0.8578 0.8578 0.8577 0.8577
3610.000000 0.8577 0.8577 0.8577 0.8575 0.8575
3605.000000 0.8575 0.8575 0.8575 0.8574 0.8574
3600.000000 0.8574 0.8574 0.8574 0.8573 0.8573
3595.000000 0.8573 0.8573 0.8573 0.8573 0.8573
3590.000000 0.8573 0.8573 0.8573 0.8573 0.8574
3585.000000 0.8574 0.8574 0.8574 0.8574 0.8575
3580.000000 0.8575 0.8575 0.8575 0.8575 0.8575
3575.000000 0.8575 0.8575 0.8575 0.8575 0.8577
3570.000000 0.8577 0.8577 0.8577 0.8577 0.8578
3565.000000 0.8578 0.8578 0.8578 0.8578 0.8578
3560.000000 0.8578 0.8578 0.8578 0.8578 0.8580
3555.000000 0.8580 0.8580 0.8581 0.8581 0.8582
3550.000000 0.8582 0.8582 0.8582 0.8582 0.8583
3545.000000 0.8583 0.8583 0.8583 0.8583 0.8584
3540.000000 0.8584 0.8584 0.8584 0.8584 0.8585
3535.000000 0.8585 0.8585 0.8585 0.8585 0.8586
3530.000000 0.8586 0.8587 0.8588 0.8589 0.8590
3525.000000 0.8590 0.8591 0.8592 0.8593 0.8594
3520.000000 0.8594 0.8595 0.8596 0.8597 0.8598
3515.000000 0.8598 0.8599 0.8600 0.8601 0.8602
3510.000000 0.8603 0.8604 0.8605 0.8607 0.8608
3505.000000 0.8610 0.8612 0.8614 0.8615 0.8617
3500.000000 0.8618 0.8621 0.8623 0.8625 0.8625
3495.000000 0.8628 0.8630 0.8631 0.8633 0.8635
3490.000000 0.8636 0.8638 0.8640 0.8642 0.8644
3485.000000 0.8646 0.8648 0.8649 0.8651 0.8653
3480.000000 0.8655 0.8656 0.8658 0.8660 0.8660
3475.000000 0.8661 0.8661 0.8662 0.8663 0.8663
3470.000000 0.8663 0.8664 0.8664 0.8665 0.8665
3465.000000 0.8666 0.8667 0.8667 0.8668 0.8668
3460.000000 0.8668 0.8668 0.8668 0.8670 0.8671
3455.000000 0.8671 0.8671 0.8673 0.8673 0.8673
3450.000000 0.8674 0.8674 0.8675 0.8675 0.8675
3445.000000 0.8675 0.8675 0.8677 0.8677 0.8678
3440.000000 0.8678 0.8678 0.8680 0.8681 0.8681
3435.000000 0.8682 0.8683 0.8683 0.8684 0.8685
3430.000000 0.8686 0.8687 0.8688 0.8689 0.8689
3425.000000 0.8690 0.8691 0.8692 0.8692 0.8693
3420.000000 0.8693 0.8694 0.8695 0.8696 0.8697
3415.000000 0.8698 0.8699 0.8699 0.8700 0.8701
3410.000000 0.8702 0.8703 0.8703 0.8704 0.8704
3405.000000 0.8705 0.8706 0.8707 0.8708 0.8709
3400.000000 0.8709 0.8709 0.8709 0.8709 0.8710
3395.000000 0.8710 0.8711 0.8711 0.8712 0.8712
3390.000000 0.8712 0.8712 0.8712 0.8713 0.8713
3385.000000 0.8714 0.8714 0.8715 0.8715 0.8715
3380.000000 0.8715 0.8715 0.8716 0.8716 0.8717
3375.000000 0.8717 0.8717 0.8718 0.8718 0.8718
3370.000000 0.8718 0.8718 0.8718 0.8718 0.8718
3365.000000 0.8718 0.8720 0.8720 0.8721 0.8721
3360.000000 0.8721 0.8721 0.8721 0.8721 0.8721
3355.000000 0.8723 0.8723 0.8724 0.8724 0.8724
3350.000000 0.8724 0.8724 0.8724 0.8724 0.8723
3345.000000 0.8723 0.8721 0.8721 0.8721 0.8721
3340.000000 0.8720 0.8720 0.8720 0.8718 0.8718
3335.000000 0.8718 0.8718 0.8717 0.8716 0.8715
3330.000000 0.8714 0.8714 0.8711 0.8708 0.8706
3325.000000 0.8703 0.8700 0.8698 0.8695 0.8692
3320.000000 0.8689 0.8686 0.8683 0.8680 0.8678
3315.000000 0.8675 0.8671 0.8668 0.8667 0.8664
3310.000000 0.8661 0.8658 0.8656 0.8653 0.8648
3305.000000 0.8643 0.8638 0.8633 0.8628 0.8623
3300.000000 0.8617 0.8612 0.8607 0.8601 0.8596
3295.000000 0.8591 0.8586 0.8581 0.8575 0.8571
3290.000000 0.8566 0.8563 0.8560 0.8558 0.8556
3285.000000 0.8554 0.8552 0.8550 0.8548 0.8546
3280.000000 0.8544 0.8543 0.8542 0.8540 0.8539
3275.000000 0.8538 0.8538 0.8537 0.8536 0.8535
3270.000000 0.8534 0.8533 0.8533 0.8532 0.8531
3265.000000 0.8530 0.8528 0.8528 0.8527 0.8527
3260.000000 0.8525 0.8525 0.8524 0.8523 0.8521
3255.000000 0.8521 0.8520 0.8518 0.8518 0.8518
3250.000000 0.8516 0.8515 0.8513 0.8512 0.8511
3245.000000 0.8509 0.8508 0.8507 0.8506 0.8505
3240.000000 0.8503 0.8502 0.8501 0.8500 0.8499
3235.000000 0.8498 0.8496 0.8495 0.8494 0.8493
3230.000000 0.8492 0.8487 0.8482 0.8477 0.8471
3225.000000 0.8466 0.8460 0.8454 0.8448 0.8437
3220.000000 0.8424 0.8412 0.8399 0.8378 0.8353
3215.000000 0.8327 0.8300 0.8277 0.8259 0.8240
3210.000000 0.8221 0.8205 0.8189 0.8174 0.8158
3205.000000 0.8143 0.8132 0.8121 0.8111 0.8100
3200.000000 0.8091 0.8083 0.8074 0.8065 0.8056
3195.000000 0.8047 0.8038 0.8028 0.8019 0.8011
3190.000000 0.8003 0.7994 0.7987 0.7978 0.7971
3185.000000 0.7965 0.7957 0.7949 0.7942 0.7934
3180.000000 0.7926 0.7919 0.7912 0.7906 0.7901
3175.000000 0.7896 0.7891 0.7886 0.7882 0.7876
3170.000000 0.7871 0.7868 0.7862 0.7858 0.7854
3165.000000 0.7849 0.7845 0.7840 0.7835 0.7831
3160.000000 0.7826 0.7822 0.7819 0.7815 0.7812
3155.000000 0.7808 0.7806 0.7803 0.7800 0.7796
3150.000000 0.7793 0.7790 0.7786 0.7783 0.7780
3145.000000 0.7776 0.7774 0.7772 0.7771 0.7768
3140.000000 0.7767 0.7765 0.7762 0.7761 0.7758
3135.000000 0.7757 0.7755 0.7753 0.7751 0.7749
3130.000000 0.7747 0.7745 0.7743 0.7741 0.7739
3125.000000 0.7738 0.7735 0.7733 0.7731 0.7728
3120.000000 0.7725 0.7721 0.7718 0.7715 0.7712
3115.000000 0.7710 0.7707 0.7705 0.7701 0.7699
3110.000000 0.7696 0.7692 0.7688 0.7683 0.7678
3105.000000 0.7674 0.7668 0.7664 0.7658 0.7654
3100.000000 0.7649 0.7644 0.7639 0.7634 0.7628
3095.000000 0.7624 0.7618 0.7611 0.7605 0.7598
3090.000000 0.7589 0.7575 0.7561 0.7548 0.7535
3085.000000 0.7521 0.7507 0.7493 0.7478 0.7465
3080.000000 0.7451 0.7438 0.7421 0.7405 0.7389
3075.000000 0.7371 0.7355 0.7338 0.7321 0.7304
3070.000000 0.7287 0.7269 0.7253 0.7236 0.7218
3065.000000 0.7201 0.7185 0.7042 0.6851 0.6661
3060.000000 0.6469 0.6442 0.6417 0.6392 0.6367
3055.000000 0.6339 0.6310 0.6282 0.6202 0.6071
3050.000000 0.5940 0.5808 0.5715 0.5632 0.5550
3045.000000 0.5467 0.5384 0.5302 0.5219 0.5136
3040.000000 0.5054 0.4971 0.4888 0.4805 0.4722
3035.000000 0.4638 0.4555 0.4472 0.4389 0.4305
3030.000000 0.4222 0.4138 0.4055 0.3971 0.3887
3025.000000 0.3804 0.3720 0.3637 0.3553 0.3468
3020.000000 0.3384 0.3300 0.3216 0.3132 0.3048
3015.000000 0.2964 0.2879 0.2795 0.2710 0.2626
3010.000000 0.2542 0.2457 0.2373 0.2288 0.2203
3005.000000 0.2118 0.2033 0.1948 0.1863 0.1778
3000.000000 0.1693 0.1608 0.1522 0.1437 0.1352
2995.000000 0.1267 0.1181 0.1096 0.1010 0.0924
2990.000000 0.0856 0.0811 0.0767 0.0722 0.0715
2985.000000 0.0715 0.0715 0.0714 0.0714 0.0714
2980.000000 0.0714 0.0714 0.0714 0.0714 0.0714
2975.000000 0.0715 0.0716 0.0717 0.0718 0.0719
2970.000000 0.0721 0.0722 0.0722 0.0722 0.0722
2965.000000 0.0721 0.0721 0.0721 0.0720 0.0720
2960.000000 0.0720 0.0720 0.0717 0.0711 0.0706
2955.000000 0.0701 0.0695 0.0690 0.0684 0.0678
2950.000000 0.0673 0.0668 0.0663 0.0659 0.0654
2945.000000 0.0650 0.0646 0.0643 0.0640 0.0637
2940.000000 0.0636 0.0634 0.0614 0.0632 0.0631
2935.000000 0.0630 0.0629 0.0629 0.0629 0.0629
2930.000000 0.0664 0.0706 0.0749 0.0791 0.0834
2925.000000 0.0876 0.0919 0.0961 0.1004 0.1046
2920.000000 0.1090 0.1132 0.1175 0.1218 0.1261
2915.000000 0.1303 0.1346 0.1389 0.1432 0.1475
2910.000000 0.1518 0.1561 0.1604 0.1646 0.1690
2905.000000 0.1733 0.1776 0.1820 0.1863 0.1906
2900.000000 0.1950 0.1993 0.2035 0.2080 0.2099
2895.000000 0.2115 0.2130 0.2139 0.2143 0.2147
2890.000000 0.2150 0.2152 0.2154 0.2156 0.2158
2885.000000 0.2160 0.2162 0.2162 0.2162 0.2161
2880.000000 0.2160 0.2160 0.2160 0.2160 0.2154
2875.000000 0.2148 0.2142 0.2135 0.2130 0.2123
2870.000000 0.2117 0.2110 0.2103 0.2096 0.2089
2865.000000 0.2083 0.2076 0.2073 0.2071 0.2069
2860.000000 0.2067 0.2064 0.2062 0.2060 0.2058
2855.000000 0.2056 0.2054 0.2054 0.2054 0.2054
2850.000000 0.2055 0.2057 0.2058 0.2064 0.2075
2845.000000 0.2087 0.2100 0.2128 0.2155 0.2183
2840.000000 0.2209 0.2234 0.2259 0.2312 0.2377
2835.000000 0.2443 0.2622 0.2930 0.3238 0.3554
2830.000000 0.3891 0.4229 0.4566 0.4904 0.5242
2825.000000 0.5580 0.6020 0.6476 0.6934 0.7111
2820.000000 0.7151 0.7190 0.7225 0.7253 0.7282
2815.000000 0.7311 0.7340 0.7368 0.7397 0.7418
2810.000000 0.7441 0.7462 0.7483 0.7503 0.7521
2805.000000 0.7542 0.7561 0.7581 0.7601 0.7621
2800.000000 0.7641 0.7660 0.7680 0.7700 0.7719
2795.000000 0.7740 0.7760 0.7778 0.7799 0.7818
2790.000000 0.7839 0.7858 0.7878 0.7898 0.7917
2785.000000 0.7937 0.7957 0.7976 0.7997 0.8017
2780.000000 0.8036 0.8055 0.8074 0.8089 0.8101
2775.000000 0.8115 0.8128 0.8142 0.8155 0.8168
2770.000000 0.8182 0.8195 0.8209 0.8221 0.8236
2765.000000 0.8249 0.8262 0.8275 0.8289 0.8303
2760.000000 0.8316 0.8328 0.8342 0.8354 0.8366
2755.000000 0.8375 0.8385 0.8394 0.8404 0.8414
2750.000000 0.8423 0.8433 0.8442 0.8452 0.8462
2745.000000 0.8471 0.8481 0.8490 0.8500 0.8510
2740.000000 0.8518 0.8528 0.8539 0.8548 0.8558
2735.000000 0.8568 0.8577 0.8587 0.8597 0.8606
2730.000000 0.8615 0.8623 0.8631 0.8638 0.8646
2725.000000 0.8653 0.8660 0.8668 0.8675 0.8683
2720.000000 0.8690 0.8698 0.8705 0.8712 0.8720
2715.000000 0.8727 0.8735 0.8742 0.8750 0.8757
2710.000000 0.8764 0.8771 0.8778 0.8784 0.8789
2705.000000 0.8795 0.8801 0.8807 0.8813 0.8818
2700.000000 0.8824 0.8830 0.8836 0.8842 0.8848
2695.000000 0.8853 0.8859 0.8865 0.8871 0.8878
2690.000000 0.8881 0.8884 0.8887 0.8891 0.8894
2685.000000 0.8897 0.8901 0.8904 0.8908 0.8911
2680.000000 0.8915 0.8918 0.8921 0.8924 0.8928
2675.000000 0.8931 0.8935 0.8938 0.8942 0.8945
2670.000000 0.8949 0.8952 0.8956 0.8959 0.8962
2665.000000 0.8965 0.8968 0.8971 0.8975 0.8978
2660.000000 0.8982 0.8985 0.8987 0.8989 0.8991
2655.000000 0.8994 0.8996 0.8999 0.9001 0.9004
2650.000000 0.9006 0.9009 0.9011 0.9014 0.9016
2645.000000 0.9018 0.9021 0.9023 0.9025 0.9028
2640.000000 0.9030 0.9033 0.9035 0.9038 0.9040
2635.000000 0.9043 0.9045 0.9047 0.9050 0.9052
2630.000000 0.9054 0.9057 0.9060 0.9062 0.9065
2625.000000 0.9067 0.9068 0.9071 0.9073 0.9075
2620.000000 0.9077 0.9078 0.9081 0.9083 0.9085
2615.000000 0.9087 0.9088 0.9090 0.9092 0.9094
2610.000000 0.9097 0.9099 0.9100 0.9102 0.9104
2605.000000 0.9106 0.9108 0.9110 0.9112 0.9114
2600.000000 0.9116 0.9118 0.9120 0.9121 0.9124
2595.000000 0.9125 0.9128 0.9130 0.9132 0.9134
2590.000000 0.9136 0.9138 0.9139 0.9142 0.9144
2585.000000 0.9146 0.9148 0.9150 0.9152 0.9154
2580.000000 0.9155 0.9157 0.9159 0.9161 0.9163
2575.000000 0.9165 0.9167 0.9168 0.9171 0.9171
2570.000000 0.9174 0.9175 0.9178 0.9180 0.9182
2565.000000 0.9184 0.9186 0.9188 0.9190 0.9191
2560.000000 0.9193 0.9194 0.9196 0.9198 0.9200
2555.000000 0.9202 0.9204 0.9206 0.9208 0.9210
2550.000000 0.9211 0.9213 0.9215 0.9217 0.9218
2545.000000 0.9221 0.9223 0.9225 0.9227 0.9228
2540.000000 0.9231 0.9232 0.9234 0.9235 0.9237
2535.000000 0.9238 0.9240 0.9241 0.9243 0.9245
2530.000000 0.9246 0.9248 0.9249 0.9251 0.9252
2525.000000 0.9254 0.9255 0.9257 0.9259 0.9261
2520.000000 0.9263 0.9264 0.9266 0.9267 0.9268
2515.000000 0.9271 0.9271 0.9274 0.9275 0.9275
2510.000000 0.9278 0.9278 0.9278 0.9280 0.9280
2505.000000 0.9281 0.9281 0.9282 0.9283 0.9284
2500.000000 0.9285 0.9285 0.9286 0.9287 0.9288
2495.000000 0.9289 0.9289 0.9289 0.9290 0.9291
2490.000000 0.9292 0.9292 0.9293 0.9293 0.9292
2485.000000 0.9291 0.9291 0.9290 0.9289 0.9289
2480.000000 0.9288 0.9288 0.9287 0.9286 0.9285
2475.000000 0.9284 0.9284 0.9284 0.9283 0.9282
2470.000000 0.9281 0.9278 0.9275 0.9273 0.9270
2465.000000 0.9267 0.9264 0.9261 0.9258 0.9256
2460.000000 0.9253 0.9250 0.9247 0.9244 0.9241
2455.000000 0.9238 0.9235 0.9232 0.9228 0.9227
2450.000000 0.9223 0.9218 0.9216 0.9212 0.9209
2445.000000 0.9205 0.9201 0.9198 0.9195 0.9194
2440.000000 0.9194 0.9194 0.9194 0.9194 0.9193
2435.000000 0.9193 0.9193 0.9193 0.9193 0.9193
2430.000000 0.9193 0.9193 0.9193 0.9194 0.9194
2425.000000 0.9194 0.9195 0.9196 0.9197 0.9198
2420.000000 0.9199 0.9199 0.9199 0.9200 0.9201
2415.000000 0.9202 0.9203 0.9204 0.9204 0.9204
2410.000000 0.9205 0.9205 0.9206 0.9206 0.9206
2405.000000 0.9206 0.9206 0.9206 0.9206 0.9206
2400.000000 0.9206 0.9206 0.9206 0.9206 0.9206
2395.000000 0.9206 0.9204 0.9203 0.9201 0.9198
2390.000000 0.9195 0.9192 0.9189 0.9186 0.9184
2385.000000 0.9181 0.9178 0.9175 0.9173 0.9171
2380.000000 0.9168 0.9164 0.9162 0.9159 0.9157
2375.000000 0.9154 0.9152 0.9149 0.9147 0.9144
2370.000000 0.9141 0.9139 0.9136 0.9135 0.9135
2365.000000 0.9134 0.9134 0.9134 0.9133 0.9133
2360.000000 0.9132 0.9132 0.9132 0.9132 0.9132
2355.000000 0.9134 0.9136 0.9138 0.9140 0.9142
2350.000000 0.9145 0.9147 0.9149 0.9151 0.9154
2345.000000 0.9156 0.9158 0.9161 0.9163 0.9165
2340.000000 0.9167 0.9168 0.9171 0.9173 0.9175
2335.000000 0.9177 0.9178 0.9181 0.9183 0.9185
2330.000000 0.9186 0.9188 0.9190 0.9192 0.9195
2325.000000 0.9197 0.9198 0.9200 0.9202 0.9204
2320.000000 0.9206 0.9208 0.9210 0.9211 0.9214
2315.000000 0.9216 0.9218 0.9220 0.9221 0.9224
2310.000000 0.9225 0.9227 0.9228 0.9230 0.9232
2305.000000 0.9233 0.9235 0.9236 0.9238 0.9238
2300.000000 0.9239 0.9241 0.9242 0.9244 0.9245
2295.000000 0.9246 0.9248 0.9249 0.9250 0.9251
2290.000000 0.9253 0.9254 0.9255 0.9257 0.9258
2285.000000 0.9260 0.9261 0.9262 0.9263 0.9264
2280.000000 0.9264 0.9265 0.9266 0.9267 0.9268
2275.000000 0.9268 0.9270 0.9271 0.9271 0.9273
2270.000000 0.9274 0.9275 0.9275 0.9277 0.9278
2265.000000 0.9278 0.9280 0.9281 0.9282 0.9283
2260.000000 0.9283 0.9282 0.9281 0.9280 0.9278
2255.000000 0.9278 0.9275 0.9275 0.9274 0.9273
2250.000000 0.9271 0.9270 0.9268 0.9267 0.9265
2245.000000 0.9264 0.9262 0.9261 0.9259 0.9257
2240.000000 0.9255 0.9254 0.9252 0.9251 0.9249
2235.000000 0.9247 0.9245 0.9244 0.9242 0.9240
2230.000000 0.9238 0.9237 0.9235 0.9234 0.9232
2225.000000 0.9231 0.9228 0.9228 0.9227 0.9225
2220.000000 0.9225 0.9224 0.9223 0.9223 0.9221
2215.000000 0.9221 0.9220 0.9218 0.9218 0.9217
2210.000000 0.9216 0.9215 0.9214 0.9213 0.9212
2205.000000 0.9212 0.9212 0.9212 0.9212 0.9212
2200.000000 0.9211 0.9211 0.9211 0.9211 0.9211
2195.000000 0.9211 0.9211 0.9211 0.9211 0.9211
2190.000000 0.9211 0.9211 0.9211 0.9211 0.9212
2185.000000 0.9213 0.9215 0.9217 0.9218 0.9220
2180.000000 0.9221 0.9224 0.9225 0.9228 0.9228
2175.000000 0.9231 0.9232 0.9234 0.9237 0.9239
2170.000000 0.9242 0.9247 0.9252 0.9256 0.9260
2165.000000 0.9264 0.9268 0.9274 0.9278 0.9282
2160.000000 0.9287 0.9291 0.9296 0.9301 0.9305
2155.000000 0.9309 0.9314 0.9318 0.9323 0.9327
2150.000000 0.9331 0.9335 0.9339 0.9344 0.9348
2145.000000 0.9352 0.9356 0.9360 0.9365 0.9368
2140.000000 0.9373 0.9377 0.9381 0.9385 0.9390
2135.000000 0.9394 0.9399 0.9403 0.9407 0.9411
2130.000000 0.9415 0.9420 0.9424 0.9427 0.9430
2125.000000 0.9432 0.9434 0.9435 0.9437 0.9438
2120.000000 0.9439 0.9441 0.9442 0.9443 0.9445
2115.000000 0.9447 0.9448 0.9450 0.9451 0.9452
2110.000000 0.9454 0.9456 0.9457 0.9459 0.9460
2105.000000 0.9461 0.9463 0.9464 0.9465 0.9465
2100.000000 0.9466 0.9467 0.9467 0.9468 0.9468
2095.000000 0.9468 0.9468 0.9470 0.9471 0.9471
2090.000000 0.9471 0.9471 0.9473 0.9473 0.9474
2085.000000 0.9475 0.9475 0.9475 0.9475 0.9475
2080.000000 0.9475 0.9477 0.9478 0.9478 0.9478
2075.000000 0.9478 0.9480 0.9480 0.9481 0.9482
2070.000000 0.9482 0.9483 0.9483 0.9484 0.9485
2065.000000 0.9485 0.9486 0.9486 0.9486 0.9487
2060.000000 0.9487 0.9488 0.9488 0.9489 0.9489
2055.000000 0.9489 0.9490 0.9490 0.9491 0.9491
2050.000000 0.9492 0.9493 0.9493 0.9493 0.9493
2045.000000 0.9493 0.9494 0.9494 0.9494 0.9494
2040.000000 0.9495 0.9495 0.9495 0.9495 0.9495
2035.000000 0.9496 0.9496 0.9496 0.9497 0.9497
2030.000000 0.9497 0.9497 0.9497 0.9498 0.9498
2025.000000 0.9498 0.9498 0.9498 0.9499 0.9499
2020.000000 0.9499 0.9499 0.9499 0.9500 0.9500
2015.000000 0.9500 0.9500 0.9500 0.9500 0.9500
2010.000000 0.9499 0.9498 0.9496 0.9495 0.9494
2005.000000 0.9494 0.9488 0.9480 0.9470 0.9463
2000.000000 0.9457 0.9451 0.9445 0.9440 0.9435
1995.000000 0.9428 0.9424 0.9418 0.9413 0.9408
1990.000000 0.9404 0.9399 0.9394 0.9389 0.9385
