##TITLE=OXIRANE
##JCAMP-DX=4.24
##DATA TYPE=INFRARED SPECTRUM
##CLASS=COBLENTZ
##ORIGIN=DOW CHEMICAL COMPANY
##OWNER=COBLENTZ SOCIETY
Collection (C) 2018 copyright by the U.S. Secretary of Commerce
on behalf of the United States of America. All rights reserved.
##DATE=1964
##NAMES=ETHYLENE OXIDE
##CAS REGISTRY NO=75-21-8
##MOLFORM=C2 H4 O
##SOURCE REFERENCE=COBLENTZ NO. 8799
##$NIST SOURCE=COBLENTZ
##$NIST IMAGE=cob-r8799
##SPECTROMETER/DATA SYSTEM=DOW KBr FOREPRISM-GRATING
##INSTRUMENT PARAMETERS=GRATING CHANGED AT 5.0, 7.5, 15.0 MICRON
##STATE=GAS (50 mmHg, N2 ADDED, TOTAL PRESSURE 600 mmHg)
##PATH LENGTH=5 CM
##SAMPLING PROCEDURE=TRANSMISSION
##RESOLUTION=2
##DATA PROCESSING=DIGITIZED BY NIST FROM HARD COPY (FROM TWO SEGMENTS)
##XUNITS=1/CM
##YUNITS=TRANSMITTANCE
##XFACTOR=1.000000
##YFACTOR=1
##DELTAX=0.937503
##FIRSTX=454.063
##LASTX=3799.07
##FIRSTY=0.952
##MAXX=3799.07
##MINX=454.063
##MAXY=1.011
##MINY=0.0900047
##NPOINTS=3569
##XYDATA=(X++(Y..Y))
454.063000 0.9520 0.9530 0.9530 0.9530 0.9530
458.750516 0.9530 0.9550 0.9550 0.9550 0.9550
463.438031 0.9550 0.9550 0.9560 0.9560 0.9560
468.125547 0.9560 0.9560 0.9560 0.9560 0.9560
472.813062 0.9560 0.9560 0.9560 0.9560 0.9560
477.500578 0.9560 0.9560 0.9560 0.9560 0.9560
482.188093 0.9560 0.9560 0.9560 0.9560 0.9560
486.875609 0.9580 0.9560 0.9560 0.9560 0.9560
491.563124 0.9560 0.9560 0.9560 0.9560 0.9550
496.250640 0.9550 0.9550 0.9550 0.9550 0.9550
500.938155 0.9550 0.9550 0.9550 0.9550 0.9530
505.625671 0.9520 0.9500 0.9500 0.9520 0.9500
510.313186 0.9500 0.9500 0.9500 0.9500 0.9500
515.000702 0.9490 0.9490 0.9490 0.9490 0.9490
519.688217 0.9490 0.9490 0.9500 0.9500 0.9500
524.375733 0.9500 0.9500 0.9500 0.9520 0.9520
529.063248 0.9520 0.9520 0.9520 0.9520 0.9530
533.750764 0.9530 0.9530 0.9530 0.9550 0.9550
538.438279 0.9550 0.9550 0.9550 0.9550 0.9530
543.125795 0.9530 0.9530 0.9530 0.9530 0.9530
547.813310 0.9530 0.9530 0.9530 0.9530 0.9530
552.500826 0.9530 0.9530 0.9530 0.9550 0.9560
557.188342 0.9560 0.9560 0.9560 0.9560 0.9560
561.875857 0.9580 0.9580 0.9590 0.9620 0.9620
566.563373 0.9620 0.9630 0.9630 0.9630 0.9630
571.250888 0.9650 0.9650 0.9650 0.9650 0.9630
575.938404 0.9630 0.9620 0.9620 0.9620 0.9620
580.625919 0.9620 0.9630 0.9630 0.9630 0.9660
585.313435 0.9660 0.9660 0.9660 0.9660 0.9660
590.000950 0.9660 0.9660 0.9660 0.9660 0.9650
594.688466 0.9650 0.9660 0.9660 0.9660 0.9660
599.375981 0.9660 0.9680 0.9680 0.9680 0.9690
604.063497 0.9710 0.9710 0.9690 0.9690 0.9690
608.751012 0.9690 0.9690 0.9680 0.9680 0.9680
613.438528 0.9680 0.9680 0.9690 0.9690 0.9690
618.126043 0.9710 0.9710 0.9710 0.9710 0.9710
622.813559 0.9710 0.9720 0.9720 0.9720 0.9740
627.501074 0.9740 0.9740 0.9740 0.9750 0.9750
632.188590 0.9750 0.9750 0.9750 0.9750 0.9750
636.876105 0.9750 0.9750 0.9750 0.9750 0.9760
641.563621 0.9760 0.9750 0.9750 0.9740 0.9740
646.251136 0.9740 0.9750 0.9780 0.9760 0.9760
650.938652 0.9760 0.9760 0.9750 0.9740 0.9740
655.626168 0.9720 0.9720 0.9720 0.9720 0.9720
660.313683 0.9720 0.9720 0.9720 0.9720 0.9720
665.001199 0.9720 0.9720 0.9720 0.9720 0.9740
669.688714 0.9740 0.9740 0.9740 0.9760 0.9750
674.376230 0.9740 0.9720 0.9710 0.9710 0.9720
679.063745 0.9720 0.9710 0.9690 0.9680 0.9690
683.751261 0.9710 0.9710 0.9710 0.9710 0.9680
688.438776 0.9680 0.9680 0.9680 0.9680 0.9680
693.126292 0.9680 0.9680 0.9680 0.9690 0.9690
697.813807 0.9690 0.9710 0.9710 0.9710 0.9710
702.501323 0.9710 0.9710 0.9680 0.9680 0.9680
707.188838 0.9680 0.9680 0.9690 0.9690 0.9690
711.876354 0.9690 0.9690 0.9710 0.9710 0.9710
716.563869 0.9710 0.9710 0.9720 0.9720 0.9720
721.251385 0.9710 0.9710 0.9710 0.9710 0.9720
725.938900 0.9720 0.9740 0.9740 0.9740 0.9740
730.626416 0.9740 0.9740 0.9740 0.9720 0.9720
735.313931 0.9720 0.9720 0.9720 0.9720 0.9720
740.001447 0.9710 0.9710 0.9710 0.9690 0.9680
744.688962 0.9680 0.9680 0.9680 0.9680 0.9680
749.376478 0.9680 0.9680 0.9680 0.9660 0.9650
754.063994 0.9650 0.9630 0.9630 0.9630 0.9630
758.751509 0.9630 0.9630 0.9620 0.9620 0.9610
763.439025 0.9590 0.9580 0.9560 0.9560 0.9560
768.126540 0.9560 0.9560 0.9580 0.9560 0.9560
772.814056 0.9560 0.9550 0.9550 0.9490 0.9460
777.501571 0.9450 0.9430 0.9420 0.9400 0.9370
782.189087 0.9360 0.9330 0.9320 0.9290 0.9240
786.876602 0.9200 0.9160 0.9140 0.9130 0.9100
791.564118 0.9060 0.8970 0.8900 0.8880 0.8840
796.251633 0.8800 0.8770 0.8730 0.8700 0.8680
800.939149 0.8650 0.8600 0.8550 0.8470 0.8450
805.626664 0.8440 0.8420 0.8360 0.8161 0.7991
810.314180 0.7970 0.7860 0.7800 0.7770 0.7760
815.001695 0.7640 0.7530 0.7530 0.7560 0.7699
819.689211 0.7079 0.6420 0.5770 0.5440 0.5100
824.376726 0.5899 0.6678 0.8215 0.8220 0.7971
829.064242 0.7480 0.7280 0.7090 0.6820 0.5621
833.751757 0.5490 0.5350 0.5001 0.4402 0.3982
838.439273 0.3040 0.2980 0.2980 0.3050 0.3110
843.126788 0.3230 0.3240 0.3210 0.3180 0.3080
847.814304 0.3030 0.2850 0.2740 0.2590 0.2450
852.501820 0.2300 0.2170 0.2090 0.2000 0.1970
857.189335 0.2000 0.2040 0.2150 0.2230 0.2320
861.876851 0.2390 0.2480 0.2590 0.2680 0.2680
866.564366 0.2590 0.2320 0.2100 0.1520 0.0931
871.251882 0.0900 0.1219 0.1519 0.1829 0.2119
875.939397 0.2421 0.2774 0.6810 0.5221 0.3631
880.626913 0.2652 0.1682 0.1680 0.1989 0.2299
885.314428 0.2590 0.2910 0.3010 0.3080 0.3130
890.001944 0.3130 0.3140 0.3160 0.3170 0.3180
894.689459 0.3180 0.3200 0.3210 0.3230 0.3290
899.376975 0.3300 0.3400 0.3560 0.3700 0.3820
904.064490 0.3910 0.3990 0.4080 0.4150 0.4270
908.752006 0.4380 0.4550 0.4670 0.4839 0.5049
913.439521 0.5560 0.5650 0.5880 0.6040 0.6100
918.127037 0.6340 0.6590 0.6700 0.6979 0.7219
922.814552 0.7460 0.7660 0.7830 0.7990 0.8150
927.502068 0.8280 0.8380 0.8520 0.8610 0.8700
932.189583 0.8830 0.8980 0.9160 0.9190 0.9290
936.877099 0.9330 0.9360 0.9420 0.9460 0.9500
941.564615 0.9530 0.9560 0.9590 0.9630 0.9660
946.252130 0.9680 0.9710 0.9720 0.9750 0.9750
950.939646 0.9760 0.9780 0.9790 0.9790 0.9790
955.627161 0.9810 0.9810 0.9810 0.9820 0.9820
960.314677 0.9820 0.9820 0.9820 0.9840 0.9840
965.002192 0.9850 0.9870 0.9870 0.9870 0.9870
969.689708 0.9850 0.9840 0.9820 0.9810 0.9810
974.377223 0.9790 0.9810 0.9820 0.9820 0.9840
979.064739 0.9850 0.9850 0.9870 0.9870 0.9870
983.752254 0.9870 0.9850 0.9850 0.9850 0.9850
988.439770 0.9850 0.9850 0.9850 0.9840 0.9840
993.127285 0.9840 0.9840 0.9820 0.9820 0.9820
997.814801 0.9820 0.9820 0.9820 0.9820 0.9810
1002.502316 0.9810 0.9820 0.9820 0.9820 0.9820
1007.189832 0.9840 0.9840 0.9840 0.9840 0.9850
1011.877347 0.9850 0.9870 0.9870 0.9870 0.9870
1016.564863 0.9880 0.9880 0.9920 0.9940 0.9950
1021.252378 1.0050 1.0100 1.0110 1.0110 1.0110
1025.939894 1.0110 1.0110 1.0100 1.0100 1.0100
1030.627409 1.0100 1.0100 1.0080 1.0070 1.0070
1035.314925 1.0050 1.0050 1.0050 1.0050 1.0050
1040.002441 1.0040 1.0040 1.0040 1.0020 1.0020
1044.689956 1.0020 1.0020 1.0010 1.0010 1.0010
1049.377472 1.0010 1.0010 1.0010 1.0010 1.0020
1054.064987 1.0020 1.0020 1.0020 1.0020 1.0000
1058.752503 1.0000 1.0000 0.9980 0.9970 0.9970
1063.440018 0.9970 0.9970 0.9970 0.9950 0.9950
1068.127534 0.9970 0.9970 0.9950 0.9950 0.9940
1072.815049 0.9940 0.9920 0.9920 0.9890 0.9890
1077.502565 0.9890 0.9890 0.9890 0.9880 0.9880
1082.190080 0.9880 0.9880 0.9870 0.9870 0.9870
1086.877596 0.9850 0.9850 0.9850 0.9850 0.9840
1091.565111 0.9840 0.9840 0.9820 0.9820 0.9820
1096.252627 0.9810 0.9810 0.9790 0.9790 0.9790
1100.940142 0.9790 0.9780 0.9780 0.9760 0.9750
1105.627658 0.9750 0.9740 0.9720 0.9720 0.9710
1110.315173 0.9680 0.9680 0.9660 0.9660 0.9580
1115.002689 0.9550 0.9520 0.9520 0.9520 0.9520
1119.690204 0.9530 0.9550 0.9550 0.9550 0.9530
1124.377720 0.9530 0.9490 0.9460 0.9430 0.9390
1129.065235 0.9370 0.9360 0.9360 0.9360 0.9350
1133.752751 0.9140 0.9110 0.9130 0.9140 0.9220
1138.440267 0.9270 0.9350 0.9400 0.9420 0.9460
1143.127782 0.8940 0.8670 0.8381 0.8380 0.8569
1147.815298 0.8751 0.8960 0.9141 0.9689 0.8880
1152.502813 0.8860 0.8880 0.8980 0.9100 0.9220
1157.190329 0.9330 0.9400 0.9490 0.9580 0.9610
1161.877844 0.9590 0.9580 0.9460 0.9370 0.9330
1166.565360 0.9270 0.9240 0.9240 0.9240 0.9240
1171.252875 0.9260 0.9290 0.9330 0.9360 0.9370
1175.940391 0.9390 0.9400 0.9420 0.9420 0.9420
1180.627906 0.9430 0.9430 0.9460 0.9490 0.9530
1185.315422 0.9560 0.9580 0.9610 0.9610 0.9630
1190.002937 0.9650 0.9650 0.9660 0.9680 0.9690
1194.690453 0.9680 0.9690 0.9710 0.9720 0.9740
1199.377968 0.9740 0.9750 0.9760 0.9760 0.9760
1204.065484 0.9760 0.9760 0.9760 0.9760 0.9760
1208.752999 0.9780 0.9780 0.9780 0.9780 0.9780
1213.440515 0.9760 0.9750 0.9740 0.9720 0.9710
1218.128030 0.9690 0.9660 0.9660 0.9650 0.9630
1222.815546 0.9620 0.9560 0.9520 0.9480 0.9430
1227.503061 0.9390 0.9330 0.9240 0.9190 0.9160
1232.190577 0.9090 0.9000 0.8930 0.8880 0.8800
1236.878093 0.8730 0.8700 0.8520 0.8390 0.8320
1241.565608 0.8250 0.8160 0.8090 0.8030 0.7920
1246.253124 0.7790 0.7740 0.7660 0.7630 0.7600
1250.940639 0.7540 0.7530 0.7530 0.7530 0.7540
1255.628155 0.7560 0.7570 0.7570 0.7570 0.7560
1260.315670 0.7560 0.7510 0.7480 0.7380 0.7240
1265.003186 0.7090 0.6910 0.6820 0.6690 0.6560
1269.690701 0.6560 0.6591 0.7081 0.7571 0.8060
1274.378217 0.8960 0.7431 0.6491 0.6460 0.6490
1279.065732 0.6650 0.6820 0.6990 0.7150 0.7340
1283.753248 0.7460 0.7460 0.7440 0.7410 0.7380
1288.440763 0.7370 0.7350 0.7340 0.7340 0.7350
1293.128279 0.7400 0.7440 0.7460 0.7470 0.7510
1297.815794 0.7570 0.7600 0.7700 0.7820 0.7930
1302.503310 0.8030 0.8130 0.8230 0.8340 0.8420
1307.190825 0.8510 0.8550 0.8650 0.8730 0.8830
1311.878341 0.8870 0.9000 0.9110 0.9160 0.9190
1316.565856 0.9200 0.9240 0.9330 0.9350 0.9390
1321.253372 0.9420 0.9460 0.9490 0.9520 0.9550
1325.940887 0.9550 0.9590 0.9610 0.9620 0.9630
1330.628403 0.9630 0.9650 0.9650 0.9650 0.9650
1335.315919 0.9650 0.9660 0.9660 0.9680 0.9680
1340.003434 0.9690 0.9690 0.9690 0.9590 0.9710
1344.690950 0.9720 0.9720 0.9740 0.9740 0.9750
1349.378465 0.9760 0.9790 0.9790 0.9810 0.9870
1354.065981 0.9910 0.9920 0.9920 0.9920 0.9920
1358.753496 0.9920 0.9920 0.9920 0.9910 0.9910
1363.441012 0.9910 0.9890 0.9880 0.9840 0.9810
1368.128527 0.9790 0.9790 0.9780 0.9780 0.9760
1372.816043 0.9760 0.9750 0.9750 0.9740 0.9740
1377.503558 0.9720 0.9720 0.9690 0.9690 0.9690
1382.191074 0.9690 0.9680 0.9660 0.9660 0.9660
1386.878589 0.9660 0.9660 0.9660 0.9660 0.9660
1391.566105 0.9660 0.9660 0.9660 0.9660 0.9660
1396.253620 0.9660 0.9660 0.9660 0.9680 0.9690
1400.941136 0.9690 0.9710 0.9710 0.9710 0.9690
1405.628651 0.9680 0.9680 0.9690 0.9690 0.9690
1410.316167 0.9690 0.9690 0.9690 0.9690 0.9690
1415.003682 0.9690 0.9680 0.9680 0.9680 0.9660
1419.691198 0.9590 0.9560 0.9560 0.9580 0.9620
1424.378713 0.9630 0.9630 0.9630 0.9620 0.9620
1429.066229 0.9620 0.9610 0.9610 0.9590 0.9590
1433.753745 0.9580 0.9580 0.9580 0.9580 0.9580
1438.441260 0.9550 0.9520 0.9520 0.9530 0.9530
1443.128776 0.9530 0.9520 0.9500 0.9500 0.9520
1447.816291 0.9520 0.9520 0.9500 0.9500 0.9500
1452.503807 0.9490 0.9480 0.9480 0.9480 0.9480
1457.191322 0.9460 0.9460 0.9460 0.9320 0.9300
1461.878838 0.9320 0.9450 0.9460 0.9480 0.9450
1466.566353 0.9420 0.9430 0.9460 0.9480 0.9490
1471.253869 0.9500 0.9500 0.9140 0.9110 0.9130
1475.941384 0.9190 0.9300 0.9320 0.9330 0.9330
1480.628900 0.9350 0.9350 0.9360 0.9360 0.9360
1485.316415 0.9360 0.9360 0.9360 0.9360 0.9360
1490.003931 0.9330 0.9330 0.9330 0.9270 0.9240
1494.691446 0.9240 0.9260 0.9270 0.9270 0.9290
1499.378962 0.9300 0.9320 0.9480 0.9370 0.9320
1504.066477 0.9300 0.9290 0.9270 0.9270 0.9230
1508.753993 0.9160 0.9130 0.9140 0.9200 0.9260
1513.441508 0.9360 0.9360 0.9360 0.9350 0.9330
1518.129024 0.9330 0.9320 0.9320 0.9350 0.9300
1522.816539 0.9240 0.9220 0.9230 0.9260 0.9290
1527.504055 0.9360 0.9330 0.9360 0.9370 0.9400
1532.191571 0.9420 0.9450 0.9400 0.9370 0.9370
1536.879086 0.9400 0.9430 0.9480 0.9500 0.9420
1541.566602 0.9360 0.9300 0.9300 0.9350 0.9420
1546.254117 0.9430 0.9460 0.9480 0.9500 0.9500
1550.941633 0.9520 0.9520 0.9520 0.9500 0.9480
1555.629148 0.9450 0.9420 0.9390 0.9390 0.9330
1560.316664 0.9270 0.9240 0.9240 0.9260 0.9350
1565.004179 0.9430 0.9480 0.9490 0.9530 0.9530
1569.691695 0.9460 0.9430 0.9450 0.9500 0.9560
1574.379210 0.9560 0.9560 0.9560 0.9390 0.9360
1579.066726 0.9370 0.9430 0.9500 0.9520 0.9530
1583.754241 0.9530 0.9520 0.9520 0.9520 0.9520
1588.441757 0.9490 0.9490 0.9490 0.9480 0.9480
1593.129272 0.9460 0.9450 0.9450 0.9430 0.9420
1597.816788 0.9420 0.9420 0.9430 0.9430 0.9400
1602.504303 0.9390 0.9370 0.9360 0.9360 0.9360
1607.191819 0.9350 0.9350 0.9350 0.9350 0.9350
1611.879334 0.9350 0.9330 0.9330 0.9290 0.9300
1616.566850 0.9270 0.9240 0.9200 0.9170 0.9220
1621.254365 0.9260 0.9300 0.9270 0.9230 0.9200
1625.941881 0.9190 0.9190 0.9160 0.9170 0.9220
1630.629397 0.9260 0.9300 0.9320 0.9300 0.9300
1635.316912 0.9160 0.9090 0.9030 0.8980 0.8940
1640.004428 0.9010 0.9090 0.9140 0.9260 0.8571
1644.691943 0.8540 0.8541 0.8711 0.8900 0.9000
1649.379459 0.8970 0.8910 0.8880 0.9130 0.8880
1654.066974 0.8901 0.9070 0.9100 0.9110 0.9170
1658.754490 0.9290 0.9320 0.9330 0.9330 0.9330
1663.442005 0.9320 0.9290 0.9300 0.9450 0.9430
1668.129521 0.9450 0.9400 0.9360 0.9330 0.9350
1672.817036 0.9530 0.9520 0.9430 0.9400 0.9420
1677.504552 0.9430 0.9520 0.9530 0.9580 0.9590
1682.192067 0.9580 0.9520 0.9420 0.9390 0.9370
1686.879583 0.9390 0.9480 0.9590 0.9590 0.9610
1691.567098 0.9610 0.9610 0.9620 0.9690 0.9690
1696.254614 0.9480 0.9430 0.9480 0.9620 0.9620
1700.942129 0.9530 0.9430 0.9530 0.9550 0.9580
1705.629645 0.9590 0.9610 0.9610 0.9620 0.9630
1710.317160 0.9630 0.9650 0.9650 0.9620 0.9620
1715.004676 0.9610 0.9580 0.9560 0.9520 0.9500
1719.692192 0.9490 0.9500 0.9550 0.9620 0.9630
1724.379707 0.9650 0.9650 0.9660 0.9680 0.9680
1729.067223 0.9680 0.9680 0.9680 0.9680 0.9660
1733.754738 0.9490 0.9460 0.9480 0.9520 0.9550
1738.442254 0.9580 0.9590 0.9610 0.9620 0.9620
1743.129769 0.9610 0.9590 0.9580 0.9560 0.9560
1747.817285 0.9560 0.9560 0.9580 0.9580 0.9590
1752.504800 0.9590 0.9590 0.9590 0.9590 0.9590
1757.192316 0.9590 0.9590 0.9590 0.9590 0.9590
1761.879831 0.9590 0.9580 0.9590 0.9590 0.9610
1766.567347 0.9610 0.9610 0.9610 0.9610 0.9610
1771.254862 0.9580 0.9560 0.9530 0.9550 0.9560
1775.942378 0.9580 0.9580 0.9590 0.9610 0.9610
1780.629893 0.9610 0.9610 0.9610 0.9610 0.9610
1785.317409 0.9620 0.9620 0.9620 0.9620 0.9620
1790.004924 0.9620 0.9610 0.9580 0.9590 0.9590
1794.692440 0.9610 0.9610 0.9620 0.9620 0.9620
1799.379955 0.9620 0.9620 0.9620 0.9630 0.9650
1804.067471 0.9660 0.9660 0.9650 0.9630 0.9620
1808.754986 0.9610 0.9580 0.9590 0.9610 0.9620
1813.442502 0.9630 0.9630 0.9630 0.9630 0.9630
1818.130018 0.9630 0.9620 0.9620 0.9620 0.9620
1822.817533 0.9620 0.9610 0.9580 0.9580 0.9580
1827.505049 0.9580 0.9580 0.9580 0.9580 0.9580
1832.192564 0.9590 0.9590 0.9590 0.9590 0.9590
1836.880080 0.9590 0.9590 0.9590 0.9590 0.9590
1841.567595 0.9590 0.9590 0.9590 0.9590 0.9590
1846.255111 0.9590 0.9590 0.9590 0.9590 0.9590
1850.942626 0.9590 0.9590 0.9590 0.9590 0.9590
1855.630142 0.9590 0.9590 0.9590 0.9590 0.9590
1860.317657 0.9590 0.9590 0.9590 0.9590 0.9590
1865.005173 0.9590 0.9590 0.9610 0.9610 0.9610
1869.692688 0.9610 0.9610 0.9610 0.9610 0.9610
1874.380204 0.9610 0.9610 0.9610 0.9610 0.9610
1879.067719 0.9610 0.9610 0.9610 0.9610 0.9610
1883.755235 0.9610 0.9610 0.9610 0.9610 0.9610
1888.442750 0.9610 0.9610 0.9610 0.9610 0.9610
1893.130266 0.9610 0.9610 0.9610 0.9610 0.9610
1897.817781 0.9610 0.9610 0.9610 0.9610 0.9610
1902.505297 0.9610 0.9610 0.9610 0.9610 0.9610
1907.192812 0.9610 0.9610 0.9590 0.9590 0.9590
1911.880328 0.9590 0.9590 0.9590 0.9590 0.9590
1916.567844 0.9590 0.9590 0.9590 0.9590 0.9590
1921.255359 0.9580 0.9580 0.9580 0.9580 0.9580
1925.942875 0.9580 0.9580 0.9560 0.9560 0.9560
1930.630390 0.9500 0.9430 0.9360 0.9350 0.9360
1935.317906 0.9430 0.9490 0.9550 0.9560 0.9560
1940.005421 0.9560 0.9560 0.9560 0.9580 0.9580
1944.692937 0.9580 0.9580 0.9580 0.9560 0.9560
1949.380452 0.9560 0.9560 0.9560 0.9560 0.9560
1954.067968 0.9560 0.9530 0.9530 0.9530 0.9530
1958.755483 0.9550 0.9550 0.9550 0.9550 0.9560
1963.442999 0.9560 0.9560 0.9560 0.9560 0.9550
1968.130514 0.9550 0.9550 0.9550 0.9550 0.9550
1972.818030 0.9550 0.9520 0.9520 0.9520 0.9530
1977.505545 0.9530 0.9550 0.9550 0.9550 0.9550
1982.193061 0.9550 0.9550 0.9550 0.9530 0.9530
1986.880576 0.9530 0.9520 0.9520 0.9520 0.9500
1991.568092 0.9490 0.9490 0.9490 0.9490 0.9480
1996.255607 0.9480 0.9480 0.9480 0.9460 0.9460
2000.943123 0.9455 0.9450 0.9450 0.9450 0.9450
2005.630638 0.9450 0.9450 0.9450 0.9440 0.9430
2010.318154 0.9430 0.9430 0.9430 0.9430 0.9440
2015.005670 0.9450 0.9455 0.9460 0.9460 0.9460
2019.693185 0.9470 0.9480 0.9485 0.9490 0.9495
2024.380701 0.9500 0.9524 0.9549 0.9569 0.9589
2029.068216 0.9605 0.9619 0.9606 0.9591 0.9571
2033.755732 0.9551 0.9540 0.9530 0.9525 0.9520
2038.443247 0.9520 0.9520 0.9520 0.9520 0.9520
2043.130763 0.9520 0.9525 0.9530 0.9530 0.9530
2047.818278 0.9539 0.9549 0.9550 0.9550 0.9555
2052.505794 0.9560 0.9560 0.9560 0.9569 0.9580
2057.193309 0.9580 0.9580 0.9585 0.9590 0.9590
2061.880825 0.9590 0.9590 0.9590 0.9599 0.9609
2066.568340 0.9610 0.9610 0.9615 0.9620 0.9620
2071.255856 0.9620 0.9620 0.9620 0.9620 0.9620
2075.943371 0.9620 0.9620 0.9620 0.9620 0.9620
2080.630887 0.9620 0.9615 0.9610 0.9610 0.9610
2085.318402 0.9601 0.9591 0.9585 0.9580 0.9585
2090.005918 0.9590 0.9599 0.9609 0.9615 0.9620
2094.693433 0.9620 0.9620 0.9625 0.9630 0.9639
2099.380949 0.9649 0.9655 0.9660 0.9638 0.9613
2104.068464 0.9597 0.9582 0.9567 0.9552 0.9554
2108.755980 0.9559 0.9560 0.9560 0.9569 0.9579
2113.443496 0.9580 0.9580 0.9584 0.9589 0.9590
2118.131011 0.9590 0.9599 0.9609 0.9610 0.9610
2122.818527 0.9610 0.9610 0.9610 0.9610 0.9614
2127.506042 0.9619 0.9620 0.9620 0.9624 0.9629
2132.193558 0.9630 0.9630 0.9639 0.9649 0.9650
2136.881073 0.9650 0.9650 0.9650 0.9650 0.9650
2141.568589 0.9650 0.9650 0.9650 0.9650 0.9650
2146.256104 0.9650 0.9642 0.9632 0.9630 0.9630
2150.943620 0.9630 0.9630 0.9630 0.9630 0.9626
2155.631135 0.9621 0.9620 0.9620 0.9620 0.9620
2160.318651 0.9620 0.9620 0.9620 0.9620 0.9620
2165.006166 0.9620 0.9624 0.9629 0.9630 0.9630
2169.693682 0.9630 0.9630 0.9630 0.9630 0.9630
2174.381197 0.9630 0.9638 0.9648 0.9650 0.9650
2179.068713 0.9654 0.9659 0.9660 0.9660 0.9668
2183.756228 0.9678 0.9680 0.9680 0.9684 0.9689
2188.443744 0.9690 0.9690 0.9690 0.9690 0.9690
2193.131259 0.9690 0.9690 0.9690 0.9690 0.9690
2197.818775 0.9690 0.9690 0.9686 0.9681 0.9680
2202.506290 0.9680 0.9680 0.9680 0.9680 0.9680
2207.193806 0.9680 0.9680 0.9680 0.9680 0.9672
2211.881322 0.9662 0.9660 0.9660 0.9660 0.9660
2216.568837 0.9656 0.9651 0.9650 0.9650 0.9642
2221.256353 0.9632 0.9630 0.9630 0.9630 0.9630
2225.943868 0.9626 0.9621 0.9616 0.9611 0.9602
2230.631384 0.9592 0.9578 0.9563 0.9560 0.9560
2235.318899 0.9556 0.9551 0.9550 0.9550 0.9542
2240.006415 0.9532 0.9526 0.9521 0.9512 0.9502
2244.693930 0.9500 0.9500 0.9496 0.9491 0.9490
2249.381446 0.9490 0.9486 0.9481 0.9480 0.9480
2254.068961 0.9472 0.9462 0.9460 0.9460 0.9460
2258.756477 0.9460 0.9460 0.9460 0.9467 0.9478
2263.443992 0.9484 0.9489 0.9494 0.9499 0.9496
2268.131508 0.9491 0.9490 0.9490 0.9486 0.9481
2272.819023 0.9473 0.9463 0.9460 0.9460 0.9460
2277.506539 0.9460 0.9460 0.9460 0.9467 0.9477
2282.194054 0.9480 0.9480 0.9484 0.9489 0.9490
2286.881570 0.9490 0.9494 0.9499 0.9507 0.9517
2291.569085 0.9520 0.9520 0.9524 0.9529 0.9537
2296.256601 0.9547 0.9554 0.9559 0.9560 0.9560
2300.944116 0.9567 0.9577 0.9584 0.9589 0.9590
2305.631632 0.9590 0.9597 0.9607 0.9614 0.9619
2310.319148 0.9620 0.9620 0.9623 0.9628 0.9637
2315.006663 0.9647 0.9650 0.9650 0.9653 0.9659
2319.694179 0.9660 0.9660 0.9667 0.9677 0.9680
2324.381694 0.9680 0.9680 0.9680 0.9683 0.9688
2329.069210 0.9690 0.9690 0.9690 0.9690 0.9697
2333.756725 0.9707 0.9710 0.9710 0.9710 0.9710
2338.444241 0.9713 0.9718 0.9720 0.9720 0.9727
2343.131756 0.9737 0.9740 0.9740 0.9743 0.9748
2347.819272 0.9750 0.9750 0.9753 0.9758 0.9767
2352.506787 0.9777 0.9780 0.9780 0.9780 0.9780
2357.194303 0.9780 0.9780 0.9780 0.9780 0.9780
