##TITLE=PROPANE, 2-BROMO-
##JCAMP-DX=4.24
##DATA TYPE=INFRARED SPECTRUM
##CLASS=COBLENTZ
##ORIGIN=SOUTHERN RESEARCH INSTITUTE
##OWNER=COBLENTZ SOCIETY
Collection (C) 2018 copyright by the U.S. Secretary of Commerce
on behalf of the United States of America. All rights reserved.
##DATE=1958/05/20
##NAMES=2-bromopropane
##CAS REGISTRY NO=75-26-3
##MOLFORM=C3 H7 Br
##SOURCE REFERENCE=COBLENTZ NO. 6993
##$NIST SOURCE=COBLENTZ
##$NIST IMAGE=cob6993
##SPECTROMETER/DATA SYSTEM=PERKIN-ELMER 21 (GRATING)
##INSTRUMENT PARAMETERS=FILTER CHANGE ABOUT 1085 CM^-^1
##STATE=GAS
##PATH LENGTH=10 CM
##SAMPLING PROCEDURE=TRANSMISSION
##RESOLUTION=4
##DATA PROCESSING=DIGITIZED BY NIST FROM HARD COPY (FROM TWO SEGMENTS)
##XUNITS=1/CM
##YUNITS=TRANSMITTANCE
##XFACTOR=1.000000
##YFACTOR=1
##DELTAX=1.171875
##FIRSTX=602.349
##LASTX=3798.05
##FIRSTY=0.807
##MAXX=3798.05
##MINX=602.349
##MAXY=0.891603
##MINY=0.004
##NPOINTS=2728
##XYDATA=(X++(Y..Y))
602.349000 0.8070 0.8060 0.8060 0.8060 0.8040
608.208375 0.8040 0.8040 0.8040 0.8040 0.8040
614.067750 0.8030 0.8030 0.8030 0.8040 0.8040
619.927125 0.8059 0.8060 0.8070 0.8089 0.8090
625.786500 0.8090 0.8100 0.8109 0.8110 0.8110
631.645875 0.8129 0.8167 0.8207 0.8219 0.8229
637.505250 0.8267 0.8279 0.8289 0.8290 0.8281
643.364625 0.8280 0.8280 0.8289 0.8290 0.8281
649.224000 0.8271 0.8270 0.8270 0.8252 0.8232
655.083375 0.8221 0.8211 0.8219 0.8211 0.8201
660.942750 0.8182 0.8198 0.8218 0.8238 0.8275
666.802125 0.8297 0.8300 0.8309 0.8310 0.8310
672.661500 0.8310 0.8336 0.8383 0.8527 0.8567
678.520875 0.8579 0.8622 0.8638 0.8648 0.8667
684.380250 0.8670 0.8687 0.8690 0.8707 0.8718
690.239625 0.8720 0.8728 0.8730 0.8746 0.8758
696.099000 0.8760 0.8760 0.8768 0.8770 0.8778
701.958375 0.8788 0.8798 0.8800 0.8792 0.8790
707.817750 0.8782 0.8772 0.8762 0.8752 0.8734
713.677125 0.8722 0.8712 0.8710 0.8702 0.8692
719.536500 0.8690 0.8690 0.8690 0.8690 0.8690
725.395875 0.8690 0.8690 0.8690 0.8690 0.8697
731.255250 0.8700 0.8700 0.8715 0.8727 0.8752
737.114625 0.8775 0.8795 0.8822 0.8845 0.8857
742.974000 0.8860 0.8860 0.8860 0.8867 0.8884
748.833375 0.8890 0.8890 0.8890 0.8890 0.8890
754.692750 0.8890 0.8876 0.8863 0.8853 0.8843
760.552125 0.8833 0.8830 0.8823 0.8806 0.8793
766.411500 0.8776 0.8756 0.8716 0.8673 0.8647
772.270875 0.8633 0.8637 0.8640 0.8647 0.8657
778.130250 0.8667 0.8683 0.8697 0.8707 0.8710
783.989625 0.8703 0.8694 0.8703 0.8716 0.8726
789.849000 0.8756 0.8776 0.8786 0.8790 0.8796
795.708375 0.8813 0.8826 0.8842 0.8856 0.8878
801.567750 0.8890 0.8896 0.8906 0.8910 0.8910
807.427125 0.8910 0.8916 0.8914 0.8910 0.8904
813.286500 0.8894 0.8878 0.8870 0.8864 0.8860
819.145875 0.8854 0.8850 0.8850 0.8850 0.8850
825.005250 0.8850 0.8850 0.8844 0.8829 0.8809
830.864625 0.8794 0.8790 0.8784 0.8774 0.8765
836.724000 0.8743 0.8730 0.8741 0.8750 0.8755
842.583375 0.8765 0.8770 0.8765 0.8755 0.8729
848.442750 0.8684 0.8644 0.8609 0.8580 0.8565
854.302125 0.8545 0.8504 0.8454 0.8323 0.8109
860.161500 0.7899 0.7704 0.7524 0.7360 0.7220
866.020875 0.7081 0.6720 0.6147 0.5709 0.5415
871.880250 0.4985 0.4409 0.3682 0.3067 0.2758
877.739625 0.2458 0.2150 0.1924 0.1814 0.1709
883.599000 0.1604 0.1425 0.1271 0.1269 0.1511
889.458375 0.2249 0.2712 0.2537 0.2413 0.2283
895.317750 0.2162 0.2043 0.1913 0.1840 0.2386
901.177125 0.3644 0.4856 0.5884 0.6759 0.7528
907.036500 0.7871 0.7925 0.7964 0.7978 0.7978
912.895875 0.7948 0.7918 0.7892 0.7852 0.7783
918.755250 0.7701 0.7601 0.7532 0.7473 0.7377
924.614625 0.7325 0.7277 0.7217 0.7173 0.7160
930.474000 0.7164 0.7181 0.7204 0.7210 0.7195
936.333375 0.7159 0.7126 0.7086 0.7046 0.7013
942.192750 0.7007 0.7048 0.7124 0.7198 0.7274
948.052125 0.7347 0.7417 0.7493 0.7610 0.7719
953.911500 0.7859 0.7966 0.8039 0.8096 0.8143
959.770875 0.8189 0.8252 0.8315 0.8359 0.8392
965.630250 0.8429 0.8462 0.8496 0.8522 0.8559
971.489625 0.8586 0.8609 0.8639 0.8669 0.8696
977.349000 0.8716 0.8739 0.8766 0.8783 0.8793
983.208375 0.8800 0.8797 0.8790 0.8790 0.8787
989.067750 0.8780 0.8777 0.8770 0.8767 0.8760
994.927125 0.8760 0.8762 0.8772 0.8780 0.8782
1000.786500 0.8790 0.8790 0.8790 0.8788 0.8778
1006.645875 0.8768 0.8758 0.8743 0.8718 0.8706
1012.505250 0.8686 0.8666 0.8646 0.8628 0.8599
1018.364625 0.8489 0.8328 0.8109 0.7840 0.7523
1024.224000 0.7164 0.6759 0.6332 0.5915 0.5674
1030.083375 0.5379 0.4879 0.4365 0.3827 0.3287
1035.942750 0.2741 0.2207 0.1669 0.1217 0.1198
1041.802125 0.1192 0.1202 0.1216 0.1255 0.1280
1047.661500 0.1277 0.1256 0.1229 0.1217 0.1196
1053.520875 0.1170 0.1186 0.1306 0.1429 0.1577
1059.380250 0.1705 0.1930 0.3385 0.4597 0.6020
1065.239625 0.6514 0.6886 0.7204 0.7519 0.7873
1071.099000 0.8077 0.8146 0.8207 0.8272 0.8292
1076.958375 0.8316 0.8385 0.8445 0.8502 0.8534
1082.817750 0.8587 0.8673 0.8710 0.8710 0.8709
1088.677125 0.8687 0.8637 0.8587 0.8547 0.8499
1094.536500 0.8478 0.8449 0.8439 0.8429 0.8409
1100.395875 0.8389 0.8370 0.8357 0.8288 0.8229
1106.255250 0.8193 0.7985 0.7866 0.7757 0.7657
1112.114625 0.7568 0.7479 0.7419 0.7378 0.7228
1117.974000 0.7098 0.6914 0.6500 0.6469 0.6357
1123.833375 0.5940 0.5880 0.5870 0.5840 0.5682
1129.692750 0.5502 0.5421 0.5321 0.5192 0.5151
1135.552125 0.5052 0.4072 0.3601 0.2977 0.2475
1141.411500 0.2209 0.1986 0.1680 0.1342 0.1003
1147.270875 0.0875 0.0746 0.0607 0.0401 0.0295
1153.130250 0.0130 0.0111 0.0101 0.0091 0.0090
1158.989625 0.0081 0.0080 0.0080 0.0080 0.0080
1164.849000 0.0089 0.0099 0.0100 0.0109 0.0119
1170.708375 0.0166 0.0188 0.0244 0.0277 0.0325
1176.567750 0.1049 0.1284 0.1399 0.1733 0.2083
1182.427125 0.2441 0.2791 0.3158 0.3518 0.3877
1188.286500 0.4236 0.4615 0.4976 0.5642 0.5896
1194.145875 0.6111 0.6235 0.6552 0.6609 0.6610
1200.005250 0.6610 0.6610 0.6576 0.6510 0.6364
1205.864625 0.6221 0.6099 0.5920 0.5345 0.4680
1211.724000 0.4312 0.3934 0.3436 0.2369 0.1507
1217.583375 0.1172 0.0916 0.0600 0.0352 0.0115
1223.442750 0.0054 0.0050 0.0042 0.0040 0.0040
1229.302125 0.0048 0.0050 0.0050 0.0050 0.0066
1235.161500 0.0070 0.0070 0.0070 0.0070 0.0078
1241.020875 0.0080 0.0080 0.0088 0.0090 0.0098
1246.880250 0.0154 0.0339 0.1173 0.2006 0.2670
1252.739625 0.3222 0.3690 0.4131 0.4570 0.5471
1258.599000 0.6260 0.7082 0.7509 0.7736 0.7901
1264.458375 0.8014 0.8113 0.8191 0.8261 0.8287
1270.317750 0.8290 0.8254 0.8233 0.8208 0.8157
1276.177125 0.8083 0.7989 0.7903 0.7838 0.7792
1282.036500 0.7738 0.7692 0.7673 0.7656 0.7643
1287.895875 0.7619 0.7603 0.7593 0.7590 0.7590
1293.755250 0.7597 0.7607 0.7644 0.7680 0.7703
1299.614625 0.7757 0.7813 0.7863 0.7893 0.7913
1305.474000 0.7927 0.7923 0.7900 0.7877 0.7857
1311.333375 0.7837 0.7772 0.7682 0.7631 0.7607
1317.192750 0.7587 0.7555 0.7534 0.7536 0.7546
1323.052125 0.7594 0.7645 0.7672 0.7686 0.7678
1328.911500 0.7640 0.7608 0.7606 0.7628 0.7664
1334.770875 0.7716 0.7752 0.7784 0.7818 0.7842
1340.630250 0.7850 0.7850 0.7838 0.7824 0.7814
1346.489625 0.7775 0.7738 0.7655 0.7543 0.7409
1352.349000 0.7244 0.7136 0.6997 0.6859 0.6714
1358.208375 0.6407 0.5953 0.5587 0.5333 0.4991
1364.067750 0.4670 0.4288 0.3728 0.3115 0.2518
1369.927125 0.1993 0.1605 0.1222 0.0984 0.0934
1375.786500 0.0822 0.0829 0.1067 0.1127 0.0962
1381.645875 0.0824 0.0709 0.0615 0.0550 0.0475
1387.505250 0.0341 0.0240 0.0235 0.0265 0.0320
1393.364625 0.0375 0.0444 0.0577 0.0939 0.1373
1399.224000 0.1706 0.2038 0.2300 0.2524 0.2720
1405.083375 0.2899 0.3084 0.3291 0.3548 0.3859
1410.942750 0.4299 0.4727 0.4935 0.5005 0.5019
1416.802125 0.5257 0.5624 0.5730 0.5704 0.5627
1422.661500 0.5523 0.5344 0.5069 0.4781 0.4474
1428.520875 0.4163 0.3872 0.3602 0.3363 0.3174
1434.380250 0.3035 0.2876 0.2650 0.2435 0.2229
1440.239625 0.2034 0.1856 0.1697 0.1588 0.1547
1446.099000 0.1479 0.1399 0.1338 0.1305 0.1269
1451.958375 0.1239 0.1197 0.1149 0.1112 0.1058
1457.817750 0.1013 0.0993 0.0958 0.0884 0.0813
1463.677125 0.0796 0.0794 0.0803 0.0813 0.0827
1469.536500 0.0843 0.0850 0.0823 0.0770 0.0864
1475.395875 0.1107 0.1253 0.1356 0.1466 0.1563
1481.255250 0.1629 0.1715 0.1884 0.2078 0.2169
1487.114625 0.2296 0.2675 0.3113 0.3500 0.3839
1492.974000 0.4025 0.4336 0.4630 0.4929 0.5325
1498.833375 0.5872 0.6226 0.6604 0.7005 0.7306
1504.692750 0.7356 0.7508 0.7726 0.7971 0.8217
1510.552125 0.8405 0.8500 0.8503 0.8513 0.8523
1516.411500 0.8535 0.8555 0.8575 0.8590 0.8590
1522.270875 0.8590 0.8590 0.8592 0.8607 0.8632
1528.130250 0.8642 0.8652 0.8660 0.8662 0.8670
1533.989625 0.8674 0.8692 0.8707 0.8736 0.8764
1539.849000 0.8784 0.8804 0.8822 0.8832 0.8842
1545.708375 0.8850 0.8848 0.8840 0.8840 0.8838
1551.567750 0.8828 0.8816 0.8798 0.8786 0.8770
1557.427125 0.8768 0.8758 0.8752 0.8762 0.8770
1563.286500 0.8772 0.8780 0.8778 0.8768 0.8755
1569.145875 0.8727 0.8708 0.8699 0.8687 0.8667
1575.005250 0.8650 0.8649 0.8640 0.8640 0.8639
1580.864625 0.8626 0.8600 0.8599 0.8590 0.8590
1586.724000 0.8591 0.8599 0.8589 0.8579 0.8569
1592.583375 0.8557 0.8529 0.8519 0.8511 0.8520
1598.442750 0.8525 0.8573 0.8605 0.8650 0.8651
1604.302125 0.8660 0.8663 0.8690 0.8691 0.8700
1610.161500 0.8701 0.8709 0.8700 0.8700 0.8700
1616.020875 0.8700 0.8700 0.8700 0.8700 0.8700
1621.880250 0.8700 0.8700 0.8700 0.8701 0.8720
1627.739625 0.8730 0.8720 0.8720 0.8720 0.8710
1633.599000 0.8700 0.8700 0.8690 0.8690 0.8700
1639.458375 0.8710 0.8710 0.8700 0.8690 0.8660
1645.317750 0.8690 0.8660 0.8640 0.8620 0.8590
1651.177125 0.8580 0.8560 0.8560 0.8560 0.8560
1657.036500 0.8560 0.8550 0.8520 0.8510 0.8500
1662.895875 0.8500 0.8500 0.8500 0.8490 0.8480
1668.755250 0.8432 0.8411 0.8391 0.8380 0.8380
1674.614625 0.8370 0.8360 0.8360 0.8360 0.8351
1680.474000 0.8341 0.8340 0.8321 0.8320 0.8320
1686.333375 0.8339 0.8340 0.8349 0.8359 0.8360
1692.192750 0.8369 0.8370 0.8370 0.8361 0.8360
1698.052125 0.8351 0.8350 0.8350 0.8350 0.8323
1703.911500 0.8320 0.8311 0.8310 0.8310 0.8355
1709.770875 0.8360 0.8360 0.8351 0.8341 0.8340
1715.630250 0.8323 0.8320 0.8320 0.8320 0.8320
1721.489625 0.8337 0.8340 0.8349 0.8359 0.8360
1727.349000 0.8377 0.8388 0.8407 0.8418 0.8420
1733.208375 0.8420 0.8420 0.8420 0.8428 0.8447
1739.067750 0.8450 0.8458 0.8452 0.8433 0.8430
1744.927125 0.8471 0.8480 0.8456 0.8434 0.8422
1750.786500 0.8420 0.8420 0.8420 0.8420 0.8420
1756.645875 0.8420 0.8428 0.8454 0.8484 0.8490
1762.505250 0.8490 0.8490 0.8498 0.8508 0.8518
1768.364625 0.8551 0.8575 0.8595 0.8623 0.8638
1774.224000 0.8640 0.8655 0.8668 0.8670 0.8685
1780.083375 0.8690 0.8675 0.8648 0.8633 0.8623
1785.942750 0.8605 0.8600 0.8600 0.8600 0.8622
1791.802125 0.8630 0.8630 0.8630 0.8630 0.8637
1797.661500 0.8654 0.8660 0.8646 0.8633 0.8609
1803.520875 0.8593 0.8590 0.8590 0.8590 0.8590
1809.380250 0.8590 0.8590 0.8590 0.8590 0.8590
1815.239625 0.8590 0.8590 0.8610 0.8627 0.8630
1821.099000 0.8630 0.8623 0.8620 0.8620 0.8607
1826.958375 0.8600 0.8613 0.8627 0.8637 0.8647
1832.817750 0.8656 0.8666 0.8670 0.8670 0.8670
1838.677125 0.8670 0.8670 0.8670 0.8683 0.8696
1844.536500 0.8700 0.8700 0.8700 0.8694 0.8690
1850.395875 0.8690 0.8690 0.8678 0.8670 0.8670
1856.255250 0.8670 0.8664 0.8654 0.8644 0.8634
1862.114625 0.8606 0.8584 0.8574 0.8570 0.8564
1867.974000 0.8543 0.8524 0.8514 0.8504 0.8494
1873.833375 0.8490 0.8484 0.8469 0.8454 0.8450
1879.692750 0.8450 0.8450 0.8450 0.8450 0.8450
1885.552125 0.8456 0.8460 0.8460 0.8471 0.8485
1891.411500 0.8490 0.8490 0.8495 0.8505 0.8510
1897.270875 0.8515 0.8525 0.8551 0.8596 0.8630
1903.130250 0.8650 0.8665 0.8685 0.8700 0.8705
1908.989625 0.8710 0.8705 0.8680 0.8655 0.8645
1914.849000 0.8640 0.8640 0.8645 0.8650 0.8645
1920.708375 0.8635 0.8630 0.8630 0.8630 0.8630
1926.567750 0.8630 0.8625 0.8620 0.8611 0.8600
1932.427125 0.8595 0.8585 0.8575 0.8570 0.8575
1938.286500 0.8584 0.8594 0.8609 0.8620 0.8620
1944.145875 0.8624 0.8630 0.8634 0.8653 0.8679
1950.005250 0.8694 0.8704 0.8710 0.8710 0.8710
1955.864625 0.8714 0.8720 0.8724 0.8738 0.8750
1961.724000 0.8750 0.8742 0.8730 0.8730 0.8726
1967.583375 0.8724 0.8730 0.8730 0.8726 0.8724
1973.442750 0.8730 0.8738 0.8750 0.8754 0.8760
1979.302125 0.8756 0.8739 0.8716 0.8706 0.8696
1985.161500 0.8690 0.8683 0.8684 0.8710 0.8706
1991.020875 0.8696 0.8690 0.8683 0.8677 0.8683
1996.880250 0.8670 0.8670 0.8670 0.8667 0.8657
2002.739625 0.8643 0.8627 0.8620 0.8627 0.8643
2008.599000 0.8653 0.8660 0.8657 0.8647 0.8640
2014.458375 0.8633 0.8613 0.8600 0.8607 0.8627
2020.317750 0.8640 0.8643 0.8650 0.8650 0.8650
2026.177125 0.8650 0.8653 0.8660 0.8653 0.8637
2032.036500 0.8627 0.8613 0.8600 0.8600 0.8597
2037.895875 0.8590 0.8593 0.8597 0.8590 0.8590
2043.755250 0.8590 0.8587 0.8580 0.8580 0.8583
2049.614625 0.8590 0.8593 0.8600 0.8600 0.8593
2055.474000 0.8580 0.8587 0.8600 0.8610 0.8633
2061.333375 0.8647 0.8660 0.8663 0.8670 0.8667
2067.192750 0.8660 0.8660 0.8657 0.8647 0.8637
2073.052125 0.8630 0.8633 0.8640 0.8640 0.8650
2078.911500 0.8667 0.8653 0.8637 0.8630 0.8630
2084.770875 0.8620 0.8600 0.8607 0.8627 0.8647
2090.630250 0.8660 0.8657 0.8650 0.8653 0.8657
2096.489625 0.8650 0.8650 0.8647 0.8637 0.8627
2102.349000 0.8613 0.8597 0.8593 0.8600 0.8600
2108.208375 0.8600 0.8607 0.8620 0.8623 0.8630
2114.067750 0.8633 0.8643 0.8650 0.8657 0.8677
2119.927125 0.8690 0.8690 0.8693 0.8700 0.8703
2125.786500 0.8710 0.8710 0.8713 0.8723 0.8730
2131.645875 0.8737 0.8750 0.8743 0.8730 0.8727
2137.505250 0.8720 0.8717 0.8710 0.8707 0.8700
2143.364625 0.8700 0.8703 0.8713 0.8720 0.8723
2149.224000 0.8730 0.8730 0.8727 0.8717 0.8703
2155.083375 0.8690 0.8690 0.8683 0.8670 0.8670
2160.942750 0.8670 0.8670 0.8677 0.8690 0.8690
2166.802125 0.8683 0.8670 0.8670 0.8670 0.8670
2172.661500 0.8670 0.8670 0.8670 0.8670 0.8663
2178.520875 0.8650 0.8647 0.8633 0.8613 0.8597
2184.380250 0.8590 0.8590 0.8587 0.8580 0.8580
2190.239625 0.8580 0.8580 0.8580 0.8580 0.8577
2196.099000 0.8570 0.8570 0.8570 0.8573 0.8580
2201.958375 0.8580 0.8580 0.8580 0.8580 0.8580
2207.817750 0.8583 0.8590 0.8590 0.8587 0.8580
2213.677125 0.8580 0.8580 0.8577 0.8570 0.8567
2219.536500 0.8560 0.8550 0.8527 0.8513 0.8493
2225.395875 0.8467 0.8433 0.8410 0.8383 0.8363
2231.255250 0.8347 0.8330 0.8303 0.8283 0.8260
2237.114625 0.8230 0.8197 0.8157 0.8117 0.8087
2242.974000 0.8077 0.8057 0.7983 0.7846 0.7753
2248.833375 0.7730 0.7700 0.7673 0.7657 0.7640
2254.692750 0.7617 0.7603 0.7560 0.7473 0.7413
2260.552125 0.7400 0.7397 0.7393 0.7403 0.7427
2266.411500 0.7480 0.7537 0.7583 0.7630 0.7690
2272.270875 0.7750 0.7814 0.7887 0.7967 0.8043
2278.130250 0.8117 0.8190 0.8247 0.8290 0.8313
2283.989625 0.8330 0.8353 0.8363 0.8370 0.8373
2289.849000 0.8383 0.8387 0.8380 0.8383 0.8390
2295.708375 0.8397 0.8413 0.8423 0.8433 0.8443
2301.567750 0.8450 0.8450 0.8453 0.8460 0.8467
2307.427125 0.8480 0.8483 0.8490 0.8487 0.8483
2313.286500 0.8493 0.8503 0.8513 0.8523 0.8540
2319.145875 0.8563 0.8573 0.8577 0.8570 0.8567
2325.005250 0.8557 0.8543 0.8530 0.8550 0.8590
2330.864625 0.8590 0.8587 0.8580 0.8577 0.8567
2336.724000 0.8550 0.8523 0.8503 0.8480 0.8457
2342.583375 0.8447 0.8437 0.8423 0.8410 0.8403
2348.442750 0.8387 0.8380 0.8380 0.8383 0.8387
2354.302125 0.8377 0.8370 0.8370 0.8367 0.8360
2360.161500 0.8357 0.8350 0.8357 0.8373 0.8383
2366.020875 0.8390 0.8397 0.8403 0.8383 0.8367
2371.880250 0.8357 0.8347 0.8330 0.8307 0.8297
2377.739625 0.8290 0.8290 0.8290 0.8293 0.8303
2383.599000 0.8313 0.8320 0.8330 0.8353 0.8360
2389.458375 0.8363 0.8370 0.8370 0.8370 0.8377
2395.317750 0.8390 0.8403 0.8440 0.8467 0.8473
2401.177125 0.8457 0.8440 0.8420 0.8417 0.8410
2407.036500 0.8410 0.8410 0.8410 0.8410 0.8410
2412.895875 0.8410 0.8410 0.8410 0.8403 0.8390
2418.755250 0.8387 0.8377 0.8370 0.8370 0.8370
2424.614625 0.8370 0.8367 0.8360 0.8360 0.8357
2430.474000 0.8340 0.8317 0.8307 0.8300 0.8300
2436.333375 0.8303 0.8313 0.8327 0.8343 0.8350
2442.192750 0.8353 0.8360 0.8363 0.8370 0.8377
2448.052125 0.8390 0.8390 0.8390 0.8387 0.8380
2453.911500 0.8377 0.8370 0.8370 0.8373 0.8380
2459.770875 0.8377 0.8370 0.8367 0.8353 0.8330
2465.630250 0.8310 0.8303 0.8283 0.8257 0.8223
2471.489625 0.8207 0.8183 0.8147 0.8137 0.8123
2477.349000 0.8103 0.8083 0.8060 0.8037 0.8027
2483.208375 0.8017 0.8010 0.8007 0.8000 0.7997
2489.067750 0.7990 0.7983 0.7970 0.7967 0.7960
2494.927125 0.7957 0.7950 0.7950 0.7950 0.7950
2500.786500 0.7953 0.7960 0.7963 0.7970 0.7977
2506.645875 0.7990 0.7993 0.8000 0.8003 0.8010
2512.505250 0.8013 0.8027 0.8053 0.8090 0.8123
2518.364625 0.8160 0.8193 0.8230 0.8260 0.8280
2524.224000 0.8277 0.8270 0.8260 0.8240 0.8237
2530.083375 0.8230 0.8230 0.8230 0.8227 0.8220
2535.942750 0.8220 0.8220 0.8220 0.8220 0.8220
2541.802125 0.8220 0.8220 0.8220 0.8217 0.8210
2547.661500 0.8210 0.8210 0.8210 0.8207 0.8200
2553.520875 0.8193 0.8180 0.8177 0.8170 0.8170
2559.380250 0.8170 0.8170 0.8170 0.8170 0.8173
2565.239625 0.8187 0.8200 0.8203 0.8210 0.8210
2571.099000 0.8210 0.8210 0.8210 0.8213 0.8220
2576.958375 0.8223 0.8233 0.8240 0.8240 0.8237
2582.817750 0.8227 0.8220 0.8217 0.8197 0.8163
2588.677125 0.8147 0.8137 0.8130 0.8123 0.8110
2594.536500 0.8110 0.8110 0.8110 0.8110 0.8110
2600.395875 0.8110 0.8107 0.8097 0.8090 0.8087
2606.255250 0.8073 0.8050 0.8023 0.8007 0.7997
2612.114625 0.7983 0.7963 0.7947 0.7937 0.7927
2617.974000 0.7920 0.7910 0.7883 0.7867 0.7850
2623.833375 0.7830 0.7827 0.7817 0.7810 0.7810
2629.692750 0.7810 0.7813 0.7820 0.7823 0.7837
2635.552125 0.7867 0.7913 0.7957 0.7997 0.8020
2641.411500 0.8050 0.8077 0.8093 0.8110 0.8133
2647.270875 0.8140 0.8140 0.8143 0.8153 0.8160
2653.130250 0.8163 0.8170 0.8170 0.8173 0.8180
2658.989625 0.8180 0.8180 0.8187 0.8200 0.8193
2664.849000 0.8173 0.8153 0.8137 0.8130 0.8123
2670.708375 0.8110 0.8107 0.8100 0.8097 0.8090
2676.567750 0.8090 0.8090 0.8090 0.8090 0.8090
2682.427125 0.8090 0.8090 0.8087 0.8080 0.8080
2688.286500 0.8080 0.8077 0.8070 0.8070 0.8070
2694.145875 0.8070 0.8060 0.8040 0.8037 0.8023
2700.005250 0.8007 0.8000 0.7997 0.7976 0.7933
2705.864625 0.7887 0.7840 0.7783 0.7740 0.7707
2711.724000 0.7677 0.7647 0.7570 0.7476 0.7380
2717.583375 0.7290 0.7196 0.7100 0.7013 0.6933
2723.442750 0.6857 0.6790 0.6733 0.6683 0.6647
2729.302125 0.6640 0.6640 0.6640 0.6643 0.6650
2735.161500 0.6660 0.6687 0.6703 0.6713 0.6727
2741.020875 0.6743 0.6753 0.6767 0.6813 0.6913
2746.880250 0.7010 0.7103 0.7197 0.7274 0.7337
2752.739625 0.7373 0.7393 0.7437 0.7483 0.7513
2758.599000 0.7523 0.7533 0.7543 0.7557 0.7570
2764.458375 0.7573 0.7590 0.7613 0.7630 0.7653
2770.317750 0.7667 0.7680 0.7683 0.7697 0.7710
2776.177125 0.7710 0.7710 0.7700 0.7660 0.7610
2782.036500 0.7550 0.7437 0.7360 0.7326 0.7293
2787.895875 0.7263 0.7206 0.7147 0.7120 0.7113
2793.755250 0.7083 0.7010 0.6913 0.6863 0.6813
2799.614625 0.6770 0.6737 0.6703 0.6683 0.6663
2805.474000 0.6643 0.6627 0.6617 0.6607 0.6593
2811.333375 0.6573 0.6557 0.6537 0.6507 0.6490
2817.192750 0.6460 0.6427 0.6373 0.6310 0.6283
2823.052125 0.6230 0.6086 0.5883 0.5687 0.5557
2828.911500 0.5377 0.5107 0.4857 0.4626 0.4463
2834.770875 0.4373 0.4149 0.3653 0.3356 0.3177
2840.630250 0.3000 0.2734 0.2437 0.2279 0.2056
2846.489625 0.1799 0.1543 0.1336 0.1210 0.1153
2852.349000 0.1100 0.1050 0.1017 0.0990 0.0987
2858.208375 0.0963 0.0913 0.0873 0.0857 0.0847
2864.067750 0.0833 0.0820 0.0820 0.0830 0.0853
2869.927125 0.0860 0.0860 0.0860 0.0860 0.0860
2875.786500 0.0857 0.0840 0.0817 0.0810 0.0807
2881.645875 0.0797 0.0787 0.0777 0.0770 0.0763
2887.505250 0.0747 0.0740 0.0737 0.0727 0.0713
2893.364625 0.0666 0.0546 0.0423 0.0377 0.0330
2899.224000 0.0280 0.0257 0.0247 0.0240 0.0240
2905.083375 0.0237 0.0230 0.0230 0.0230 0.0230
2910.942750 0.0227 0.0220 0.0223 0.0233 0.0240
2916.802125 0.0243 0.0250 0.0253 0.0267 0.0283
2922.661500 0.0293 0.0307 0.0320 0.0337 0.0377
2928.520875 0.0410 0.0453 0.0460 0.0463 0.0477
2934.380250 0.0493 0.0503 0.0517 0.0540 0.0560
2940.239625 0.0563 0.0570 0.0567 0.0553 0.0537
2946.099000 0.0523 0.0497 0.0460 0.0416 0.0357
2951.958375 0.0317 0.0273 0.0223 0.0183 0.0167
2957.817750 0.0160 0.0167 0.0183 0.0207 0.0243
2963.677125 0.0250 0.0253 0.0260 0.0257 0.0247
2969.536500 0.0237 0.0230 0.0230 0.0230 0.0233
2975.395875 0.0240 0.0247 0.0267 0.0283 0.0293
2981.255250 0.0303 0.0317 0.0343 0.0380 0.0413
