##TITLE=2-Methyl-2-propanethiol
##JCAMP-DX=4.24
##DATA TYPE=INFRARED SPECTRUM
##ORIGIN=NIST Mass Spectrometry Data Center
##OWNER=NIST Standard Reference Data Program
Collection (C) 2018 copyright by the U.S. Secretary of Commerce
on behalf of the United States of America. All rights reserved.
##CAS REGISTRY NO=75-66-1
##MOLFORM=C 4 H 10 S
##$NIST SOURCE=MSDC-IR
##SPECTROMETER/DATA SYSTEM=HP-GC/MS/IRD
##STATE=gas
##XUNITS=1/CM
##YUNITS=ABSORBANCE
##XFACTOR=1.0
##YFACTOR=0.000006800
##DELTAX=4.0
##FIRSTX=550.0
##LASTX=3846.0
##FIRSTY=0.000585
##MAXX=3846
##MINX=550
##MAXY=0.068
##MINY=0
##NPOINTS=825
##XYDATA=(X++(Y..Y))
550.0 86 113 125 158 193 227 266 311 351 361
590.0 368 367 328 280 231 169 111 81 56 41
630.0 27 27 43 32 22 25 10 12 17 5
670.0 1 0 0 16 25 13 20 19 10 19
710.0 18 8 13 13 3 13 22 12 11 17
750.0 17 19 23 17 17 31 25 25 40 48
790.0 61 85 102 123 148 162 163 173 164 158
830.0 159 151 136 112 111 117 118 130 153 165
870.0 161 156 145 135 123 98 83 72 64 66
910.0 68 68 69 70 73 74 71 67 78 80
950.0 69 61 58 59 52 50 46 39 44 52
990.0 50 52 59 71 86 89 93 98 109 112
1030.0 127 147 154 155 145 136 140 141 137 130
1070.0 122 116 106 104 100 97 83 90 109 125
1110.0 152 191 237 300 398 546 721 927 1189 1451
1150.0 1713 1964 2191 2374 2463 2474 2426 2318 2148 1961
1190.0 1804 1670 1524 1361 1214 1079 914 713 523 373
1230.0 261 178 125 91 68 58 53 42 32 28
1270.0 30 35 35 27 25 31 35 37 36 39
1310.0 44 48 60 76 100 137 194 294 453 678
1350.0 968 1275 1506 1600 2015 2827 2473 1680 1703 1625
1390.0 1265 864 546 366 299 279 274 279 302 356
1430.0 451 594 794 1018 1214 1335 1425 1658 1945 1920
1470.0 1658 1504 1330 1117 997 861 674 491 344 240
1510.0 168 131 113 96 79 72 66 61 53 40
1550.0 35 35 36 32 31 36 30 24 23 23
1590.0 25 28 25 24 30 30 29 27 26 27
1630.0 27 29 25 25 31 33 34 31 31 29
1670.0 25 27 30 37 37 32 37 46 45 39
1710.0 40 44 47 50 51 56 59 61 61 61
1750.0 62 61 59 57 57 55 54 52 51 52
1790.0 50 50 52 50 45 41 37 36 34 29
1830.0 25 18 15 18 16 16 17 17 14 11
1870.0 15 20 14 13 16 8 8 13 12 13
1910.0 14 16 20 17 14 13 17 21 18 14
1950.0 17 17 18 22 20 19 19 21 23 19
1990.0 20 21 12 9 13 13 10 10 12 10
2030.0 9 15 18 16 15 13 8 5 5 8
2070.0 10 10 6 6 9 11 8 7 5 0
2110.0 2 3 5 5 4 8 11 8 8 7
2150.0 8 14 18 19 20 26 35 36 34 37
2190.0 39 41 38 29 25 21 13 9 5 2
2230.0 6 7 2 2 3 0 3 6 8 8
2270.0 5 8 17 19 20 20 24 32 30 23
2310.0 23 25 25 21 19 17 13 9 10 13
2350.0 15 15 16 14 16 24 26 27 26 27
2390.0 36 45 41 31 34 36 33 30 25 22
2430.0 21 20 22 24 21 18 11 12 14 11
2470.0 12 9 11 16 14 8 8 16 21 19
2510.0 17 17 21 25 27 33 35 30 37 55
2550.0 70 89 116 151 197 242 280 303 344 400
2590.0 376 321 309 282 232 190 152 113 92 82
2630.0 74 70 67 69 73 77 84 86 85 88
2670.0 98 98 102 107 108 107 101 97 104 118
2710.0 134 146 147 159 179 188 186 187 188 180
2750.0 164 156 157 155 155 168 179 185 194 210
2790.0 227 239 257 277 286 296 321 346 368 404
2830.0 446 498 570 678 860 1107 1390 1678 1952 2259
2870.0 2628 2906 3009 3095 3247 3425 3607 3760 3847 3964
2910.0 4121 4243 4308 4375 4579 4963 5321 5500 5761 6379
2950.0 7153 7825 8635 9501 10000 9643 9336 9785 8767 6595
2990.0 5097 4025 2995 2059 1321 819 521 361 275 219
3030.0 190 163 142 132 123 118 112 102 96 100
3070.0 104 97 95 99 100 95 95 104 96 94
3110.0 87 90 98 96 94 96 94 97 101 104
3150.0 111 121 119 115 123 133 143 151 153 148
3190.0 156 164 169 179 177 165 175 182 174 178
3230.0 184 179 175 176 177 182 187 179 162 147
3270.0 125 102 83 72 69 59 55 49 51 53
3310.0 45 49 52 59 75 77 66 64 72 79
3350.0 76 74 81 85 83 90 101 95 86 80
3390.0 64 54 49 45 44 42 45 37 34 23
3430.0 21 20 23 43 51 42 32 34 44 38
3470.0 25 27 24 13 22 31 19 19 29 25
3510.0 21 36 42 33 27 27 32 25 24 36
3550.0 44 41 32 21 26 29 23 21 22 26
3590.0 27 29 31 33 34 29 27 33 45 42
3630.0 28 30 25 15 20 29 26 26 23 20
3670.0 25 18 6 0 3 17 22 25 10 2
3710.0 20 17 19 37 44 34 23 19 28 40
3750.0 35 34 40 37 33 35 42 46 42 41
3790.0 46 38 37 49 51 55 58 45 33 47
3830.0 51 45 46 42 40
##END=
