##TITLE=ETHANE, 1,2-DIBROMO-1,1-DICHLORO-
##JCAMP-DX=4.24
##DATA TYPE=INFRARED SPECTRUM
##CLASS=COBLENTZ III
##ORIGIN=DOW CHEMICAL COMPANY
##OWNER=COBLENTZ SOCIETY
Collection (C) 2018 copyright by the U.S. Secretary of Commerce
on behalf of the United States of America. All rights reserved.
##DATE=1961/07/31
##NAMES=1,2-dibromo-1,1-dichloroethane
##CAS REGISTRY NO=75-81-0
##MOLFORM=C2 H2 Br2 Cl2
##SOURCE REFERENCE=COBLENTZ NO. 10021
##$NIST SOURCE=COBLENTZ
##$NIST IMAGE=cob10021
##SPECTROMETER/DATA SYSTEM=DOW KBr FOREPRISM-GRATING
##INSTRUMENT PARAMETERS=BLAZED AT 3.5, 12.0, 20.0 MICRON, CHANGED AT 5.0, 7.5, 14.9 MICRON
##STATE=SOLUTION (10% IN CCl4 FOR 3800-1333, AND 10% IN CS2 FOR 1333-440 CM^-^1)
##PATH LENGTH=0.011, 0.011 CM
$$SPECTRAL CONTAMINATION DUE TO CCl4 AROUND 1550, AND CS2 AROUND 855 CM^-^1
##SAMPLING PROCEDURE=TRANSMISSION
##RESOLUTION=4
##DATA PROCESSING=DIGITIZED BY NIST FROM HARD COPY (FROM TWO SEGMENTS)
##XUNITS=1/CM
##YUNITS=TRANSMITTANCE
##XFACTOR=1.000000
##YFACTOR=1
##DELTAX=0.870038
##FIRSTX=441.762
##LASTX=3792.28
##FIRSTY=0.848
##MAXX=3792.28
##MINX=441.762
##MAXY=1.00789
##MINY=0.159028
##NPOINTS=3852
##XYDATA=(X++(Y..Y))
441.762000 0.8480 0.8480 0.8480 0.8500 0.8500
446.112191 0.8500 0.8510 0.8510 0.8530 0.8540
450.462383 0.8540 0.8540 0.8540 0.8540 0.8570
454.812574 0.8570 0.8570 0.8580 0.8580 0.8590
459.162765 0.8620 0.8650 0.8630 0.8590 0.8580
463.512957 0.8580 0.8580 0.8580 0.8590 0.8590
467.863148 0.8610 0.8610 0.8620 0.8620 0.8610
472.213339 0.8610 0.8590 0.8580 0.8550 0.8540
476.563530 0.8530 0.8510 0.8400 0.8320 0.8230
480.913722 0.8160 0.8060 0.7950 0.7801 0.7651
485.263913 0.7480 0.7250 0.7000 0.6770 0.6760
489.614104 0.6770 0.6969 0.7189 0.7777 0.8188
493.964296 0.8480 0.8770 0.8910 0.8950 0.8960
498.314487 0.9020 0.9070 0.9100 0.9140 0.9140
502.664678 0.9150 0.9170 0.9180 0.9180 0.9190
507.014870 0.9220 0.9230 0.9260 0.9260 0.9260
511.365061 0.9260 0.9270 0.9290 0.9270 0.9270
515.715252 0.9260 0.9260 0.9260 0.9270 0.9290
520.065443 0.9300 0.9300 0.9300 0.9250 0.9190
524.415635 0.9120 0.9060 0.9000 0.8920 0.8820
528.765826 0.8420 0.8140 0.7860 0.7511 0.6702
533.116017 0.6401 0.6400 0.6460 0.6759 0.7068
537.466209 0.8480 0.8720 0.9150 0.9290 0.9330
541.816400 0.9360 0.9410 0.9410 0.9420 0.9450
546.166591 0.9460 0.9490 0.9510 0.9530 0.9550
550.516783 0.9530 0.9520 0.9550 0.9560 0.9570
554.866974 0.9560 0.9560 0.9570 0.9570 0.9570
559.217165 0.9570 0.9590 0.9570 0.9550 0.9530
563.567356 0.9530 0.9550 0.9560 0.9560 0.9570
567.917548 0.9570 0.9590 0.9600 0.9600 0.9570
572.267739 0.9560 0.9590 0.9590 0.9610 0.9610
576.617930 0.9600 0.9600 0.9600 0.9600 0.9560
580.968122 0.9550 0.9550 0.9570 0.9590 0.9560
585.318313 0.9550 0.9510 0.9490 0.9490 0.9490
589.668504 0.9510 0.9510 0.9510 0.9510 0.9490
594.018696 0.9490 0.9480 0.9460 0.9450 0.9450
598.368887 0.9440 0.9410 0.9380 0.9360 0.9310
602.719078 0.9290 0.9250 0.9190 0.9150 0.9140
607.069269 0.9100 0.9030 0.8920 0.8880 0.8720
611.419461 0.8690 0.8540 0.8480 0.8341 0.8231
615.769652 0.8160 0.8100 0.7930 0.7680 0.7450
620.119843 0.7001 0.6820 0.6232 0.5752 0.5272
624.470035 0.4770 0.4090 0.3301 0.3150 0.2232
628.820226 0.2230 0.2499 0.3665 0.5930 0.6388
633.170417 0.7380 0.7740 0.7940 0.8060 0.8100
637.520609 0.8120 0.8120 0.8120 0.8060 0.8040
641.870800 0.7970 0.7940 0.7890 0.7830 0.7780
646.220991 0.7710 0.7590 0.7421 0.7251 0.6991
650.571182 0.6720 0.6570 0.6120 0.5780 0.5630
654.921374 0.5460 0.5041 0.4512 0.4122 0.3423
659.271565 0.2190 0.2080 0.2080 0.2350 0.2100
663.621756 0.2080 0.2040 0.2498 0.3815 0.5224
667.971948 0.5250 0.5260 0.5230 0.4960 0.4631
672.322139 0.4421 0.3722 0.3023 0.2871 0.2611
676.672330 0.2580 0.2590 0.2780 0.3020 0.3489
681.022522 0.4019 0.4319 0.6014 0.6568 0.7058
685.372713 0.7310 0.7490 0.7630 0.7740 0.7800
689.722904 0.7850 0.7890 0.7930 0.7950 0.7970
694.073095 0.8020 0.8040 0.8050 0.8050 0.8050
698.423287 0.7910 0.7760 0.7521 0.7261 0.7061
702.773478 0.6680 0.6090 0.5570 0.5180 0.4781
707.123669 0.3932 0.3142 0.2652 0.2321 0.2280
711.473861 0.2680 0.3020 0.3419 0.4159 0.5557
715.824052 0.6796 0.7358 0.7609 0.7819 0.8039
720.174243 0.8160 0.8190 0.8200 0.8200 0.8200
724.524435 0.8200 0.8210 0.8210 0.8160 0.8080
728.874626 0.7950 0.7900 0.7720 0.7600 0.7440
733.224817 0.7230 0.6931 0.6631 0.6231 0.5822
737.575008 0.5630 0.5380 0.5120 0.4571 0.3981
741.925200 0.3781 0.3760 0.3800 0.4099 0.4458
746.275391 0.5780 0.6200 0.6850 0.7230 0.7440
750.625582 0.7610 0.7670 0.7750 0.7790 0.7870
754.975774 0.7950 0.7980 0.8050 0.8120 0.8130
759.325965 0.8130 0.8010 0.7980 0.7930 0.7821
763.676156 0.7640 0.7510 0.7410 0.7260 0.7020
768.026348 0.6840 0.6391 0.6081 0.5801 0.5561
772.376539 0.5330 0.5080 0.4690 0.4211 0.3671
776.726730 0.3191 0.3170 0.3180 0.3300 0.3549
781.076921 0.3890 0.4130 0.4470 0.5678 0.6039
785.427113 0.6309 0.6729 0.6999 0.7169 0.7598
789.777304 0.7820 0.8050 0.8290 0.8580 0.8730
794.127495 0.8780 0.8820 0.8910 0.8920 0.8960
798.477687 0.9020 0.9120 0.9150 0.9190 0.9190
802.827878 0.9210 0.9230 0.9250 0.9260 0.9290
807.178069 0.9290 0.9300 0.9330 0.9340 0.9400
811.528261 0.9410 0.9410 0.9420 0.9480 0.9490
815.878452 0.9490 0.9520 0.9530 0.9530 0.9550
820.228643 0.9570 0.9560 0.9530 0.9510 0.9490
824.578835 0.9460 0.9460 0.9460 0.9440 0.9410
828.929026 0.9380 0.9380 0.9360 0.9360 0.9340
833.279217 0.9330 0.9260 0.9220 0.9190 0.9120
837.629408 0.9110 0.9080 0.8970 0.8870 0.8770
841.979600 0.8700 0.8610 0.8470 0.8400 0.8310
846.329791 0.8200 0.8130 0.8010 0.7950 0.7860
850.679982 0.7760 0.7720 0.7650 0.7650 0.7670
855.030174 0.7670 0.7680 0.7710 0.7740 0.7750
859.380365 0.7780 0.7790 0.7800 0.7820 0.7830
863.730556 0.7850 0.7890 0.7910 0.7930 0.7950
868.080748 0.7980 0.8050 0.8100 0.8140 0.8200
872.430939 0.8240 0.8290 0.8350 0.8420 0.8500
876.781130 0.8510 0.8530 0.8590 0.8630 0.8680
881.131321 0.8700 0.8700 0.8720 0.8720 0.8740
885.481513 0.8770 0.8770 0.8780 0.8780 0.8740
889.831704 0.8720 0.8690 0.8630 0.8570 0.8480
894.181895 0.8350 0.8250 0.8100 0.7890 0.7740
898.532087 0.7521 0.7261 0.6882 0.6133 0.5822
902.882278 0.5490 0.4630 0.4020 0.3061 0.2311
907.232469 0.1941 0.2269 0.2509 0.2779 0.3138
911.582661 0.2760 0.2470 0.1900 0.1590 0.1800
915.932852 0.2738 0.5942 0.6419 0.7566 0.7998
920.283043 0.8420 0.8500 0.8620 0.8730 0.8800
924.633234 0.8910 0.8930 0.8970 0.9000 0.9070
928.983426 0.9180 0.9230 0.9330 0.9410 0.9440
933.333617 0.9480 0.9510 0.9530 0.9550 0.9560
937.683808 0.9560 0.9570 0.9570 0.9590 0.9600
942.034000 0.9600 0.9610 0.9610 0.9630 0.9630
946.384191 0.9640 0.9680 0.9700 0.9710 0.9710
950.734382 0.9710 0.9710 0.9700 0.9700 0.9700
955.084574 0.9700 0.9710 0.9710 0.9710 0.9720
959.434765 0.9760 0.9780 0.9780 0.9790 0.9800
963.784956 0.9820 0.9820 0.9800 0.9800 0.9790
968.135147 0.9780 0.9780 0.9800 0.9820 0.9820
972.485339 0.9820 0.9800 0.9800 0.9790 0.9790
976.835530 0.9790 0.9800 0.9800 0.9820 0.9830
981.185721 0.9830 0.9830 0.9830 0.9820 0.9800
985.535913 0.9800 0.9790 0.9790 0.9790 0.9790
989.886104 0.9790 0.9790 0.9800 0.9820 0.9830
994.236295 0.9830 0.9830 0.9820 0.9790 0.9790
998.586487 0.9780 0.9780 0.9780 0.9780 0.9780
1002.936678 0.9780 0.9780 0.9780 0.9780 0.9790
1007.286869 0.9790 0.9790 0.9790 0.9820 0.9820
1011.637060 0.9800 0.9780 0.9760 0.9720 0.9720
1015.987252 0.9710 0.9700 0.9680 0.9650 0.9640
1020.337443 0.9610 0.9590 0.9570 0.9570 0.9570
1024.687634 0.9550 0.9550 0.9530 0.9530 0.9520
1029.037826 0.9490 0.9480 0.9460 0.9450 0.9420
1033.388017 0.9360 0.9310 0.9260 0.9150 0.9110
1037.738208 0.9020 0.8930 0.8910 0.8621 0.8481
1042.088400 0.8310 0.8120 0.7790 0.7560 0.7231
1046.438591 0.7180 0.7190 0.7260 0.7370 0.7599
1050.788782 0.7830 0.7970 0.8200 0.8580 0.8910
1055.138973 0.9110 0.9220 0.9360 0.9420 0.9510
1059.489165 0.9550 0.9590 0.9570 0.9560 0.9550
1063.839356 0.9560 0.9630 0.9640 0.9650 0.9640
1068.189547 0.9640 0.9640 0.9650 0.9670 0.9670
1072.539739 0.9680 0.9680 0.9700 0.9700 0.9710
1076.889930 0.9720 0.9740 0.9750 0.9750 0.9760
1081.240121 0.9760 0.9780 0.9780 0.9790 0.9820
1085.590313 0.9820 0.9820 0.9820 0.9820 0.9820
1089.940504 0.9820 0.9820 0.9830 0.9820 0.9820
1094.290695 0.9800 0.9790 0.9790 0.9790 0.9790
1098.640886 0.9820 0.9820 0.9780 0.9780 0.9790
1102.991078 0.9860 0.9890 0.9950 0.9930 0.9900
1107.341269 0.9900 0.9900 0.9910 0.9940 0.9940
1111.691460 0.9910 0.9910 0.9910 0.9910 0.9910
1116.041652 0.9900 0.9900 0.9910 0.9910 0.9910
1120.391843 0.9900 0.9900 0.9890 0.9830 0.9790
1124.742034 0.9780 0.9830 0.9860 0.9870 0.9890
1129.092226 0.9890 0.9860 0.9860 0.9860 0.9860
1133.442417 0.9850 0.9850 0.9850 0.9830 0.9790
1137.792608 0.9780 0.9780 0.9780 0.9780 0.9780
1142.142800 0.9820 0.9790 0.9760 0.9750 0.9750
1146.492991 0.9720 0.9720 0.9720 0.9710 0.9680
1150.843182 0.9670 0.9670 0.9670 0.9650 0.9640
1155.193373 0.9630 0.9610 0.9590 0.9570 0.9570
1159.543565 0.9550 0.9530 0.9530 0.9450 0.9410
1163.893756 0.9370 0.9310 0.9220 0.9120 0.9060
1168.243947 0.8920 0.8800 0.8531 0.8211 0.7971
1172.594139 0.7750 0.7000 0.6770 0.6510 0.5782
1176.944330 0.5750 0.5750 0.5969 0.6458 0.6948
1181.294521 0.7440 0.7910 0.8200 0.9059 0.9210
1185.644713 0.9310 0.9360 0.9410 0.9460 0.9530
1189.994904 0.9560 0.9610 0.9630 0.9630 0.9630
1194.345095 0.9610 0.9600 0.9600 0.9600 0.9630
1198.695286 0.9640 0.9650 0.9700 0.9720 0.9720
1203.045478 0.9750 0.9750 0.9750 0.9750 0.9750
1207.395669 0.9760 0.9760 0.9760 0.9700 0.9700
1211.745860 0.9680 0.9650 0.9640 0.9630 0.9630
1216.096052 0.9570 0.9450 0.9440 0.9440 0.9360
1220.446243 0.9260 0.9180 0.9110 0.9000 0.8881
1224.796434 0.8690 0.8530 0.8350 0.8210 0.8000
1229.146626 0.7721 0.7401 0.7041 0.6662 0.6013
1233.496817 0.5360 0.5140 0.5140 0.5250 0.6019
1237.847008 0.6389 0.6769 0.8116 0.8738 0.8889
1242.197199 0.8970 0.9110 0.9110 0.9120 0.9170
1246.547391 0.9210 0.9300 0.9360 0.9400 0.9410
1250.897582 0.9460 0.9460 0.9490 0.9510 0.9530
1255.247773 0.9530 0.9550 0.9550 0.9550 0.9560
1259.597965 0.9590 0.9610 0.9610 0.9600 0.9600
1263.948156 0.9590 0.9590 0.9600 0.9640 0.9670
1268.298347 0.9680 0.9700 0.9720 0.9720 0.9670
1272.648539 0.9680 0.9700 0.9750 0.9750 0.9760
1276.998730 0.9710 0.9700 0.9700 0.9680 0.9680
1281.348921 0.9670 0.9670 0.9710 0.9710 0.9680
1285.699112 0.9670 0.9700 0.9700 0.9710 0.9710
1290.049304 0.9720 0.9720 0.9720 0.9720 0.9720
1294.399495 0.9760 0.9760 0.9750 0.9750 0.9750
1298.749686 0.9760 0.9760 0.9720 0.9720 0.9700
1303.099878 0.9670 0.9670 0.9680 0.9700 0.9700
1307.450069 0.9700 0.9700 0.9700 0.9670 0.9670
1311.800260 0.9680 0.9700 0.9710 0.9710 0.9710
1316.150452 0.9720 0.9740 0.9750 0.9760 0.9720
1320.500643 0.9710 0.9710 0.9710 0.9720 0.9740
1324.850834 0.9740 0.9700 0.9670 0.9650 0.9650
1329.201025 0.9680 0.9700 0.9710 0.9710 0.9740
1333.551217 0.9760 0.9780 0.9780 0.9780 0.9780
1337.901408 0.9760 0.9700 0.9680 0.9680 0.9700
1342.251599 0.9710 0.9720 0.9720 0.9740 0.9750
1346.601791 0.9760 0.9750 0.9740 0.9720 0.9710
1350.951982 0.9710 0.9710 0.9710 0.9710 0.9670
1355.302173 0.9640 0.9600 0.9560 0.9550 0.9530
1359.652365 0.9510 0.9520 0.9560 0.9560 0.9590
1364.002556 0.9610 0.9630 0.9640 0.9650 0.9670
1368.352747 0.9680 0.9700 0.9700 0.9700 0.9700
1372.702938 0.9650 0.9650 0.9710 0.9710 0.9720
1377.053130 0.9760 0.9760 0.9780 0.9740 0.9720
1381.403321 0.9740 0.9740 0.9760 0.9780 0.9760
1385.753512 0.9720 0.9700 0.9700 0.9710 0.9720
1390.103704 0.9760 0.9760 0.9760 0.9780 0.9780
1394.453895 0.9760 0.9750 0.9720 0.9700 0.9650
1398.804086 0.9630 0.9590 0.9550 0.9480 0.9450
1403.154278 0.9380 0.9330 0.9181 0.9120 0.9040
1407.504469 0.8770 0.8570 0.8170 0.7910 0.6582
1411.854660 0.6500 0.6311 0.7057 0.7638 0.8864
1416.204851 0.9110 0.9210 0.9260 0.9300 0.9310
1420.555043 0.9370 0.9420 0.9450 0.9460 0.9460
1424.905234 0.9490 0.9510 0.9530 0.9560 0.9530
1429.255425 0.9530 0.9560 0.9570 0.9570 0.9570
1433.605617 0.9590 0.9590 0.9590 0.9570 0.9560
1437.955808 0.9560 0.9560 0.9610 0.9650 0.9670
1442.305999 0.9650 0.9640 0.9610 0.9570 0.9560
1446.656191 0.9560 0.9560 0.9560 0.9560 0.9550
1451.006382 0.9530 0.9550 0.9560 0.9560 0.9560
1455.356573 0.9560 0.9550 0.9550 0.9530 0.9530
1459.706764 0.9530 0.9520 0.9520 0.9510 0.9490
1464.056956 0.9490 0.9450 0.9440 0.9420 0.9410
1468.407147 0.9380 0.9370 0.9340 0.9310 0.9300
1472.757338 0.9290 0.9290 0.9290 0.9270 0.9260
1477.107530 0.9260 0.9260 0.9260 0.9260 0.9250
1481.457721 0.9220 0.9210 0.9190 0.9170 0.9150
1485.807912 0.9120 0.9110 0.9030 0.8950 0.8920
1490.158104 0.8890 0.8840 0.8820 0.8820 0.8810
1494.508295 0.8810 0.8740 0.8690 0.8510 0.8480
1498.858486 0.8470 0.8460 0.8400 0.8360 0.8340
1503.208678 0.8250 0.8170 0.8100 0.7900 0.7750
1507.558869 0.7650 0.7640 0.7630 0.7610 0.7600
1511.909060 0.7600 0.7590 0.7560 0.7480 0.7450
1516.259251 0.7410 0.7290 0.7230 0.7220 0.7150
1520.609443 0.7070 0.6950 0.6910 0.6890 0.6890
1524.959634 0.6870 0.6840 0.6780 0.6740 0.6700
1529.309825 0.6680 0.6650 0.6550 0.6470 0.6320
1533.660017 0.6170 0.6020 0.5970 0.5940 0.5890
1538.010208 0.5750 0.5610 0.5450 0.5290 0.5170
1542.360399 0.5150 0.5140 0.5120 0.5120 0.5110
1546.710591 0.5110 0.5070 0.5060 0.5060 0.5060
1551.060782 0.5070 0.5110 0.5120 0.5140 0.5250
1555.410973 0.5600 0.5610 0.5640 0.5790 0.5970
1559.761164 0.6010 0.5970 0.5950 0.5940 0.5950
1564.111356 0.6020 0.6170 0.6290 0.6320 0.6400
1568.461547 0.6500 0.6540 0.6630 0.6650 0.6650
1572.811738 0.6660 0.6700 0.6770 0.6800 0.6810
1577.161930 0.6820 0.6820 0.6840 0.6850 0.6870
1581.512121 0.6890 0.6910 0.6910 0.6950 0.6960
1585.862312 0.6990 0.7070 0.7100 0.7180 0.7230
1590.212504 0.7310 0.7370 0.7440 0.7520 0.7610
1594.562695 0.7710 0.7750 0.7760 0.7790 0.7890
1598.912886 0.8010 0.8140 0.8310 0.8460 0.8530
1603.263077 0.8550 0.8630 0.8700 0.8780 0.8870
1607.613269 0.8910 0.8930 0.8990 0.9070 0.9110
1611.963460 0.9120 0.9140 0.9150 0.9180 0.9220
1616.313651 0.9230 0.9250 0.9250 0.9250 0.9260
1620.663843 0.9270 0.9270 0.9290 0.9290 0.9290
1625.014034 0.9290 0.9290 0.9290 0.9310 0.9310
1629.364225 0.9300 0.9290 0.9250 0.9250 0.9230
1633.714417 0.9230 0.9230 0.9190 0.9180 0.9150
1638.064608 0.9150 0.9180 0.9180 0.9190 0.9210
1642.414799 0.9210 0.9220 0.9220 0.9250 0.9290
1646.764990 0.9310 0.9310 0.9330 0.9360 0.9410
1651.115182 0.9460 0.9480 0.9490 0.9490 0.9490
1655.465373 0.9490 0.9480 0.9480 0.9510 0.9520
1659.815564 0.9550 0.9570 0.9570 0.9570 0.9560
1664.165756 0.9560 0.9590 0.9610 0.9640 0.9640
1668.515947 0.9650 0.9650 0.9640 0.9640 0.9670
1672.866138 0.9680 0.9700 0.9700 0.9710 0.9710
1677.216330 0.9680 0.9670 0.9670 0.9700 0.9710
1681.566521 0.9710 0.9710 0.9710 0.9720 0.9750
1685.916712 0.9750 0.9710 0.9720 0.9750 0.9780
1690.266903 0.9800 0.9800 0.9780 0.9780 0.9700
1694.617095 0.9700 0.9760 0.9780 0.9780 0.9740
1698.967286 0.9740 0.9760 0.9750 0.9750 0.9750
1703.317477 0.9750 0.9740 0.9740 0.9750 0.9750
1707.667669 0.9750 0.9740 0.9740 0.9740 0.9740
1712.017860 0.9740 0.9780 0.9780 0.9740 0.9720
1716.368051 0.9740 0.9750 0.9760 0.9780 0.9780
1720.718243 0.9790 0.9780 0.9790 0.9800 0.9860
1725.068434 0.9860 0.9790 0.9790 0.9780 0.9780
1729.418625 0.9780 0.9800 0.9800 0.9780 0.9780
1733.768816 0.9750 0.9720 0.9720 0.9720 0.9720
1738.119008 0.9740 0.9760 0.9790 0.9800 0.9800
1742.469199 0.9800 0.9820 0.9830 0.9830 0.9820
1746.819390 0.9800 0.9800 0.9800 0.9820 0.9780
1751.169582 0.9800 0.9800 0.9800 0.9820 0.9800
1755.519773 0.9800 0.9780 0.9760 0.9790 0.9790
1759.869964 0.9790 0.9790 0.9780 0.9780 0.9740
1764.220156 0.9740 0.9760 0.9780 0.9780 0.9780
1768.570347 0.9780 0.9800 0.9820 0.9830 0.9850
1772.920538 0.9870 0.9890 0.9890 0.9860 0.9820
1777.270729 0.9790 0.9780 0.9780 0.9780 0.9790
1781.620921 0.9790 0.9790 0.9800 0.9820 0.9800
1785.971112 0.9800 0.9790 0.9780 0.9760 0.9760
1790.321303 0.9750 0.9670 0.9670 0.9700 0.9720
1794.671495 0.9720 0.9750 0.9740 0.9750 0.9760
1799.021686 0.9750 0.9760 0.9790 0.9790 0.9790
1803.371877 0.9780 0.9780 0.9780 0.9760 0.9760
1807.722069 0.9750 0.9750 0.9750 0.9760 0.9780
1812.072260 0.9760 0.9760 0.9750 0.9750 0.9750
1816.422451 0.9760 0.9760 0.9780 0.9790 0.9790
1820.772642 0.9800 0.9800 0.9830 0.9830 0.9800
1825.122834 0.9800 0.9800 0.9830 0.9830 0.9780
1829.473025 0.9710 0.9710 0.9720 0.9720 0.9720
1833.823216 0.9720 0.9720 0.9710 0.9710 0.9710
1838.173408 0.9720 0.9760 0.9760 0.9780 0.9780
1842.523599 0.9780 0.9750 0.9740 0.9750 0.9760
1846.873790 0.9790 0.9790 0.9790 0.9790 0.9740
1851.223982 0.9740 0.9760 0.9760 0.9760 0.9760
1855.574173 0.9760 0.9750 0.9720 0.9720 0.9710
1859.924364 0.9710 0.9720 0.9740 0.9760 0.9760
1864.274556 0.9760 0.9760 0.9750 0.9750 0.9760
1868.624747 0.9760 0.9760 0.9750 0.9740 0.9720
1872.974938 0.9710 0.9710 0.9750 0.9780 0.9790
1877.325129 0.9790 0.9800 0.9820 0.9820 0.9830
1881.675321 0.9820 0.9820 0.9790 0.9780 0.9780
1886.025512 0.9760 0.9790 0.9800 0.9790 0.9820
1890.375703 0.9830 0.9850 0.9830 0.9830 0.9830
1894.725895 0.9830 0.9850 0.9860 0.9870 0.9860
1899.076086 0.9830 0.9800 0.9790 0.9780 0.9780
1903.426277 0.9780 0.9790 0.9790 0.9790 0.9790
1907.776469 0.9800 0.9800 0.9800 0.9790 0.9790
1912.126660 0.9790 0.9790 0.9790 0.9790 0.9760
1916.476851 0.9760 0.9790 0.9790 0.9800 0.9800
1920.827042 0.9850 0.9860 0.9860 0.9860 0.9860
1925.177234 0.9860 0.9850 0.9850 0.9850 0.9850
1929.527425 0.9850 0.9850 0.9830 0.9830 0.9860
1933.877616 0.9860 0.9820 0.9790 0.9790 0.9790
1938.227808 0.9790 0.9790 0.9790 0.9790 0.9800
1942.577999 0.9820 0.9820 0.9820 0.9820 0.9820
1946.928190 0.9830 0.9850 0.9850 0.9870 0.9870
1951.278382 0.9850 0.9820 0.9820 0.9820 0.9790
1955.628573 0.9820 0.9830 0.9870 0.9910 1.0000
1959.978764 0.9980 0.9830 0.9790 0.9820 0.9800
1964.328955 0.9800 0.9800 0.9790 0.9760 0.9720
1968.679147 0.9720 0.9740 0.9780 0.9790 0.9780
1973.029338 0.9750 0.9740 0.9740 0.9780 0.9790
1977.379529 0.9790 0.9790 0.9790 0.9780 0.9790
1981.729721 0.9790 0.9790 0.9790 0.9800 0.9790
1986.079912 0.9790 0.9760 0.9561 0.9789 0.9999
1990.430103 1.0000 0.9910 0.9900 0.9890 0.9860
1994.780295 0.9830 0.9750 0.9790 0.9900 0.9910
1999.130486 0.9910 0.9910 0.9920 0.9930 0.9930
2003.480677 0.9930 0.9930 0.9930 0.9930 0.9930
2007.830868 0.9930 0.9930 0.9900 0.9870 0.9831
2012.181060 0.9791 0.9790 0.9790 0.9858 0.9928
2016.531251 0.9900 0.9870 0.9870 0.9870 0.9880
2020.881442 0.9890 0.9915 0.9940 0.9940 0.9940
2025.231634 0.9945 0.9950 0.9950 0.9950 0.9950
2029.581825 0.9950 0.9974 0.9999 1.0010 1.0020
2033.932016 1.0035 1.0050 1.0050 1.0050 1.0045
2038.282208 1.0040 1.0030 1.0020 1.0010 1.0000
2042.632399 0.9976 0.9951 0.9945 0.9940 0.9935
2046.982590 0.9930 0.9920 0.9910 0.9920 0.9930
2051.332781 0.9930 0.9930 0.9920 0.9910 0.9910
2055.682973 0.9910 0.9910 0.9910 0.9900 0.9890
2060.033164 0.9890 0.9890 0.9880 0.9870 0.9870
2064.383355 0.9870 0.9870 0.9870 0.9880 0.9890
2068.733547 0.9900 0.9910 0.9910 0.9910 0.9905
2073.083738 0.9900 0.9905 0.9910 0.9920 0.9930
2077.433929 0.9930 0.9930 0.9935 0.9940 0.9926
2081.784121 0.9911 0.9886 0.9861 0.9855 0.9850
2086.134312 0.9841 0.9830 0.9830 0.9830 0.9844
2090.484503 0.9859 0.9865 0.9870 0.9870 0.9870
2094.834694 0.9870 0.9870 0.9870 0.9870 0.9828
2099.184886 0.9783 0.9817 0.9857 0.9883 0.9908
2103.535077 0.9929 0.9949 0.9950 0.9950 0.9950
2107.885268 0.9950 0.9974 0.9999 0.9977 0.9952
2112.235460 0.9941 0.9931 0.9930 0.9930 0.9921
2116.585651 0.9911 0.9910 0.9910 0.9910 0.9910
2120.935842 0.9919 0.9929 0.9930 0.9930 0.9935
2125.286034 0.9940 0.9959 0.9979 0.9989 0.9999
2129.636225 1.0005 1.0010 1.0010 1.0010 1.0005
2133.986416 1.0000 0.9991 0.9981 0.9966 0.9951
2138.336607 0.9927 0.9902 0.9895 0.9890 0.9890
2142.686799 0.9890 0.9890 0.9890 0.9890 0.9890
2147.036990 0.9890 0.9890 0.9895 0.9900 0.9923
2151.387181 0.9948 0.9959 0.9969 0.9975 0.9980
2155.737373 0.9980 0.9980 0.9989 0.9999 1.0000
2160.087564 1.0000 1.0000 1.0000 0.9991 0.9981
2164.437755 0.9966 0.9951 0.9950 0.9950 0.9945
2168.787947 0.9940 0.9940 0.9940 0.9940 0.9940
2173.138138 0.9940 0.9940 0.9940 0.9940 0.9945
2177.488329 0.9950 0.9973 0.9998 1.0000 1.0000
2181.838521 0.9977 0.9952 0.9945 0.9940 0.9936
2186.188712 0.9931 0.9917 0.9902 0.9904 0.9909
2190.538903 0.9923 0.9939 0.9940 0.9940 0.9940
