##TITLE=2,2-Dimethylbutane
##JCAMP-DX=4.24
##DATA TYPE=INFRARED SPECTRUM
##ORIGIN=NIST Mass Spectrometry Data Center
##OWNER=NIST Standard Reference Data Program
Collection (C) 2018 copyright by the U.S. Secretary of Commerce
on behalf of the United States of America. All rights reserved.
##CAS REGISTRY NO=75-83-2
##MOLFORM=C 6 H 14
##$NIST SOURCE=MSDC-IR
##SPECTROMETER/DATA SYSTEM=HP-GC/MS/IRD
##STATE=gas
##XUNITS=1/CM
##YUNITS=ABSORBANCE
##XFACTOR=1.0
##YFACTOR=0.000009400
##DELTAX=4.0
##FIRSTX=550.0
##LASTX=3846.0
##FIRSTY=0.000216
##MAXX=3846
##MINX=550
##MAXY=0.094
##MINY=0
##NPOINTS=825
##XYDATA=(X++(Y..Y))
550.0 23 32 41 32 28 6 0 24 42 48
590.0 38 31 41 44 46 54 50 47 39 32
630.0 31 30 38 48 60 61 50 52 52 45
670.0 52 58 59 55 52 52 58 59 54 58
710.0 69 75 72 70 74 81 87 93 103 104
750.0 98 93 85 81 80 67 57 62 67 64
790.0 63 59 58 59 51 55 60 49 50 57
830.0 51 51 54 52 49 50 52 50 55 57
870.0 62 66 62 58 58 57 58 64 74 87
910.0 102 117 130 145 152 150 150 145 140 135
950.0 120 101 86 72 64 57 51 48 45 43
990.0 41 40 40 42 45 50 55 54 48 42
1030.0 38 38 45 40 36 36 40 43 41 39
1070.0 34 40 44 46 52 53 48 44 50 46
1110.0 42 44 38 34 34 42 47 48 46 46
1150.0 48 49 52 60 70 78 90 112 137 169
1190.0 213 260 304 337 351 337 303 268 241 233
1230.0 247 269 289 304 300 284 259 223 192 167
1270.0 149 132 119 110 103 97 93 91 92 90
1310.0 89 91 93 94 100 113 135 172 233 319
1350.0 440 588 739 871 986 1034 975 871 779 697
1390.0 617 545 474 418 375 302 230 198 195 199
1430.0 216 248 294 360 439 537 654 787 900 984
1470.0 1046 1063 1010 911 792 657 513 380 273 206
1510.0 161 130 111 99 85 77 75 66 64 61
1550.0 55 52 49 48 44 46 50 47 47 46
1590.0 44 46 46 44 40 39 42 43 43 39
1630.0 38 39 39 38 39 40 38 36 37 39
1670.0 38 36 34 34 38 38 35 32 32 31
1710.0 31 30 27 24 26 26 24 26 28 24
1750.0 21 20 19 20 20 21 19 19 20 19
1790.0 20 17 19 20 18 19 22 21 20 23
1830.0 23 18 17 17 17 16 16 18 20 20
1870.0 17 16 17 19 21 18 18 20 17 13
1910.0 13 13 14 14 14 12 14 16 16 17
1950.0 16 16 15 11 12 13 8 7 8 6
1990.0 8 9 9 11 10 9 10 11 12 11
2030.0 10 12 16 15 13 11 12 14 12 9
2070.0 8 9 7 5 9 11 12 13 12 12
2110.0 8 8 10 8 8 9 7 8 9 5
2150.0 4 2 2 1 2 3 4 7 8 9
2190.0 7 3 5 5 1 2 3 4 4 4
2230.0 7 6 8 10 9 10 9 8 8 7
2270.0 8 10 12 12 13 15 14 14 12 12
2310.0 15 14 11 10 12 10 9 8 11 12
2350.0 10 9 11 9 11 15 15 16 22 24
2390.0 22 20 21 20 21 22 23 23 18 14
2430.0 12 13 13 11 12 12 14 13 13 16
2470.0 18 17 16 15 18 18 20 22 19 18
2510.0 19 18 20 20 21 24 25 26 30 30
2550.0 29 32 35 38 37 35 34 36 35 34
2590.0 36 42 49 50 52 52 53 57 57 60
2630.0 64 67 68 70 74 76 73 72 75 76
2670.0 75 74 77 81 86 90 91 95 102 108
2710.0 116 127 136 146 154 164 170 171 170 167
2750.0 167 168 166 163 161 165 169 173 178 186
2790.0 202 218 239 269 299 332 368 412 471 538
2830.0 617 715 832 968 1125 1301 1501 1735 2013 2341
2870.0 2710 3057 3311 3492 3624 3719 3784 3808 3814 3808
2910.0 3792 3786 3806 3894 4105 4452 4928 5522 6244 7104
2950.0 8056 8982 9724 10000 9632 8741 7343 5688 4132 2848
2990.0 1950 1374 1017 795 662 569 502 456 420 389
3030.0 362 335 311 287 265 249 235 224 215 207
3070.0 198 194 191 185 180 175 171 166 155 147
3110.0 145 141 141 134 130 133 129 130 129 125
3150.0 123 127 131 126 126 131 134 135 131 127
3190.0 127 123 124 119 111 108 106 104 100 92
3230.0 86 80 71 68 66 63 57 50 50 52
3270.0 49 45 46 48 52 49 48 48 44 46
3310.0 46 43 48 39 32 33 27 28 28 27
3350.0 30 31 29 33 34 33 37 36 33 34
3390.0 32 32 37 36 29 24 22 19 17 16
3430.0 22 28 32 28 16 16 15 9 13 18
3470.0 19 16 14 17 13 11 12 9 6 12
3510.0 14 9 3 8 10 6 10 7 6 9
3550.0 7 9 6 1 1 4 8 10 10 9
3590.0 7 7 5 2 5 5 6 10 12 8
3630.0 5 7 6 15 14 5 9 9 11 16
3670.0 10 7 11 9 9 9 13 14 8 9
3710.0 14 11 9 10 11 14 16 14 10 13
3750.0 9 9 17 17 11 11 15 14 14 15
3790.0 17 16 18 21 18 18 25 26 19 18
3830.0 20 18 18 21 17
##END=
