##TITLE=2,2-Dimethyl-1-propanol
##JCAMP-DX=4.24
$$ By DXEDIT 1.05 (RS McDonald)
##DATA TYPE=INFRARED SPECTRUM
##CLASS=COBLENTZ III
##ORIGIN=DOW CHEMICAL COMPANY
##OWNER=COPYRIGHT (C) 1988 by COBLENTZ SOCIETY INC.
Collection (C) 2018 copyright by the U.S. Secretary of Commerce
on behalf of the United States of America. All rights reserved.
##DATE=1964/04/03
##NAMES=Neopentyl alcohol
##CAS REGISTRY NO=75-84-3
##MOLFORM=C5 H12 O
##SOURCE REFERENCE=COBLENTZ NO. 7960
##$NIST SOURCE=COBLENTZ
##$NIST IMAGE=cob7960
##SPECTROMETER/DATA SYSTEM=DOW KBr FOREPRISM-GRATING
##INSTRUMENT PARAMETERS=BLAZED AT 3.5, 12.0, 20.0 MICRON AND CHANGED AT 5.0, 7.5, 14.9 MICRON
##STATE=SOLUTION (10% CCl4 FOR 3800-1340, 10% CS2 FOR 1340-450 CM^-^1)
##PATH LENGTH=0.011 CM, 0.011 CM
$$SPECTRAL CONTAMINATION DUE TO CS2 AROUND 850 AND CCl4 AROUND 1550 CM^-^1 HAVE BEEN SUBTRACTED
##SAMPLING PROCEDURE=TRANSMISSION
##RESOLUTION=2
##DATA PROCESSING=DIGITIZED BY COBLENTZ SOCIETY (BATCH I) FROM HARD COPY
##XUNITS=1/CM
##YUNITS=TRANSMITTANCE
##XFACTOR=1
##YFACTOR=1
##DELTAX=1
##FIRSTX=3800
##LASTX=453
##FIRSTY=0.9138
##MAXX=3800
##MINX=453
##MAXY=0.9265
##MINY=0.0006
##NPOINTS=3348
##XYDATA=(X++(Y..Y))
3800.000000 0.9138 0.9138 0.9138 0.9139 0.9146
3795.000000 0.9136 0.9146 0.9144 0.9144 0.9141
3790.000000 0.9140 0.9138 0.9137 0.9136 0.9135
3785.000000 0.9134 0.9126 0.9122 0.9124 0.9136
3780.000000 0.9141 0.9132 0.9141 0.9145 0.9147
3775.000000 0.9136 0.9151 0.9151 0.9154 0.9154
3770.000000 0.9157 0.9158 0.9159 0.9160 0.9162
3765.000000 0.9163 0.9165 0.9166 0.9168 0.9168
3760.000000 0.9217 0.9176 0.9171 0.9171 0.9172
3755.000000 0.9173 0.9174 0.9174 0.9175 0.9176
3750.000000 0.9177 0.9179 0.9180 0.9181 0.9183
3745.000000 0.9185 0.9188 0.9190 0.9192 0.9194
3740.000000 0.9197 0.9202 0.9216 0.9218 0.9219
3735.000000 0.9222 0.9219 0.9214 0.9224 0.9232
3730.000000 0.9235 0.9238 0.9241 0.9243 0.9246
3725.000000 0.9248 0.9251 0.9252 0.9254 0.9254
3720.000000 0.9254 0.9241 0.9242 0.9254 0.9254
3715.000000 0.9254 0.9254 0.9254 0.9258 0.9263
3710.000000 0.9259 0.9265 0.9263 0.9260 0.9257
3705.000000 0.9253 0.9250 0.9247 0.9243 0.9239
3700.000000 0.9236 0.9232 0.9229 0.9220 0.9200
3695.000000 0.9185 0.9172 0.9159 0.9147 0.9135
3690.000000 0.9122 0.9109 0.9096 0.9081 0.9058
3685.000000 0.9045 0.9033 0.9020 0.9008 0.8993
3680.000000 0.8982 0.8969 0.8957 0.8944 0.8932
3675.000000 0.8919 0.8906 0.8892 0.8877 0.8863
3670.000000 0.8859 0.8834 0.8819 0.8804 0.8790
3665.000000 0.8774 0.8758 0.8740 0.8722 0.8704
3660.000000 0.8686 0.8669 0.8651 0.8633 0.8615
3655.000000 0.8589 0.8563 0.8532 0.8501 0.8467
3650.000000 0.8434 0.8393 0.8353 0.8184 0.8015
3645.000000 0.7943 0.7871 0.7594 0.7317 0.7004
3640.000000 0.6690 0.6377 0.6063 0.5749 0.5434
3635.000000 0.5350 0.5264 0.5265 0.5270 0.5257
3630.000000 0.5253 0.5252 0.5260 0.5279 0.5294
3625.000000 0.5404 0.5515 0.5627 0.5739 0.5851
3620.000000 0.5964 0.6077 0.6189 0.6301 0.6414
3615.000000 0.6526 0.6638 0.6750 0.6864 0.6976
3610.000000 0.7088 0.7200 0.7304 0.7425 0.7537
3605.000000 0.7649 0.7763 0.7778 0.7793 0.7805
3600.000000 0.7803 0.7799 0.7808 0.7865 0.7916
3595.000000 0.7954 0.7994 0.8013 0.8093 0.8046
3590.000000 0.8055 0.8058 0.8059 0.8061 0.8061
3585.000000 0.8051 0.8042 0.8032 0.8023 0.7993
3580.000000 0.7964 0.7932 0.7900 0.7831 0.7761
3575.000000 0.7695 0.7640 0.7615 0.7584 0.7561
3570.000000 0.7545 0.7519 0.7496 0.7461 0.7427
3565.000000 0.7392 0.7358 0.7324 0.7290 0.7256
3560.000000 0.7222 0.7188 0.7153 0.7118 0.7086
3555.000000 0.6943 0.6782 0.6700 0.6627 0.6558
3550.000000 0.6488 0.6418 0.6359 0.6293 0.6229
3545.000000 0.6162 0.6099 0.6041 0.5979 0.5916
3540.000000 0.5849 0.5761 0.5667 0.5577 0.5485
3535.000000 0.5427 0.5369 0.5327 0.5287 0.5246
3530.000000 0.5205 0.5157 0.5116 0.5065 0.5014
3525.000000 0.4962 0.4910 0.4858 0.4806 0.4754
3520.000000 0.4701 0.4660 0.4618 0.4575 0.4533
3515.000000 0.4490 0.4448 0.4411 0.4373 0.4339
3510.000000 0.4307 0.4274 0.4241 0.4208 0.4175
3505.000000 0.4142 0.4109 0.4075 0.4044 0.4012
3500.000000 0.3982 0.3951 0.3919 0.3888 0.3857
3495.000000 0.3827 0.3796 0.3765 0.3734 0.3704
3490.000000 0.3673 0.3641 0.3609 0.3574 0.3539
3485.000000 0.3502 0.3469 0.3434 0.3397 0.3363
3480.000000 0.3328 0.3290 0.3251 0.3210 0.3169
3475.000000 0.3127 0.3086 0.3046 0.3005 0.2967
3470.000000 0.2928 0.2892 0.2856 0.2820 0.2784
3465.000000 0.2747 0.2712 0.2679 0.2647 0.2616
3460.000000 0.2587 0.2558 0.2529 0.2499 0.2469
3455.000000 0.2441 0.2414 0.2393 0.2372 0.2352
3450.000000 0.2330 0.2310 0.2289 0.2268 0.2247
3445.000000 0.2225 0.2206 0.2184 0.2163 0.2142
3440.000000 0.2120 0.2100 0.2078 0.2059 0.2037
3435.000000 0.2016 0.1996 0.1974 0.1955 0.1938
3430.000000 0.1920 0.1901 0.1883 0.1866 0.1848
3425.000000 0.1828 0.1812 0.1794 0.1776 0.1757
3420.000000 0.1741 0.1723 0.1704 0.1687 0.1670
3415.000000 0.1652 0.1634 0.1617 0.1599 0.1580
3410.000000 0.1562 0.1539 0.1518 0.1495 0.1472
3405.000000 0.1447 0.1424 0.1399 0.1377 0.1359
3400.000000 0.1341 0.1327 0.1313 0.1299 0.1285
3395.000000 0.1272 0.1258 0.1242 0.1230 0.1217
3390.000000 0.1205 0.1190 0.1179 0.1166 0.1154
3385.000000 0.1141 0.1129 0.1115 0.1103 0.1090
3380.000000 0.1078 0.1065 0.1053 0.1039 0.1028
3375.000000 0.1015 0.1003 0.0993 0.0985 0.0979
3370.000000 0.0975 0.0967 0.0961 0.0956 0.0951
3365.000000 0.0946 0.0943 0.0941 0.0939 0.0937
3360.000000 0.0934 0.0933 0.0930 0.0929 0.0927
3355.000000 0.0925 0.0923 0.0921 0.0920 0.0918
3350.000000 0.0917 0.0916 0.0916 0.0916 0.0917
3345.000000 0.0918 0.0920 0.0918 0.0920 0.0919
3340.000000 0.0920 0.0927 0.0934 0.0940 0.0947
3335.000000 0.0953 0.0960 0.0968 0.0977 0.0986
3330.000000 0.0998 0.1010 0.1021 0.1033 0.1044
3325.000000 0.1056 0.1067 0.1081 0.1095 0.1109
3320.000000 0.1122 0.1136 0.1151 0.1164 0.1178
3315.000000 0.1192 0.1208 0.1223 0.1242 0.1259
3310.000000 0.1275 0.1291 0.1307 0.1322 0.1340
3305.000000 0.1357 0.1373 0.1387 0.1403 0.1420
3300.000000 0.1437 0.1455 0.1476 0.1494 0.1514
3295.000000 0.1534 0.1554 0.1574 0.1593 0.1611
3290.000000 0.1632 0.1652 0.1672 0.1693 0.1715
3285.000000 0.1742 0.1770 0.1798 0.1824 0.1848
3280.000000 0.1874 0.1903 0.1929 0.1953 0.1980
3275.000000 0.2018 0.2058 0.2096 0.2133 0.2172
3270.000000 0.2209 0.2247 0.2285 0.2323 0.2362
3265.000000 0.2400 0.2440 0.2479 0.2518 0.2557
3260.000000 0.2596 0.2635 0.2675 0.2713 0.2749
3255.000000 0.2798 0.2844 0.2891 0.2939 0.2986
3250.000000 0.3034 0.3081 0.3129 0.3161 0.3194
3245.000000 0.3224 0.3258 0.3292 0.3326 0.3358
3240.000000 0.3392 0.3423 0.3456 0.3491 0.3524
3235.000000 0.3556 0.3590 0.3621 0.3652 0.3683
3230.000000 0.3714 0.3744 0.3776 0.3805 0.3832
3225.000000 0.3863 0.3899 0.3928 0.3960 0.3990
3220.000000 0.4022 0.4051 0.4082 0.4121 0.4157
3215.000000 0.4195 0.4233 0.4269 0.4307 0.4343
3210.000000 0.4381 0.4417 0.4449 0.4513 0.4578
3205.000000 0.4643 0.4709 0.4774 0.4840 0.4889
3200.000000 0.4940 0.4993 0.5038 0.5089 0.5134
3195.000000 0.5186 0.5233 0.5268 0.5302 0.5336
3190.000000 0.5368 0.5403 0.5441 0.5475 0.5505
3185.000000 0.5537 0.5571 0.5605 0.5639 0.5672
3180.000000 0.5706 0.5739 0.5772 0.5806 0.5839
3175.000000 0.5872 0.5906 0.5938 0.5971 0.6004
3170.000000 0.6037 0.6067 0.6097 0.6128 0.6158
3165.000000 0.6189 0.6225 0.6260 0.6286 0.6317
3160.000000 0.6351 0.6382 0.6407 0.6440 0.6465
3155.000000 0.6492 0.6529 0.6560 0.6589 0.6617
3150.000000 0.6647 0.6676 0.6694 0.6725 0.6754
3145.000000 0.6781 0.6808 0.6832 0.6857 0.6884
3140.000000 0.6916 0.6940 0.6965 0.6990 0.7014
3135.000000 0.7037 0.7059 0.7082 0.7104 0.7124
3130.000000 0.7147 0.7169 0.7191 0.7212 0.7235
3125.000000 0.7257 0.7279 0.7302 0.7323 0.7345
3120.000000 0.7367 0.7382 0.7400 0.7414 0.7428
3115.000000 0.7444 0.7458 0.7472 0.7486 0.7501
3110.000000 0.7515 0.7528 0.7539 0.7559 0.7576
3105.000000 0.7590 0.7602 0.7615 0.7629 0.7640
3100.000000 0.7663 0.7677 0.7690 0.7709 0.7729
3095.000000 0.7750 0.7758 0.7767 0.7775 0.7773
3090.000000 0.7779 0.7777 0.7778 0.7790 0.7802
3085.000000 0.7799 0.7800 0.7806 0.7813 0.7822
3080.000000 0.7830 0.7837 0.7852 0.7871 0.7882
3075.000000 0.7891 0.7908 0.7917 0.7914 0.7918
3070.000000 0.7923 0.7916 0.7933 0.7927 0.7933
3065.000000 0.7939 0.7942 0.7935 0.7940 0.7942
3060.000000 0.7950 0.7961 0.7965 0.7963 0.7960
3055.000000 0.7969 0.7972 0.7970 0.7974 0.7984
3050.000000 0.7992 0.7994 0.7997 0.7998 0.8009
3045.000000 0.8012 0.8023 0.8036 0.8050 0.8062
3040.000000 0.8073 0.8073 0.8073 0.8071 0.8057
3035.000000 0.8047 0.8044 0.8031 0.8021 0.8016
3030.000000 0.8006 0.7990 0.7982 0.7966 0.7952
3025.000000 0.7934 0.7917 0.7899 0.7883 0.7865
3020.000000 0.7847 0.7812 0.7773 0.7731 0.7680
3015.000000 0.7615 0.7552 0.7456 0.7362 0.7313
3010.000000 0.7266 0.7218 0.7169 0.7104 0.7052
3005.000000 0.6992 0.6925 0.6855 0.6783 0.6716
3000.000000 0.6656 0.6580 0.6500 0.6288 0.6077
2995.000000 0.5863 0.5649 0.5220 0.4788 0.4731
2990.000000 0.4675 0.4626 0.4579 0.4490 0.4403
2985.000000 0.3950 0.3497 0.3043 0.2590 0.2136
2980.000000 0.1684 0.1356 0.1025 0.0872 0.0720
2975.000000 0.0612 0.0505 0.0421 0.0338 0.0288
2970.000000 0.0239 0.0205 0.0171 0.0151 0.0132
2965.000000 0.0119 0.0105 0.0092 0.0081 0.0070
2960.000000 0.0060 0.0048 0.0038 0.0026 0.0015
2955.000000 0.0010 0.0006 0.0006 0.0006 0.0011
2950.000000 0.0015 0.0020 0.0025 0.0041 0.0057
2945.000000 0.0073 0.0091 0.0109 0.0127 0.0145
2940.000000 0.0164 0.0182 0.0200 0.0218 0.0236
2935.000000 0.0254 0.0272 0.0297 0.0323 0.0349
2930.000000 0.0377 0.0403 0.0429 0.0458 0.0489
2925.000000 0.0519 0.0550 0.0573 0.0597 0.0623
2920.000000 0.0652 0.0672 0.0693 0.0704 0.0717
2915.000000 0.0717 0.0717 0.0706 0.0697 0.0687
2910.000000 0.0679 0.0669 0.0662 0.0658 0.0653
2905.000000 0.0651 0.0650 0.0653 0.0656 0.0681
2900.000000 0.0707 0.0750 0.0794 0.0826 0.0857
2895.000000 0.0887 0.0921 0.0959 0.0997 0.1050
2890.000000 0.1102 0.1126 0.1150 0.1164 0.1178
2885.000000 0.1178 0.1212 0.1171 0.1165 0.1134
2880.000000 0.1102 0.1063 0.1025 0.0840 0.0658
2875.000000 0.0604 0.0552 0.0509 0.0466 0.0390
2870.000000 0.0313 0.0309 0.0307 0.0303 0.0302
2865.000000 0.0302 0.0304 0.0333 0.0366 0.0478
2860.000000 0.0591 0.0710 0.0830 0.1026 0.1223
2855.000000 0.1361 0.1497 0.1947 0.2396 0.2541
2850.000000 0.2686 0.2836 0.2986 0.3103 0.3223
2845.000000 0.3334 0.3444 0.3531 0.3623 0.3698
2840.000000 0.3772 0.3837 0.3906 0.3986 0.4061
2835.000000 0.4372 0.4686 0.4788 0.4890 0.4940
2830.000000 0.4992 0.5049 0.5095 0.5149 0.5198
2825.000000 0.5226 0.5261 0.5304 0.5333 0.5376
2820.000000 0.5411 0.5442 0.5467 0.5498 0.5529
2815.000000 0.5560 0.5592 0.5623 0.5655 0.5701
2810.000000 0.5747 0.5829 0.5918 0.6011 0.6100
2805.000000 0.6160 0.6221 0.6268 0.6315 0.6362
2800.000000 0.6410 0.6455 0.6503 0.6549 0.6596
2795.000000 0.6645 0.6694 0.6757 0.6818 0.6861
2790.000000 0.6917 0.6941 0.6973 0.7004 0.7034
2785.000000 0.7059 0.7085 0.7099 0.7113 0.7138
2780.000000 0.7164 0.7180 0.7197 0.7215 0.7233
2775.000000 0.7249 0.7266 0.7281 0.7295 0.7309
2770.000000 0.7325 0.7339 0.7354 0.7367 0.7380
2765.000000 0.7393 0.7422 0.7411 0.7412 0.7414
2760.000000 0.7414 0.7416 0.7417 0.7417 0.7417
2755.000000 0.7414 0.7411 0.7407 0.7404 0.7402
2750.000000 0.7400 0.7396 0.7396 0.7396 0.7400
2745.000000 0.7406 0.7411 0.7420 0.7428 0.7438
2740.000000 0.7448 0.7459 0.7470 0.7478 0.7488
2735.000000 0.7496 0.7505 0.7512 0.7521 0.7530
2730.000000 0.7538 0.7545 0.7553 0.7560 0.7570
2725.000000 0.7564 0.7563 0.7540 0.7518 0.7455
2720.000000 0.7394 0.7338 0.7282 0.7249 0.7215
2715.000000 0.7204 0.7192 0.7187 0.7185 0.7183
2710.000000 0.7183 0.7185 0.7186 0.7193 0.7165
2705.000000 0.7238 0.7275 0.7321 0.7367 0.7410
2700.000000 0.7455 0.7493 0.7530 0.7567 0.7605
2695.000000 0.7641 0.7678 0.7714 0.7751 0.7790
2690.000000 0.7828 0.7863 0.7902 0.7933 0.7968
2685.000000 0.7989 0.8012 0.8032 0.8055 0.8076
2680.000000 0.8099 0.8120 0.8142 0.8163 0.8184
2675.000000 0.8198 0.8213 0.8227 0.8240 0.8255
2670.000000 0.8269 0.8282 0.8297 0.8309 0.8321
2665.000000 0.8327 0.8334 0.8342 0.8349 0.8357
2660.000000 0.8365 0.8372 0.8381 0.8399 0.8406
2655.000000 0.8408 0.8410 0.8412 0.8416 0.8412
2650.000000 0.8407 0.8410 0.8417 0.8426 0.8428
2645.000000 0.8422 0.8419 0.8421 0.8432 0.8427
2640.000000 0.8426 0.8428 0.8430 0.8431 0.8436
2635.000000 0.8438 0.8451 0.8454 0.8454 0.8446
2630.000000 0.8451 0.8462 0.8465 0.8468 0.8469
2625.000000 0.8472 0.8475 0.8477 0.8479 0.8481
2620.000000 0.8483 0.8485 0.8489 0.8491 0.8493
2615.000000 0.8495 0.8496 0.8499 0.8502 0.8503
2610.000000 0.8506 0.8507 0.8510 0.8513 0.8515
2605.000000 0.8517 0.8520 0.8521 0.8524 0.8526
2600.000000 0.8528 0.8530 0.8532 0.8534 0.8537
2595.000000 0.8539 0.8542 0.8544 0.8546 0.8548
2590.000000 0.8550 0.8552 0.8554 0.8555 0.8558
2585.000000 0.8559 0.8563 0.8565 0.8566 0.8569
2580.000000 0.8570 0.8573 0.8576 0.8584 0.8590
2575.000000 0.8595 0.8601 0.8608 0.8614 0.8618
2570.000000 0.8625 0.8634 0.8643 0.8653 0.8662
2565.000000 0.8670 0.8680 0.8689 0.8699 0.8707
2560.000000 0.8716 0.8723 0.8730 0.8735 0.8742
2555.000000 0.8748 0.8754 0.8759 0.8766 0.8771
2550.000000 0.8777 0.8782 0.8789 0.8794 0.8800
2545.000000 0.8806 0.8813 0.8818 0.8824 0.8827
2540.000000 0.8831 0.8834 0.8837 0.8838 0.8841
2535.000000 0.8843 0.8846 0.8848 0.8850 0.8852
2530.000000 0.8856 0.8858 0.8860 0.8862 0.8865
2525.000000 0.8867 0.8869 0.8871 0.8874 0.8876
2520.000000 0.8879 0.8880 0.8883 0.8886 0.8887
2515.000000 0.8890 0.8892 0.8894 0.8897 0.8899
2510.000000 0.8901 0.8904 0.8907 0.8908 0.8909
2505.000000 0.8910 0.8911 0.8912 0.8913 0.8914
2500.000000 0.8915 0.8915 0.8916 0.8917 0.8918
2495.000000 0.8919 0.8920 0.8921 0.8922 0.8923
2490.000000 0.8924 0.8925 0.8926 0.8927 0.8928
2485.000000 0.8929 0.8931 0.8932 0.8932 0.8940
2480.000000 0.8947 0.8947 0.8947 0.8947 0.8947
2475.000000 0.8947 0.8947 0.8947 0.8947 0.8946
2470.000000 0.8948 0.8948 0.8948 0.8947 0.8947
2465.000000 0.8947 0.8947 0.8947 0.8947 0.8947
2460.000000 0.8947 0.8947 0.8941 0.8941 0.8940
2455.000000 0.8934 0.8934 0.8943 0.8947 0.8947
2450.000000 0.8937 0.8945 0.8947 0.8947 0.8947
2445.000000 0.8947 0.8947 0.8947 0.8947 0.8947
2440.000000 0.8947 0.8947 0.8947 0.8947 0.8947
2435.000000 0.8947 0.8947 0.8947 0.8947 0.8947
2430.000000 0.8946 0.8944 0.8943 0.8942 0.8941
2425.000000 0.8939 0.8938 0.8936 0.8935 0.8933
2420.000000 0.8932 0.8931 0.8930 0.8929 0.8928
2415.000000 0.8926 0.8925 0.8924 0.8923 0.8921
2410.000000 0.8919 0.8922 0.8926 0.8920 0.8927
2405.000000 0.8926 0.8925 0.8924 0.8923 0.8921
2400.000000 0.8920 0.8919 0.8918 0.8914 0.8914
2395.000000 0.8913 0.8911 0.8911 0.8910 0.8909
2390.000000 0.8909 0.8920 0.8920 0.8919 0.8919
2385.000000 0.8919 0.8930 0.8929 0.8932 0.8941
2380.000000 0.8939 0.8943 0.8951 0.8956 0.8962
2375.000000 0.8961 0.8968 0.8972 0.8972 0.8971
2370.000000 0.8970 0.8959 0.8956 0.8955 0.8954
2365.000000 0.8953 0.8953 0.8952 0.8951 0.8950
2360.000000 0.8962 0.8963 0.8973 0.8976 0.8989
2355.000000 0.9000 0.9000 0.9000 0.9000 0.8994
2350.000000 0.8986 0.8986 0.8994 0.9008 0.9014
2345.000000 0.9014 0.9005 0.9001 0.9001 0.9000
2340.000000 0.9000 0.8989 0.8999 0.9000 0.8988
2335.000000 0.8987 0.9000 0.9000 0.9000 0.9002
2330.000000 0.9014 0.9013 0.9013 0.9017 0.9027
2325.000000 0.9031 0.9040 0.9040 0.9040 0.9040
2320.000000 0.9040 0.9039 0.9038 0.9035 0.9034
2315.000000 0.9033 0.9032 0.9030 0.9029 0.9027
2310.000000 0.9026 0.9016 0.9006 0.8995 0.8983
2305.000000 0.8970 0.8958 0.8955 0.8952 0.8949
2300.000000 0.8945 0.8946 0.8952 0.8948 0.8944
2295.000000 0.8941 0.8938 0.8935 0.8934 0.8933
2290.000000 0.8935 0.8937 0.8931 0.8930 0.8933
2285.000000 0.8937 0.8940 0.8931 0.8933 0.8936
2280.000000 0.8940 0.8942 0.8934 0.8941 0.8947
2275.000000 0.8942 0.8949 0.8955 0.8957 0.8953
2270.000000 0.8961 0.8962 0.8962 0.8968 0.8974
2265.000000 0.8973 0.8974 0.8980 0.8988 0.8985
2260.000000 0.8987 0.8994 0.8990 0.8994 0.9002
2255.000000 0.9007 0.9001 0.9001 0.9004 0.9005
2250.000000 0.8995 0.8997 0.8999 0.9001 0.9003
2245.000000 0.9000 0.8993 0.8994 0.8996 0.8998
2240.000000 0.9000 0.9001 0.9003 0.9005 0.9008
2235.000000 0.9000 0.8998 0.8999 0.9001 0.9003
2230.000000 0.9005 0.9006 0.9007 0.9010 0.9012
2225.000000 0.9014 0.9016 0.9017 0.9018 0.9010
2220.000000 0.9012 0.9014 0.9016 0.9018 0.9020
2215.000000 0.9022 0.9024 0.9026 0.9028 0.9030
2210.000000 0.9032 0.9034 0.9036 0.9038 0.9040
2205.000000 0.9042 0.9044 0.9046 0.9048 0.9049
2200.000000 0.9052 0.9053 0.9056 0.9056 0.9057
2195.000000 0.9048 0.9061 0.9059 0.9050 0.9051
2190.000000 0.9052 0.9053 0.9054 0.9055 0.9056
2185.000000 0.9057 0.9065 0.9064 0.9060 0.9060
2180.000000 0.9061 0.9062 0.9073 0.9077 0.9078
2175.000000 0.9079 0.9080 0.9081 0.9082 0.9083
2170.000000 0.9084 0.9084 0.9073 0.9073 0.9073
2165.000000 0.9073 0.9072 0.9071 0.9071 0.9070
2160.000000 0.9070 0.9069 0.9068 0.9067 0.9067
2155.000000 0.9066 0.9065 0.9064 0.9064 0.9063
2150.000000 0.9063 0.9062 0.9061 0.9059 0.9059
2145.000000 0.9058 0.9057 0.9056 0.9056 0.9053
2140.000000 0.9050 0.9047 0.9043 0.9039 0.9037
2135.000000 0.9034 0.9031 0.9028 0.9025 0.9022
2130.000000 0.9018 0.9015 0.9012 0.9009 0.9006
2125.000000 0.8998 0.8992 0.8982 0.8961 0.8960
2120.000000 0.8952 0.8943 0.8933 0.8924 0.8914
2115.000000 0.8907 0.8900 0.8897 0.8893 0.8891
2110.000000 0.8889 0.8888 0.8887 0.8885 0.8885
2105.000000 0.8885 0.8885 0.8884 0.8884 0.8884
2100.000000 0.8884 0.8882 0.8872 0.8869 0.8879
2095.000000 0.8881 0.8869 0.8878 0.8880 0.8877
2090.000000 0.8877 0.8881 0.8882 0.8885 0.8889
2085.000000 0.8891 0.8894 0.8896 0.8899 0.8900
2080.000000 0.8902 0.8904 0.8905 0.8901 0.8898
2075.000000 0.8895 0.8893 0.8890 0.8887 0.8883
2070.000000 0.8880 0.8877 0.8874 0.8872 0.8869
2065.000000 0.8866 0.8862 0.8859 0.8856 0.8857
2060.000000 0.8858 0.8859 0.8860 0.8864 0.8876
2055.000000 0.8877 0.8878 0.8879 0.8875 0.8874
2050.000000 0.8882 0.8877 0.8872 0.8874 0.8876
2045.000000 0.8877 0.8881 0.8883 0.8884 0.8887
2040.000000 0.8890 0.8893 0.8895 0.8897 0.8900
2035.000000 0.8902 0.8905 0.8907 0.8909 0.8911
2030.000000 0.8914 0.8914 0.8919 0.8925 0.8918
2025.000000 0.8923 0.8931 0.8933 0.8934 0.8934
2020.000000 0.8935 0.8936 0.8937 0.8937 0.8938
2015.000000 0.8939 0.8939 0.8939 0.8941 0.8942
2010.000000 0.8942 0.8942 0.8944 0.8945 0.8946
2005.000000 0.8946 0.8946 0.8948 0.8949 0.8949
2000.000000 0.8951 0.8952 0.8948 0.8941 0.8942
1995.000000 0.8943 0.8944 0.8945 0.8950 0.8955
1990.000000 0.8960 0.8964 0.8969 0.8974 0.8967
1985.000000 0.8970 0.8975 0.8979 0.8983 0.8987
1980.000000 0.8990 0.8993 0.8984 0.8988 0.8991
1975.000000 0.8996 0.8999 0.9003 0.9004 0.9004
1970.000000 0.9004 0.9004 0.9003 0.9003 0.9009
1965.000000 0.9007 0.9000 0.9005 0.9003 0.8999
1960.000000 0.8995 0.8991 0.8986 0.8982 0.8978
1955.000000 0.8975 0.8959 0.8958 0.8955 0.8951
1950.000000 0.8948 0.8934 0.8935 0.8935 0.8937
1945.000000 0.8938 0.8941 0.8941 0.8945 0.8946
1940.000000 0.8949 0.8951 0.8953 0.8955 0.8957
1935.000000 0.8959 0.8960 0.8962 0.8964 0.8966
1930.000000 0.8967 0.8969 0.8972 0.8974 0.8975
1925.000000 0.8975 0.8972 0.8971 0.8969 0.8968
1920.000000 0.8966 0.8965 0.8963 0.8962 0.8960
1915.000000 0.8959 0.8958 0.8957 0.8957 0.8957
1910.000000 0.8956 0.8956 0.8956 0.8964 0.8968
1905.000000 0.8968 0.8969 0.8971 0.8973 0.8975
1900.000000 0.8977 0.8979 0.8981 0.8983 0.8985
1895.000000 0.8986 0.8988 0.8990 0.8992 0.8990
1890.000000 0.8981 0.8981 0.8980 0.8980 0.8980
1885.000000 0.8980 0.8988 0.8992 0.8992 0.8992
1880.000000 0.8992 0.8992 0.8991 0.8990 0.8989
1875.000000 0.9000 0.8999 0.8998 0.8996 0.8995
1870.000000 0.8994 0.8992 0.8991 0.8988 0.8987
1865.000000 0.8985 0.8984 0.8983 0.8981 0.8980
1860.000000 0.8978 0.8977 0.8974 0.8980 0.8974
1855.000000 0.8966 0.8963 0.8962 0.8959 0.8957
1850.000000 0.8955 0.8953 0.8951 0.8948 0.8946
1845.000000 0.8945 0.8943 0.8941 0.8939 0.8937
1840.000000 0.8935 0.8933 0.8932 0.8932 0.8928
1835.000000 0.8921 0.8922 0.8923 0.8924 0.8924
1830.000000 0.8925 0.8926 0.8927 0.8928 0.8929
1825.000000 0.8930 0.8931 0.8932 0.8933 0.8935
1820.000000 0.8936 0.8950 0.8952 0.8953 0.8955
1815.000000 0.8956 0.8957 0.8960 0.8961 0.8962
1810.000000 0.8962 0.8951 0.8938 0.8934 0.8929
1805.000000 0.8923 0.8911 0.8900 0.8895 0.8891
