##TITLE=TRIMETHYLVINYLSILANE
##JCAMP-DX=4.24
##DATA TYPE=INFRARED SPECTRUM
##CLASS=COBLENTZ III
##ORIGIN=DOW CORNING CORP.
##OWNER=COBLENTZ SOCIETY
Collection (C) 2018 copyright by the U.S. Secretary of Commerce
on behalf of the United States of America. All rights reserved.
##DATE=1965/01/15
##NAMES=trimethyl(vinyl)silane
##CAS REGISTRY NO=754-05-2
##MOLFORM=C5 H12 Si
##BP=55 C
##SOURCE REFERENCE=COBLENTZ NO. 5533
##$NIST SOURCE=COBLENTZ
##$NIST IMAGE=cob5533
##SPECTROMETER/DATA SYSTEM=PERKIN-ELMER 521 (GRATING)
##INSTRUMENT PARAMETERS=FILTERS AT 3150, 2500, 2000, 1150, 700, 410. GRATING CHANGES: 2000, 630 CM^-^1
##STATE=SOLUTION (10% IN CCl4 FOR 3800-1000, 5% IN CS2 FOR 1300-400, AND 10% IN CCl4 FOR 600-210 CM^-^1)
##PATH LENGTH=0.011 CM, 0.011 CM, AND 0.020 CM
##SAMPLING PROCEDURE=TRANSMISSION
##RESOLUTION=2
##DATA PROCESSING=DIGITIZED BY NIST FROM HARD COPY (FROM TWO SEGMENTS)
##XUNITS=1/CM
##YUNITS=TRANSMITTANCE
##XFACTOR=1.000000
##YFACTOR=1
##DELTAX=0.938418
##FIRSTX=210.44
##LASTX=3795.2
##FIRSTY=0.937
##MAXX=3795.2
##MINX=210.44
##MAXY=0.947
##MINY=0.022
##NPOINTS=3821
##XYDATA=(X++(Y..Y))
210.440000 0.9370 0.9360 0.9340 0.9340 0.9370
215.132091 0.9360 0.9340 0.9340 0.9340 0.9340
219.824181 0.9340 0.9360 0.9360 0.9360 0.9360
224.516272 0.9360 0.9360 0.9340 0.9340 0.9340
229.208362 0.9330 0.9330 0.9330 0.9320 0.9320
233.900453 0.9320 0.9320 0.9320 0.9320 0.9330
238.592544 0.9330 0.9340 0.9340 0.9360 0.9360
243.284634 0.9370 0.9370 0.9370 0.9370 0.9370
247.976725 0.9370 0.9370 0.9370 0.9370 0.9360
252.668816 0.9360 0.9360 0.9360 0.9360 0.9360
257.360906 0.9360 0.9360 0.9360 0.9360 0.9360
262.052997 0.9360 0.9360 0.9360 0.9360 0.9360
266.745087 0.9360 0.9360 0.9360 0.9360 0.9360
271.437178 0.9360 0.9360 0.9340 0.9340 0.9340
276.129269 0.9340 0.9340 0.9340 0.9340 0.9340
280.821359 0.9340 0.9340 0.9340 0.9340 0.9330
285.513450 0.9330 0.9340 0.9340 0.9340 0.9360
290.205540 0.9360 0.9370 0.9370 0.9370 0.9380
294.897631 0.9380 0.9380 0.9380 0.9380 0.9380
299.589722 0.9380 0.9370 0.9370 0.9360 0.9340
304.281812 0.9330 0.9330 0.9330 0.9320 0.9320
308.973903 0.9320 0.9310 0.9310 0.9310 0.9300
313.665994 0.9290 0.9290 0.9270 0.9270 0.9260
318.358084 0.9260 0.9250 0.9250 0.9240 0.9230
323.050175 0.9220 0.9170 0.9130 0.9080 0.9040
327.742265 0.9000 0.9010 0.8980 0.8940 0.8900
332.434356 0.8880 0.8870 0.8870 0.8860 0.8840
337.126447 0.8810 0.8790 0.8740 0.8670 0.8610
341.818537 0.8530 0.8440 0.8360 0.8260 0.8160
346.510628 0.8030 0.7900 0.7651 0.7451 0.7201
351.202719 0.7000 0.6630 0.5470 0.5290 0.5050
355.894809 0.4830 0.4601 0.4520 0.4380 0.4370
360.586900 0.4730 0.5080 0.5100 0.5519 0.5939
365.278990 0.6429 0.6829 0.7189 0.7499 0.7739
369.971081 0.7840 0.7950 0.8120 0.8250 0.8370
374.663172 0.8450 0.8520 0.8580 0.8630 0.8680
379.355262 0.8720 0.8740 0.8740 0.8770 0.8800
384.047353 0.8820 0.8860 0.8900 0.8900 0.8910
388.739443 0.8930 0.8930 0.8940 0.8950 0.8950
393.431534 0.8960 0.8970 0.8970 0.8980 0.9000
398.123625 0.9000 0.9010 0.9020 0.9020 0.9030
402.815715 0.9030 0.9030 0.9020 0.9030 0.9030
407.507806 0.9030 0.9020 0.9010 0.9010 0.9000
412.199897 0.9000 0.8980 0.8980 0.8970 0.8970
416.891987 0.8980 0.9010 0.9030 0.9050 0.9050
421.584078 0.9040 0.9040 0.9040 0.9040 0.9030
426.276168 0.9030 0.9030 0.9030 0.9040 0.9040
430.968259 0.9050 0.9050 0.9060 0.9060 0.9080
435.660350 0.9090 0.9100 0.9110 0.9120 0.9130
440.352440 0.9130 0.9130 0.9130 0.9120 0.9130
445.044531 0.9130 0.9130 0.9130 0.9130 0.9130
449.736621 0.9120 0.9100 0.9100 0.9090 0.9080
454.428712 0.9060 0.9050 0.9050 0.9040 0.9030
459.120803 0.9020 0.9000 0.9000 0.8980 0.8970
463.812893 0.8960 0.8950 0.8940 0.8940 0.8930
468.504984 0.8910 0.8900 0.8890 0.8870 0.8860
473.197075 0.8840 0.8830 0.8810 0.8800 0.8790
477.889165 0.8770 0.8740 0.8700 0.8660 0.8620
482.581256 0.8590 0.8540 0.8510 0.8500 0.8470
487.273346 0.8440 0.8370 0.8310 0.8270 0.8101
491.965437 0.7970 0.7890 0.7830 0.7730 0.7630
496.657528 0.7540 0.7390 0.7231 0.7081 0.6911
501.349618 0.6760 0.6610 0.6450 0.6300 0.6180
506.041709 0.6080 0.5462 0.5161 0.4433 0.4261
510.733800 0.4060 0.3870 0.3670 0.3060 0.2820
515.425890 0.2580 0.2341 0.2101 0.1861 0.1860
520.117981 0.1950 0.2380 0.2750 0.3150 0.3530
524.810071 0.3750 0.4359 0.4879 0.5309 0.5629
529.502162 0.5950 0.6290 0.6700 0.6800 0.7130
534.194253 0.7290 0.7480 0.7620 0.7750 0.7860
538.886343 0.7880 0.7960 0.8030 0.8090 0.8160
543.578434 0.8220 0.8260 0.8320 0.8370 0.8410
548.270524 0.8460 0.8500 0.8530 0.8560 0.8600
552.962615 0.8620 0.8650 0.8670 0.8680 0.8690
557.654706 0.8700 0.8720 0.8730 0.8740 0.8740
562.346796 0.8750 0.8750 0.8760 0.8760 0.8770
567.038887 0.8770 0.8770 0.8770 0.8770 0.8770
571.730978 0.8770 0.8770 0.8760 0.8760 0.8750
576.423068 0.8740 0.8730 0.8720 0.8700 0.8680
581.115159 0.8630 0.8610 0.8610 0.8600 0.8600
585.807249 0.8600 0.8620 0.8670 0.8690 0.8830
590.499340 0.8900 0.8950 0.8970 0.8980 0.9000
595.191431 0.9010 0.9020 0.9030 0.9030 0.9040
599.883521 0.9040 0.9050 0.9050 0.9060 0.9080
604.575612 0.9080 0.9090 0.9090 0.9100 0.9110
609.267702 0.9110 0.9110 0.9110 0.9110 0.9120
613.959793 0.9120 0.9120 0.9120 0.9120 0.9120
618.651884 0.9120 0.9120 0.9120 0.9120 0.9110
623.343974 0.9110 0.9110 0.9100 0.9100 0.9100
628.036065 0.9090 0.9090 0.9080 0.9080 0.9080
632.728156 0.9060 0.9050 0.9040 0.9030 0.9020
637.420246 0.9010 0.9000 0.9000 0.8980 0.8970
642.112337 0.8960 0.8950 0.8910 0.8910 0.8900
646.804427 0.8880 0.8860 0.8810 0.8720 0.8630
651.496518 0.8580 0.8530 0.8470 0.8400 0.8310
656.188609 0.8130 0.8020 0.7960 0.7880 0.7721
660.880699 0.6950 0.6670 0.6400 0.6130 0.5870
665.572790 0.5331 0.5061 0.4801 0.4680 0.4252
670.264880 0.4251 0.5150 0.5160 0.5600 0.6030
674.956971 0.6050 0.6240 0.6439 0.6669 0.6819
679.649062 0.6820 0.6740 0.6530 0.6260 0.6220
684.341152 0.5940 0.5441 0.5171 0.4901 0.4681
689.033243 0.4360 0.4361 0.5060 0.5240 0.5380
693.725334 0.5510 0.5979 0.6429 0.6689 0.6999
698.417424 0.7180 0.7370 0.7520 0.7650 0.7700
703.109515 0.7750 0.7830 0.7910 0.7970 0.8030
707.801605 0.8060 0.8110 0.8150 0.8180 0.8200
712.493696 0.8220 0.8220 0.8220 0.8220 0.8220
717.185787 0.8190 0.8180 0.8180 0.8160 0.8150
721.877877 0.8120 0.8110 0.8100 0.8100 0.8090
726.569968 0.8090 0.8080 0.8040 0.8020 0.7930
731.262059 0.7870 0.7820 0.7720 0.7650 0.7590
735.954149 0.7510 0.7390 0.7310 0.6720 0.6510
740.646240 0.6300 0.6100 0.5891 0.5481 0.4962
745.338330 0.4589 0.4190 0.3820 0.3060 0.2680
750.030421 0.2310 0.1931 0.1551 0.1550 0.1929
754.722512 0.2321 0.2720 0.3090 0.3450 0.3800
759.414602 0.4030 0.4040 0.4589 0.5428 0.5899
764.106693 0.6370 0.6590 0.6700 0.6790 0.7040
768.798783 0.7170 0.7310 0.7380 0.7460 0.7470
773.490874 0.7510 0.7520 0.7630 0.7750 0.7790
778.182965 0.7790 0.7800 0.7800 0.7800 0.7800
782.875055 0.7790 0.7790 0.7700 0.7670 0.7620
787.567146 0.7590 0.7550 0.7530 0.7500 0.7450
792.259237 0.7440 0.7430 0.7410 0.7400 0.7390
796.951327 0.7380 0.7230 0.6971 0.6800 0.6651
801.643418 0.6580 0.6470 0.6400 0.6360 0.6250
806.335508 0.6180 0.6110 0.6050 0.5970 0.5840
811.027599 0.5250 0.5170 0.5050 0.4760 0.4560
815.719690 0.4330 0.4190 0.4060 0.3940 0.2694
820.411780 0.2500 0.2300 0.2100 0.1900 0.1700
825.103871 0.0812 0.0690 0.0590 0.0480 0.0311
829.795961 0.0240 0.0230 0.0220 0.0220 0.0230
834.488052 0.0240 0.0290 0.0330 0.0380 0.0430
839.180143 0.0470 0.0500 0.0520 0.0520 0.0510
843.872233 0.0510 0.0480 0.0480 0.0470 0.0460
848.564324 0.0450 0.0440 0.0430 0.0430 0.0440
853.256415 0.0450 0.0480 0.0520 0.0550 0.0620
857.948505 0.0690 0.0870 0.0970 0.1060 0.1470
862.640596 0.1480 0.1750 0.2009 0.2269 0.2529
867.332686 0.2801 0.3120 0.3451 0.4400 0.4830
872.024777 0.5300 0.5440 0.5550 0.5670 0.5949
876.716868 0.6030 0.6120 0.6390 0.6510 0.6580
881.408958 0.6590 0.6760 0.6870 0.6970 0.7119
886.101049 0.7200 0.7270 0.7330 0.7410 0.7520
890.793139 0.7650 0.7730 0.7800 0.7810 0.7880
895.485230 0.7910 0.7940 0.7980 0.8020 0.8050
900.177321 0.8090 0.8120 0.8130 0.8160 0.8170
904.869411 0.8170 0.8180 0.8180 0.8190 0.8190
909.561502 0.8190 0.8190 0.8190 0.8190 0.8180
914.253593 0.8180 0.8180 0.8170 0.8160 0.8150
918.945683 0.8120 0.8100 0.8060 0.8020 0.7980
923.637774 0.7940 0.7890 0.7840 0.7790 0.7690
928.329864 0.7590 0.7470 0.7320 0.7160 0.6971
933.021955 0.6790 0.6600 0.6460 0.6300 0.6130
937.714046 0.5950 0.5750 0.4244 0.4031 0.3821
942.406136 0.3609 0.3200 0.2690 0.2590 0.2410
947.098227 0.2390 0.2410 0.2679 0.3149 0.3598
951.790318 0.5481 0.5890 0.6300 0.6660 0.6970
956.482408 0.7310 0.7580 0.7700 0.7820 0.8089
961.174499 0.8180 0.8310 0.8330 0.8380 0.8400
965.866589 0.8470 0.8540 0.8560 0.8580 0.8590
970.558680 0.8600 0.8610 0.8610 0.8610 0.8610
975.250771 0.8610 0.8600 0.8590 0.8590 0.8560
979.942861 0.8530 0.8510 0.8480 0.8460 0.8400
984.634952 0.8330 0.8290 0.8190 0.8130 0.8090
989.327042 0.7719 0.7190 0.7010 0.6820 0.6650
994.019133 0.6430 0.6200 0.5981 0.5761 0.5322
998.711224 0.4819 0.4290 0.3770 0.2740 0.2230
1003.403314 0.2230 0.2739 0.3009 0.3259 0.3788
1008.095405 0.4760 0.4770 0.5240 0.5690 0.6549
1012.787496 0.6690 0.6870 0.7010 0.7120 0.7230
1017.479586 0.7330 0.7430 0.7530 0.7630 0.7690
1022.171677 0.7750 0.7880 0.7910 0.7960 0.8020
1026.863767 0.8090 0.8150 0.8220 0.8260 0.8370
1031.555858 0.8380 0.8500 0.8550 0.8590 0.8610
1036.247949 0.8620 0.8630 0.8650 0.8660 0.8700
1040.940039 0.8720 0.8730 0.8740 0.8790 0.8810
1045.632130 0.8860 0.8880 0.8890 0.8890 0.8900
1050.324220 0.8900 0.8900 0.8900 0.8900 0.8900
1055.016311 0.8900 0.8910 0.8930 0.8940 0.8940
1059.708402 0.8950 0.8950 0.8950 0.8950 0.8950
1064.400492 0.8960 0.8970 0.8980 0.9000 0.9020
1069.092583 0.9030 0.9040 0.9060 0.9090 0.9110
1073.784674 0.9120 0.9120 0.9130 0.9150 0.9160
1078.476764 0.9170 0.9180 0.9190 0.9200 0.9220
1083.168855 0.9230 0.9240 0.9240 0.9250 0.9250
1087.860945 0.9250 0.9260 0.9260 0.9260 0.9260
1092.553036 0.9260 0.9260 0.9250 0.9250 0.9240
1097.245127 0.9240 0.9230 0.9230 0.9220 0.9200
1101.937217 0.9180 0.9160 0.9130 0.9120 0.9110
1106.629308 0.9100 0.9090 0.9080 0.9050 0.9030
1111.321399 0.9020 0.9010 0.9010 0.9010 0.9010
1116.013489 0.9020 0.9030 0.9050 0.9080 0.9110
1120.705580 0.9180 0.9190 0.9200 0.9200 0.9230
1125.397670 0.9240 0.9250 0.9250 0.9250 0.9250
1130.089761 0.9260 0.9260 0.9260 0.9260 0.9260
1134.781852 0.9260 0.9250 0.9240 0.9240 0.9230
1139.473942 0.9230 0.9220 0.9220 0.9220 0.9200
1144.166033 0.9200 0.9190 0.9190 0.9190 0.9180
1148.858123 0.9180 0.9180 0.9170 0.9170 0.9170
1153.550214 0.9170 0.9160 0.9160 0.9150 0.9130
1158.242305 0.9130 0.9120 0.9100 0.9090 0.9090
1162.934395 0.9080 0.9080 0.9060 0.9060 0.9050
1167.626486 0.9040 0.9040 0.9030 0.9030 0.9010
1172.318577 0.9020 0.9020 0.9020 0.9020 0.9020
1177.010667 0.9020 0.9020 0.9020 0.9020 0.9020
1181.702758 0.9020 0.9020 0.9020 0.9020 0.9020
1186.394848 0.9020 0.9020 0.9020 0.9010 0.9010
1191.086939 0.9010 0.9010 0.9010 0.9000 0.9000
1195.779030 0.9000 0.9000 0.8980 0.8960 0.8960
1200.471120 0.8940 0.8930 0.8900 0.8880 0.8860
1205.163211 0.8820 0.8800 0.8770 0.8750 0.8730
1209.855301 0.8660 0.8610 0.8580 0.8540 0.8510
1214.547392 0.8470 0.8390 0.8360 0.8300 0.8240
1219.239483 0.8170 0.8110 0.8050 0.7980 0.7930
1223.931573 0.7880 0.7610 0.7430 0.7200 0.6960
1228.623664 0.6720 0.6470 0.6250 0.6060 0.5930
1233.315755 0.5330 0.5100 0.4870 0.4580 0.4200
1238.007845 0.3031 0.2790 0.2371 0.1951 0.1531
1242.699936 0.0689 0.0300 0.0301 0.0940 0.1740
1247.392026 0.2530 0.2950 0.3359 0.3520 0.4188
1252.084117 0.4970 0.5040 0.5040 0.5050 0.5060
1256.776208 0.5060 0.5130 0.5200 0.5879 0.6548
1261.468298 0.6560 0.6620 0.6630 0.6650 0.6660
1266.160389 0.6670 0.6680 0.6680 0.6690 0.6700
1270.852479 0.6720 0.6740 0.6760 0.6760 0.6790
1275.544570 0.6860 0.7000 0.7090 0.7340 0.7609
1280.236661 0.7700 0.7800 0.7940 0.8020 0.8090
1284.928751 0.8130 0.8220 0.8300 0.8330 0.8440
1289.620842 0.8440 0.8440 0.8440 0.8440 0.8440
1294.312933 0.8440 0.8440 0.8440 0.8440 0.8440
1299.005023 0.8440 0.8440 0.8440 0.8440 0.8430
1303.697114 0.8430 0.8430 0.8430 0.8430 0.8430
1308.389204 0.8430 0.8430 0.8430 0.8430 0.8430
1313.081295 0.8430 0.8430 0.8430 0.8410 0.8410
1317.773386 0.8400 0.8400 0.8390 0.8380 0.8370
1322.465476 0.8360 0.8330 0.8320 0.8310 0.8300
1327.157567 0.8290 0.8260 0.8220 0.8180 0.8150
1331.849658 0.8130 0.8120 0.8110 0.8110 0.8110
1336.541748 0.8100 0.8100 0.8090 0.8060 0.8030
1341.233839 0.8030 0.8020 0.8020 0.8030 0.8030
1345.925929 0.8030 0.8020 0.8000 0.7970 0.7960
1350.618020 0.7960 0.7960 0.7950 0.7950 0.7940
1355.310111 0.7910 0.7890 0.7840 0.7810 0.7730
1360.002201 0.7690 0.7670 0.7660 0.7660 0.7650
1364.694292 0.7660 0.7660 0.7660 0.7650 0.7630
1369.386382 0.7610 0.7600 0.7580 0.7550 0.7530
1374.078473 0.7510 0.7480 0.7460 0.7440 0.7430
1378.770564 0.7400 0.7320 0.7270 0.7240 0.7170
1383.462654 0.7050 0.7030 0.7000 0.6960 0.6930
1388.154745 0.6700 0.6400 0.6300 0.6060 0.5950
1392.846836 0.5830 0.5720 0.5610 0.5380 0.5000
1397.538926 0.4700 0.4430 0.3012 0.2681 0.2361
1402.231017 0.2019 0.1689 0.1370 0.1370 0.1630
1406.923107 0.1980 0.2000 0.2509 0.3019 0.3269
1411.615198 0.3531 0.4022 0.5130 0.5400 0.5530
1416.307289 0.5650 0.5870 0.6050 0.6230 0.6390
1420.999379 0.6520 0.6630 0.6740 0.6820 0.6960
1425.691470 0.7040 0.7100 0.7110 0.7120 0.7120
1430.383560 0.7120 0.7120 0.7110 0.7100 0.7090
1435.075651 0.7060 0.7020 0.7000 0.7000 0.7010
1439.767742 0.7010 0.7020 0.7020 0.7030 0.7080
1444.459832 0.7090 0.7100 0.7160 0.7190 0.7230
1449.151923 0.7250 0.7270 0.7300 0.7310 0.7330
1453.844014 0.7370 0.7390 0.7440 0.7470 0.7530
1458.536104 0.7590 0.7670 0.7720 0.7750 0.7790
1463.228195 0.7810 0.7910 0.7950 0.7960 0.7970
1467.920285 0.7980 0.8030 0.8080 0.8120 0.8220
1472.612376 0.8360 0.8400 0.8430 0.8470 0.8500
1477.304467 0.8530 0.8580 0.8590 0.8600 0.8610
1481.996557 0.8620 0.8630 0.8650 0.8660 0.8670
1486.688648 0.8680 0.8680 0.8680 0.8690 0.8690
1491.380738 0.8700 0.8720 0.8720 0.8720 0.8720
1496.072829 0.8720 0.8720 0.8720 0.8720 0.8720
1500.764920 0.8720 0.8720 0.8720 0.8720 0.8720
1505.457010 0.8720 0.8720 0.8730 0.8730 0.8730
1510.149101 0.8730 0.8730 0.8720 0.8700 0.8700
1514.841192 0.8700 0.8690 0.8690 0.8690 0.8690
1519.533282 0.8690 0.8700 0.8700 0.8700 0.8700
1524.225373 0.8730 0.8760 0.8820 0.8870 0.8910
1528.917463 0.8940 0.8980 0.9050 0.9090 0.9100
1533.609554 0.9110 0.9130 0.9130 0.9180 0.9220
1538.301645 0.9250 0.9270 0.9300 0.9310 0.9300
1542.993735 0.9300 0.9310 0.9300 0.9300 0.9300
1547.685826 0.9290 0.9290 0.9270 0.9260 0.9260
1552.377917 0.9250 0.9240 0.9230 0.9230 0.9220
1557.070007 0.9200 0.9180 0.9180 0.9180 0.9170
1561.762098 0.9170 0.9160 0.9150 0.9150 0.9130
1566.454188 0.9120 0.9120 0.9110 0.9080 0.9040
1571.146279 0.8980 0.8950 0.8930 0.8900 0.8890
1575.838370 0.8880 0.8880 0.8870 0.8860 0.8830
1580.530460 0.8800 0.8750 0.8680 0.8660 0.8610
1585.222551 0.8510 0.8390 0.8300 0.8270 0.8030
1589.914641 0.7649 0.7470 0.7310 0.7130 0.7090
1594.606732 0.6950 0.6950 0.7250 0.7699 0.7810
1599.298823 0.7901 0.8231 0.8530 0.8670 0.8770
1603.990913 0.8810 0.8810 0.8820 0.8840 0.8860
1608.683004 0.8870 0.8880 0.8900 0.8910 0.8930
1613.375095 0.8940 0.8940 0.8940 0.8940 0.8940
1618.067185 0.8940 0.8940 0.8940 0.8940 0.8940
1622.759276 0.8930 0.8940 0.8940 0.8940 0.8940
1627.451366 0.8940 0.8940 0.8950 0.8960 0.8960
1632.143457 0.8960 0.8960 0.8960 0.8970 0.8970
1636.835548 0.8970 0.8970 0.8970 0.8970 0.8970
1641.527638 0.8970 0.8960 0.8950 0.8960 0.8970
1646.219729 0.8970 0.8980 0.8980 0.9000 0.9000
1650.911819 0.9000 0.9000 0.9000 0.9000 0.9000
1655.603910 0.9000 0.9000 0.9000 0.9000 0.9000
1660.296001 0.9000 0.9000 0.9000 0.9010 0.9010
1664.988091 0.9010 0.9010 0.9010 0.9020 0.9020
1669.680182 0.9020 0.9020 0.9020 0.9020 0.9020
1674.372273 0.9020 0.9020 0.9020 0.9020 0.9020
1679.064363 0.9020 0.9020 0.9020 0.9020 0.9020
1683.756454 0.9020 0.9030 0.9030 0.9030 0.9030
1688.448544 0.9040 0.9040 0.9040 0.9040 0.9040
1693.140635 0.9040 0.9040 0.9040 0.9040 0.9040
1697.832726 0.9040 0.9040 0.9040 0.9040 0.9040
1702.524816 0.9040 0.9040 0.9040 0.9040 0.9040
1707.216907 0.9040 0.9040 0.9050 0.9050 0.9050
1711.908998 0.9050 0.9050 0.9050 0.9050 0.9050
1716.601088 0.9050 0.9050 0.9050 0.9050 0.9050
1721.293179 0.9040 0.9040 0.9040 0.9040 0.9040
1725.985269 0.9040 0.9040 0.9040 0.9030 0.9040
1730.677360 0.9040 0.9040 0.9040 0.9040 0.9040
1735.369451 0.9040 0.9040 0.9040 0.9040 0.9040
1740.061541 0.9040 0.9050 0.9050 0.9050 0.9050
1744.753632 0.9050 0.9050 0.9050 0.9050 0.9050
1749.445722 0.9050 0.9050 0.9050 0.9050 0.9050
1754.137813 0.9050 0.9050 0.9050 0.9050 0.9050
1758.829904 0.9050 0.9050 0.9050 0.9050 0.9050
1763.521994 0.9060 0.9060 0.9060 0.9060 0.9060
1768.214085 0.9080 0.9080 0.9080 0.9080 0.9080
1772.906176 0.9080 0.9080 0.9080 0.9080 0.9080
1777.598266 0.9080 0.9080 0.9080 0.9080 0.9080
1782.290357 0.9080 0.9080 0.9080 0.9080 0.9090
1786.982447 0.9090 0.9090 0.9090 0.9090 0.9090
1791.674538 0.9090 0.9090 0.9090 0.9090 0.9090
1796.366629 0.9090 0.9090 0.9080 0.9080 0.9080
1801.058719 0.9080 0.9080 0.9080 0.9080 0.9080
1805.750810 0.9080 0.9080 0.9080 0.9060 0.9060
1810.442900 0.9060 0.9050 0.9050 0.9050 0.9040
1815.134991 0.9030 0.9030 0.9020 0.9010 0.9000
1819.827082 0.8970 0.8970 0.8960 0.8950 0.8940
1824.519172 0.8930 0.8910 0.8890 0.8870 0.8830
1829.211263 0.8810 0.8790 0.8790 0.8770 0.8790
1833.903354 0.8830 0.8880 0.8880 0.8900 0.8910
1838.595444 0.8930 0.8940 0.8940 0.8940 0.8940
1843.287535 0.8940 0.8940 0.8940 0.8940 0.8940
1847.979625 0.8940 0.8940 0.8940 0.8940 0.8940
1852.671716 0.8940 0.8940 0.8940 0.8940 0.8940
1857.363807 0.8940 0.8950 0.8950 0.8960 0.8960
1862.055897 0.8970 0.8970 0.8980 0.9000 0.9010
1866.747988 0.9020 0.9020 0.9030 0.9030 0.9040
1871.440078 0.9030 0.9030 0.9000 0.8950 0.8940
1876.132169 0.8910 0.8910 0.8900 0.8900 0.8890
1880.824260 0.8890 0.8880 0.8880 0.8870 0.8830
1885.516350 0.8820 0.8810 0.8810 0.8810 0.8790
1890.208441 0.8760 0.8700 0.8660 0.8610 0.8580
1894.900532 0.8540 0.8500 0.8450 0.8380 0.8290
1899.592622 0.8230 0.8160 0.8090 0.8030 0.7960
1904.284713 0.7900 0.7870 0.7830 0.7820 0.7830
1908.976803 0.7880 0.7950 0.8020 0.8090 0.8170
1913.668894 0.8260 0.8340 0.8380 0.8510 0.8520
1918.360985 0.8520 0.8520 0.8530 0.8550 0.8550
1923.053075 0.8560 0.8590 0.8600 0.8620 0.8630
1927.745166 0.8630 0.8630 0.8630 0.8630 0.8620
1932.437257 0.8600 0.8610 0.8600 0.8590 0.8580
1937.129347 0.8560 0.8550 0.8550 0.8580 0.8600
1941.821438 0.8610 0.8650 0.8660 0.8660 0.8670
1946.513528 0.8680 0.8700 0.8720 0.8730 0.8740
1951.205619 0.8760 0.8770 0.8790 0.8770 0.8810
1955.897710 0.8820 0.8820 0.8830 0.8830 0.8860
1960.589800 0.8870 0.8880 0.8890 0.8910 0.8910
1965.281891 0.8910 0.8930 0.8930 0.8940 0.8940
1969.973981 0.8940 0.8950 0.8950 0.8960 0.8960
1974.666072 0.8960 0.8960 0.8960 0.8970 0.8980
1979.358163 0.8980 0.8980 0.8980 0.8980 0.8980
1984.050253 0.8980 0.8960 0.8960 0.8960 0.8960
1988.742344 0.8960 0.8960 0.8960 0.8960 0.8960
1993.434435 0.8960 0.8970 0.8970 0.8980 0.9000
1998.126525 0.9010 0.9020 0.9040 0.9040 0.9040
2002.818616 0.9050 0.9060 0.9075 0.9090 0.9095
2007.510706 0.9101 0.9116 0.9131 0.9141 0.9150
2012.202797 0.9155 0.9160 0.9165 0.9170 0.9175
2016.894888 0.9180 0.9186 0.9191 0.9196 0.9201
2021.586978 0.9211 0.9221 0.9226 0.9229 0.9224
2026.279069 0.9221 0.9226 0.9230 0.9230 0.9231
2030.971159 0.9236 0.9240 0.9240 0.9241 0.9246
2035.663250 0.9250 0.9250 0.9250 0.9250 0.9250
2040.355341 0.9250 0.9250 0.9250 0.9250 0.9250
2045.047431 0.9250 0.9250 0.9249 0.9244 0.9239
2049.739522 0.9234 0.9229 0.9224 0.9220 0.9220
2054.431613 0.9217 0.9207 0.9200 0.9200 0.9198
2059.123703 0.9193 0.9190 0.9190 0.9188 0.9183
2063.815794 0.9180 0.9180 0.9178 0.9173 0.9170
2068.507884 0.9170 0.9168 0.9163 0.9160 0.9160
2073.199975 0.9154 0.9138 0.9130 0.9130 0.9128
2077.892066 0.9123 0.9120 0.9120 0.9118 0.9113
2082.584156 0.9110 0.9110 0.9107 0.9102 0.9100
2087.276247 0.9100 0.9100 0.9100 0.9100 0.9100
2091.968338 0.9103 0.9108 0.9110 0.9110 0.9113
2096.660428 0.9118 0.9123 0.9128 0.9130 0.9130
2101.352519 0.9136 0.9146 0.9150 0.9150 0.9153
2106.044609 0.9158 0.9163 0.9168 0.9173 0.9178
