##TITLE=2-BUTENE, 1,4-DICHLORO-
##JCAMP-DX=4.24
##DATA TYPE=INFRARED SPECTRUM
##CLASS=COBLENTZ III
##ORIGIN=DOW CHEMICAL COMPANY
##OWNER=COBLENTZ SOCIETY
Collection (C) 2018 copyright by the U.S. Secretary of Commerce
on behalf of the United States of America. All rights reserved.
##DATE=1963/11/12
##NAMES=(2E)-1,4-dichloro-2-butene
##CAS REGISTRY NO=764-41-0
##MOLFORM=C4 H6 Cl2
##SOURCE REFERENCE=COBLENTZ NO. 10039
##$NIST SOURCE=COBLENTZ
##$NIST IMAGE=cob10039
##SPECTROMETER/DATA SYSTEM=DOW KBr FOREPRISM-GRATING
##INSTRUMENT PARAMETERS=BLAZED AT 3.5, 12.0, 20.0 MICRON, CHANGED AT 5.0, 7.5, 14.9 MICRON
##STATE=SOLUTION (10% IN CCl4 FOR 3800-1333 AND 10% IN CS2 FOR 1333-400 CM^-^1)
##PATH LENGTH=0.011, 0.010 CM
$$SPECTRAL CONTAMINATION DUE TO CCl4 AROUND 1550, AND CS2 AROUND 855 CM^-^1
##SAMPLING PROCEDURE=TRANSMISSION
##RESOLUTION=4
##DATA PROCESSING=DIGITIZED BY NIST FROM HARD COPY (FROM TWO SEGMENTS)
##XUNITS=1/CM
##YUNITS=TRANSMITTANCE
##XFACTOR=1.000000
##YFACTOR=1
##DELTAX=0.869567
##FIRSTX=385.217
##LASTX=3795.66
##FIRSTY=0.201
##MAXX=3795.66
##MINX=385.217
##MAXY=1.023
##MINY=0.047
##NPOINTS=3923
##XYDATA=(X++(Y..Y))
385.217000 0.2010 0.2040 0.2050 0.2050 0.2080
389.564836 0.2200 0.2310 0.2350 0.2390 0.2490
393.912672 0.2540 0.2640 0.2760 0.2910 0.3020
398.260508 0.3239 0.3509 0.3878 0.4248 0.4797
402.608343 0.5270 0.5640 0.5949 0.6209 0.6439
406.956179 0.6629 0.6819 0.7009 0.7199 0.7419
411.304015 0.7600 0.7650 0.7680 0.7690 0.7690
415.651851 0.7680 0.7650 0.7610 0.7431 0.7191
419.999687 0.6940 0.6670 0.6590 0.6370 0.6340
424.347523 0.6370 0.6529 0.6560 0.7107 0.7558
428.695359 0.7950 0.8399 0.8769 0.9029 0.9150
433.043194 0.9299 0.9449 0.9560 0.9610 0.9640
437.391030 0.9680 0.9710 0.9720 0.9790 0.9860
441.738866 0.9870 0.9870 0.9870 0.9890 0.9900
446.086702 0.9910 0.9970 0.9980 0.9980 1.0000
450.434538 1.0000 1.0000 1.0000 0.9980 1.0020
454.782374 1.0040 1.0050 1.0050 1.0060 1.0080
459.130210 1.0100 1.0160 1.0160 1.0140 1.0140
463.478045 1.0130 1.0140 1.0160 1.0200 1.0200
467.825881 1.0230 1.0230 1.0230 1.0230 1.0210
472.173717 1.0210 1.0200 1.0190 1.0170 1.0170
476.521553 1.0160 1.0140 1.0140 1.0130 1.0130
480.869389 1.0120 1.0120 1.0100 1.0100 1.0120
485.217225 1.0120 1.0130 1.0140 1.0140 1.0130
489.565060 1.0130 1.0130 1.0120 1.0130 1.0120
493.912896 1.0120 1.0100 1.0100 1.0090 1.0100
498.260732 1.0120 1.0140 1.0140 1.0120 1.0100
502.608568 1.0100 1.0100 1.0120 1.0120 1.0090
506.956404 1.0090 1.0080 1.0080 1.0080 1.0060
511.304240 1.0060 1.0040 1.0040 1.0020 1.0020
515.652076 1.0020 1.0010 1.0010 1.0010 1.0010
519.999911 1.0000 1.0000 0.9980 0.9970 0.9970
524.347747 0.9950 0.9950 0.9950 0.9950 0.9940
528.695583 0.9940 0.9940 0.9940 0.9930 0.9930
533.043419 0.9930 0.9930 0.9940 0.9940 0.9940
537.391255 0.9940 0.9950 0.9950 0.9950 0.9950
541.739091 0.9950 0.9950 0.9950 0.9950 0.9950
546.086927 0.9950 0.9940 0.9940 0.9940 0.9930
550.434762 0.9910 0.9900 0.9890 0.9890 0.9860
554.782598 0.9820 0.9790 0.9780 0.9750 0.9710
559.130434 0.9640 0.9570 0.9520 0.9520 0.9530
563.478270 0.9570 0.9640 0.9700 0.9750 0.9780
567.826106 0.9790 0.9800 0.9870 0.9900 0.9900
572.173942 0.9910 0.9910 0.9940 0.9950 0.9970
576.521778 0.9980 0.9980 0.9980 0.9980 1.0000
580.869613 1.0010 1.0020 1.0020 1.0020 1.0040
585.217449 1.0040 1.0040 1.0040 1.0040 1.0020
589.565285 1.0020 1.0010 1.0010 1.0010 1.0010
593.913121 1.0010 1.0010 1.0000 1.0000 1.0000
598.260957 1.0000 1.0000 1.0000 1.0000 0.9980
602.608793 0.9970 0.9970 0.9950 0.9950 0.9940
606.956629 0.9940 0.9930 0.9930 0.9910 0.9900
611.304464 0.9890 0.9870 0.9860 0.9850 0.9830
615.652300 0.9820 0.9790 0.9790 0.9780 0.9760
620.000136 0.9720 0.9710 0.9680 0.9640 0.9600
624.347972 0.9570 0.9520 0.9500 0.9480 0.9440
628.695808 0.9420 0.9350 0.9310 0.9300 0.9290
633.043644 0.9270 0.9190 0.9120 0.9070 0.8990
637.391480 0.8990 0.8910 0.8820 0.8780 0.8710
641.739315 0.8660 0.8610 0.8540 0.8500 0.8371
646.087151 0.8320 0.8220 0.8170 0.8050 0.7880
650.434987 0.7730 0.7600 0.7560 0.7460 0.7380
654.782823 0.7240 0.7150 0.6920 0.6750 0.6640
659.130659 0.6301 0.6031 0.5721 0.5441 0.5231
663.478495 0.5060 0.5040 0.5010 0.4860 0.4850
667.826331 0.4850 0.4910 0.4980 0.5050 0.5120
672.174166 0.5190 0.5320 0.5340 0.5380 0.5380
676.522002 0.5360 0.5350 0.5350 0.5360 0.5390
680.869838 0.5440 0.5470 0.5500 0.5610 0.5660
685.217674 0.5730 0.5740 0.5740 0.5730 0.5690
689.565510 0.5640 0.5550 0.5470 0.5360 0.5250
693.913346 0.5140 0.5020 0.4910 0.4780 0.4591
698.261181 0.4380 0.4180 0.3960 0.3760 0.3580
702.609017 0.3430 0.3310 0.3220 0.3091 0.2881
706.956853 0.2750 0.2670 0.2580 0.2460 0.2240
711.304689 0.2130 0.2000 0.1980 0.2000 0.2050
715.652525 0.2110 0.2160 0.2230 0.2340 0.2520
720.000361 0.2759 0.2920 0.3109 0.3180 0.3329
724.348197 0.3500 0.3710 0.4300 0.4610 0.4939
728.696032 0.5309 0.5689 0.6059 0.6369 0.6529
733.043868 0.6790 0.6940 0.7080 0.7190 0.7340
737.391704 0.7540 0.7620 0.7760 0.7910 0.8049
741.739540 0.8060 0.8130 0.8200 0.8310 0.8330
746.087376 0.8390 0.8430 0.8500 0.8510 0.8590
750.435212 0.8660 0.8710 0.8740 0.8760 0.8780
754.783048 0.8780 0.8800 0.8800 0.8800 0.8780
759.130883 0.8770 0.8740 0.8730 0.8710 0.8710
763.478719 0.8710 0.8710 0.8700 0.8700 0.8700
767.826555 0.8710 0.8710 0.8740 0.8770 0.8800
772.174391 0.8840 0.8910 0.8920 0.8920 0.8920
776.522227 0.8950 0.8960 0.9000 0.9030 0.9040
780.870063 0.9040 0.9050 0.9050 0.9050 0.9050
785.217899 0.9050 0.9070 0.9080 0.9110 0.9140
789.565734 0.9150 0.9150 0.9150 0.9150 0.9160
793.913570 0.9190 0.9200 0.9230 0.9260 0.9270
798.261406 0.9290 0.9300 0.9310 0.9330 0.9330
802.609242 0.9340 0.9340 0.9350 0.9350 0.9350
806.957078 0.9350 0.9350 0.9370 0.9380 0.9380
811.304914 0.9370 0.9370 0.9400 0.9400 0.9420
815.652750 0.9420 0.9420 0.9420 0.9420 0.9420
820.000585 0.9440 0.9450 0.9450 0.9450 0.9460
824.348421 0.9460 0.9480 0.9480 0.9490 0.9490
828.696257 0.9490 0.9480 0.9460 0.9450 0.9440
833.044093 0.9420 0.9410 0.9370 0.9340 0.9330
837.391929 0.9310 0.9220 0.9150 0.9120 0.9010
841.739765 0.8950 0.8920 0.8810 0.8770 0.8710
846.087601 0.8610 0.8540 0.8440 0.8390 0.8280
850.435436 0.8200 0.8140 0.8130 0.8090 0.8070
854.783272 0.8070 0.8090 0.8090 0.8100 0.8110
859.131108 0.8140 0.8200 0.8240 0.8250 0.8280
863.478944 0.8320 0.8320 0.8330 0.8360 0.8400
867.826780 0.8410 0.8440 0.8470 0.8500 0.8500
872.174616 0.8510 0.8510 0.8540 0.8580 0.8610
876.522452 0.8650 0.8700 0.8710 0.8730 0.8760
880.870287 0.8800 0.8800 0.8810 0.8840 0.8850
885.218123 0.8880 0.8920 0.8920 0.8930 0.8990
889.565959 0.9010 0.9040 0.9070 0.9080 0.9100
893.913795 0.9110 0.9110 0.9110 0.9100 0.9080
898.261631 0.9050 0.9000 0.8930 0.8860 0.8810
902.609467 0.8730 0.8580 0.8411 0.8290 0.8250
906.957302 0.8280 0.8320 0.8410 0.8510 0.8540
911.305138 0.8550 0.8540 0.8520 0.8460 0.8350
915.652974 0.8330 0.8350 0.8410 0.8470 0.8540
920.000810 0.8630 0.8710 0.8710 0.8700 0.8700
924.348646 0.8660 0.8630 0.8620 0.8610 0.8590
928.696482 0.8590 0.8580 0.8560 0.8560 0.8550
933.044318 0.8540 0.8520 0.8520 0.8510 0.8460
937.392153 0.8430 0.8360 0.8330 0.8210 0.8110
941.739989 0.7990 0.7840 0.7670 0.7490 0.7350
946.087825 0.7090 0.6850 0.6621 0.6062 0.5572
950.435661 0.4980 0.4370 0.4010 0.3540 0.2711
954.783497 0.1732 0.1441 0.1231 0.1041 0.0950
959.131333 0.0850 0.0680 0.0610 0.0470 0.0470
963.479169 0.0610 0.1319 0.1639 0.2258 0.3177
967.827004 0.3471 0.4721 0.5680 0.6170 0.6630
972.174840 0.6850 0.7080 0.7260 0.7599 0.7799
976.522676 0.7980 0.8130 0.8260 0.8360 0.8480
980.870512 0.8560 0.8610 0.8670 0.8710 0.8780
985.218348 0.8850 0.8920 0.8950 0.8960 0.9010
989.566184 0.9040 0.9080 0.9120 0.9120 0.9140
993.914020 0.9150 0.9150 0.9150 0.9150 0.9150
998.261855 0.9150 0.9140 0.9120 0.9080 0.9050
1002.609691 0.9030 0.9000 0.8970 0.8930 0.8920
1006.957527 0.8840 0.8800 0.8760 0.8700 0.8650
1011.305363 0.8620 0.8610 0.8620 0.8630 0.8660
1015.653199 0.8760 0.8810 0.8930 0.8950 0.9070
1020.001035 0.9230 0.9310 0.9340 0.9370 0.9400
1024.348871 0.9440 0.9440 0.9450 0.9450 0.9480
1028.696706 0.9490 0.9500 0.9530 0.9550 0.9550
1033.044542 0.9550 0.9560 0.9560 0.9550 0.9550
1037.392378 0.9550 0.9530 0.9530 0.9520 0.9520
1041.740214 0.9480 0.9460 0.9450 0.9440 0.9410
1046.088050 0.9400 0.9380 0.9370 0.9380 0.9400
1050.435886 0.9410 0.9420 0.9420 0.9420 0.9440
1054.783722 0.9450 0.9450 0.9450 0.9450 0.9450
1059.131557 0.9440 0.9400 0.9350 0.9340 0.9330
1063.479393 0.9270 0.9220 0.9180 0.9140 0.9110
1067.827229 0.9070 0.9010 0.8920 0.8810 0.8730
1072.175065 0.8650 0.8460 0.8140 0.7830 0.7620
1076.522901 0.7340 0.7150 0.7000 0.6751 0.6710
1080.870737 0.6750 0.6780 0.6920 0.6980 0.7609
1085.218572 0.8159 0.8330 0.8549 0.8709 0.8929
1089.566408 0.9150 0.9300 0.9400 0.9490 0.9550
1093.914244 0.9570 0.9610 0.9640 0.9650 0.9670
1098.262080 0.9710 0.9740 0.9750 0.9760 0.9780
1102.609916 0.9790 0.9790 0.9790 0.9780 0.9780
1106.957752 0.9780 0.9780 0.9780 0.9790 0.9790
1111.305588 0.9780 0.9760 0.9760 0.9760 0.9760
1115.653423 0.9760 0.9760 0.9760 0.9750 0.9750
1120.001259 0.9740 0.9710 0.9710 0.9700 0.9700
1124.349095 0.9680 0.9680 0.9670 0.9670 0.9640
1128.696931 0.9560 0.9460 0.9370 0.9330 0.9200
1133.044767 0.9010 0.8850 0.8550 0.8130 0.8030
1137.392603 0.8030 0.8200 0.8649 0.8929 0.9179
1141.740439 0.9230 0.9330 0.9350 0.9380 0.9400
1146.088274 0.9410 0.9400 0.9400 0.9350 0.9330
1150.436110 0.9250 0.9180 0.9140 0.9080 0.9030
1154.783946 0.9030 0.9070 0.9140 0.9230 0.9300
1159.131782 0.9370 0.9420 0.9480 0.9550 0.9570
1163.479618 0.9570 0.9490 0.9420 0.9370 0.9330
1167.827454 0.9330 0.9300 0.9140 0.9070 0.9030
1172.175290 0.8990 0.8990 0.8990 0.9000 0.9010
1176.523125 0.9050 0.9120 0.9160 0.9200 0.9230
1180.870961 0.9270 0.9270 0.9290 0.9300 0.9310
1185.218797 0.9310 0.9310 0.9310 0.9310 0.9330
1189.566633 0.9330 0.9310 0.9310 0.9310 0.9310
1193.914469 0.9310 0.9330 0.9330 0.9340 0.9340
1198.262305 0.9340 0.9340 0.9340 0.9340 0.9340
1202.610141 0.9340 0.9340 0.9340 0.9340 0.9340
1206.957976 0.9330 0.9330 0.9310 0.9290 0.9270
1211.305812 0.9270 0.9250 0.9220 0.9190 0.9150
1215.653648 0.9120 0.9100 0.9070 0.9050 0.9000
1220.001484 0.8960 0.8930 0.8910 0.8850 0.8800
1224.349320 0.8770 0.8710 0.8700 0.8610 0.8560
1228.697156 0.8410 0.8250 0.8130 0.7920 0.7760
1233.044992 0.7500 0.7310 0.6931 0.6342 0.5892
1237.392827 0.5359 0.4929 0.3990 0.3630 0.3370
1241.740663 0.3200 0.3140 0.2870 0.2521 0.1792
1246.088499 0.1440 0.1441 0.1930 0.2130 0.3130
1250.436335 0.4139 0.5468 0.5719 0.5890 0.5960
1254.784171 0.5950 0.5770 0.5610 0.5350 0.5240
1259.132007 0.5240 0.5799 0.6528 0.6749 0.6939
1263.479843 0.7110 0.7310 0.7420 0.7450 0.7430
1267.827678 0.7410 0.7340 0.7260 0.7080 0.6891
1272.175514 0.6750 0.6590 0.6530 0.6560 0.6670
1276.523350 0.6790 0.6940 0.7080 0.7260 0.7579
1280.871186 0.7770 0.7820 0.7950 0.8010 0.8070
1285.219022 0.8140 0.8140 0.8130 0.8110 0.8050
1289.566858 0.7970 0.7820 0.7710 0.7600 0.7540
1293.914693 0.7540 0.7600 0.7610 0.7600 0.7580
1298.262529 0.7530 0.7470 0.7420 0.7370 0.7270
1302.610365 0.7240 0.7150 0.6970 0.6751 0.6551
1306.958201 0.6440 0.6320 0.6320 0.6560 0.6640
1311.306037 0.6660 0.6630 0.6600 0.6450 0.6191
1315.653873 0.5869 0.5429 0.5100 0.4740 0.4740
1320.001709 0.5040 0.5350 0.5540 0.6039 0.6768
1324.349544 0.7001 0.7471 0.7950 0.8160 0.8310
1328.697380 0.8400 0.8520 0.8620 0.8700 0.8710
1333.045216 0.8840 0.8920 0.8950 0.9010 0.9120
1337.393052 0.9140 0.9190 0.9250 0.9270 0.9310
1341.740888 0.9370 0.9400 0.9420 0.9460 0.9480
1346.088724 0.9500 0.9520 0.9550 0.9560 0.9590
1350.436560 0.9610 0.9630 0.9640 0.9640 0.9640
1354.784395 0.9650 0.9670 0.9680 0.9710 0.9710
1359.132231 0.9740 0.9750 0.9750 0.9750 0.9750
1363.480067 0.9780 0.9790 0.9800 0.9800 0.9800
1367.827903 0.9820 0.9820 0.9850 0.9860 0.9860
1372.175739 0.9860 0.9870 0.9870 0.9900 0.9900
1376.523575 0.9900 0.9910 0.9910 0.9930 0.9930
1380.871411 0.9980 1.0020 1.0050 1.0060 1.0060
1385.219246 1.0040 1.0010 1.0010 1.0000 0.9980
1389.567082 0.9950 0.9940 0.9930 0.9910 0.9900
1393.914918 0.9890 0.9860 0.9830 0.9820 0.9820
1398.262754 0.9820 0.9800 0.9790 0.9780 0.9780
1402.610590 0.9780 0.9780 0.9780 0.9780 0.9750
1406.958426 0.9750 0.9740 0.9710 0.9680 0.9670
1411.306262 0.9650 0.9640 0.9630 0.9600 0.9590
1415.654097 0.9560 0.9500 0.9480 0.9460 0.9380
1420.001933 0.9290 0.9270 0.9250 0.9160 0.9120
1424.349769 0.8990 0.8920 0.8800 0.8650 0.8550
1428.697605 0.8219 0.7869 0.7420 0.7020 0.7020
1433.045441 0.7160 0.7300 0.7390 0.7649 0.7650
1437.393277 0.7610 0.7429 0.7149 0.6790 0.6330
1441.741113 0.5760 0.5240 0.4761 0.4600 0.4181
1446.088948 0.4181 0.4592 0.5890 0.6250 0.6820
1450.436784 0.7460 0.8139 0.8320 0.8430 0.8540
1454.784620 0.8710 0.8920 0.8930 0.8930 0.8950
1459.132456 0.8990 0.9120 0.9230 0.9310 0.9330
1463.480292 0.9340 0.9370 0.9370 0.9350 0.9370
1467.828128 0.9420 0.9460 0.9480 0.9460 0.9460
1472.175964 0.9450 0.9440 0.9440 0.9450 0.9450
1476.523799 0.9450 0.9450 0.9450 0.9460 0.9460
1480.871635 0.9420 0.9420 0.9410 0.9400 0.9370
1485.219471 0.9350 0.9340 0.9330 0.9310 0.9260
1489.567307 0.9190 0.9150 0.9080 0.9070 0.9040
1493.915143 0.9030 0.8990 0.8960 0.8920 0.8840
1498.262979 0.8820 0.8800 0.8730 0.8700 0.8650
1502.610814 0.8610 0.8550 0.8520 0.8510 0.8370
1506.958650 0.8210 0.8160 0.8110 0.8090 0.8070
1511.306486 0.8030 0.7990 0.7950 0.7870 0.7830
1515.654322 0.7790 0.7710 0.7650 0.7610 0.7600
1520.002158 0.7580 0.7460 0.7430 0.7410 0.7370
1524.349994 0.7340 0.7280 0.7240 0.7200 0.7150
1528.697830 0.7130 0.7080 0.7020 0.6900 0.6820
1533.045665 0.6710 0.6620 0.6520 0.6480 0.6450
1537.393501 0.6330 0.6320 0.6140 0.5950 0.5880
1541.741337 0.5740 0.5660 0.5620 0.5510 0.5490
1546.089173 0.5400 0.5360 0.5350 0.5340 0.5290
1550.437009 0.5280 0.5250 0.5250 0.5270 0.5290
1554.784845 0.5360 0.5390 0.5420 0.5490 0.5610
1559.132681 0.5680 0.5790 0.5910 0.6020 0.6140
1563.480516 0.6150 0.6300 0.6330 0.6440 0.6490
1567.828352 0.6630 0.6700 0.6770 0.6830 0.6940
1572.176188 0.6960 0.6980 0.7010 0.7040 0.7070
1576.524024 0.7070 0.7080 0.7080 0.7120 0.7130
1580.871860 0.7160 0.7170 0.7190 0.7200 0.7240
1585.219696 0.7240 0.7260 0.7280 0.7320 0.7370
1589.567532 0.7410 0.7470 0.7580 0.7620 0.7680
1593.915367 0.7760 0.7830 0.7970 0.8130 0.8160
1598.263203 0.8240 0.8330 0.8500 0.8590 0.8690
1602.611039 0.8730 0.8800 0.8840 0.8920 0.8960
1606.958875 0.9030 0.9120 0.9180 0.9220 0.9290
1611.306711 0.9350 0.9380 0.9440 0.9460 0.9480
1615.654547 0.9480 0.9480 0.9350 0.9400 0.9560
1620.002383 0.9590 0.9610 0.9610 0.9590 0.9590
1624.350218 0.9590 0.9630 0.9640 0.9640 0.9640
1628.698054 0.9640 0.9670 0.9680 0.9700 0.9700
1633.045890 0.9700 0.9700 0.9650 0.9550 0.9550
1637.393726 0.9710 0.9760 0.9780 0.9790 0.9790
1641.741562 0.9800 0.9800 0.9800 0.9790 0.9740
1646.089398 0.9710 0.9740 0.9740 0.9780 0.9790
1650.437234 0.9800 0.9820 0.9830 0.9830 0.9780
1654.785069 0.9760 0.9760 0.9790 0.9790 0.9780
1659.132905 0.9780 0.9760 0.9720 0.9700 0.9700
1663.480741 0.9720 0.9740 0.9740 0.9720 0.9700
1667.828577 0.9650 0.9610 0.9550 0.9550 0.9450
1672.176413 0.9400 0.9340 0.9180 0.9100 0.9050
1676.524249 0.9120 0.9180 0.9290 0.9380 0.9699
1680.872085 0.9700 0.9640 0.9640 0.9670 0.9780
1685.219920 0.9820 0.9830 0.9830 0.9850 0.9850
1689.567756 0.9850 0.9860 0.9850 0.9820 0.9790
1693.915592 0.9760 0.9800 0.9820 0.9780 0.9670
1698.263428 0.9670 0.9780 0.9780 0.9780 0.9780
1702.611264 0.9750 0.9750 0.9740 0.9750 0.9790
1706.959100 0.9820 0.9820 0.9820 0.9830 0.9830
1711.306935 0.9820 0.9800 0.9780 0.9760 0.9750
1715.654771 0.9720 0.9760 0.9790 0.9830 0.9830
1720.002607 0.9820 0.9800 0.9800 0.9800 0.9820
1724.350443 0.9820 0.9790 0.9780 0.9780 0.9760
1728.698279 0.9760 0.9750 0.9720 0.9680 0.9680
1733.046115 0.9760 0.9780 0.9800 0.9800 0.9800
1737.393951 0.9800 0.9790 0.9820 0.9820 0.9830
1741.741786 0.9830 0.9850 0.9850 0.9850 0.9850
1746.089622 0.9850 0.9850 0.9850 0.9850 0.9830
1750.437458 0.9820 0.9820 0.9800 0.9800 0.9790
1754.785294 0.9800 0.9800 0.9800 0.9820 0.9820
1759.133130 0.9800 0.9820 0.9830 0.9830 0.9850
1763.480966 0.9850 0.9830 0.9830 0.9850 0.9850
1767.828802 0.9850 0.9850 0.9790 0.9850 0.9890
1772.176637 0.9890 0.9910 0.9910 0.9900 0.9900
1776.524473 0.9900 0.9890 0.9890 0.9890 0.9900
1780.872309 0.9910 0.9900 0.9900 0.9910 0.9910
1785.220145 0.9910 0.9900 0.9890 0.9890 0.9890
1789.567981 0.9900 0.9900 0.9910 0.9930 0.9940
1793.915817 0.9950 0.9950 0.9950 0.9950 0.9950
1798.263653 0.9950 0.9950 1.0000 1.0000 1.0000
1802.611488 1.0000 1.0000 0.9980 0.9980 0.9980
1806.959324 0.9980 0.9980 0.9980 0.9980 0.9980
1811.307160 1.0000 1.0000 1.0000 1.0000 1.0000
1815.654996 0.9980 0.9980 0.9980 0.9980 1.0010
1820.002832 1.0000 0.9980 0.9980 0.9980 0.9980
1824.350668 0.9980 0.9980 0.9980 0.9970 0.9970
1828.698504 1.0010 1.0010 1.0010 1.0000 1.0000
1833.046339 1.0000 1.0000 1.0000 1.0000 0.9980
1837.394175 0.9980 0.9980 1.0010 1.0000 0.9980
1841.742011 0.9970 0.9970 0.9980 0.9980 0.9980
1846.089847 0.9980 0.9950 0.9950 0.9950 0.9970
1850.437683 0.9970 0.9950 0.9950 0.9950 0.9940
1854.785519 0.9930 0.9930 0.9910 0.9910 0.9910
1859.133355 0.9910 0.9910 0.9900 0.9890 0.9890
1863.481190 0.9870 0.9870 0.9850 0.9850 0.9830
1867.829026 0.9830 0.9830 0.9830 0.9870 0.9870
1872.176862 0.9890 0.9890 0.9890 0.9890 0.9900
1876.524698 0.9910 0.9910 0.9900 0.9900 0.9900
1880.872534 0.9890 0.9890 0.9890 0.9870 0.9870
1885.220370 0.9870 0.9890 0.9900 0.9900 0.9900
1889.568205 0.9890 0.9890 0.9900 0.9900 0.9910
1893.916041 0.9930 0.9930 0.9940 0.9940 0.9950
1898.263877 0.9950 0.9950 0.9980 0.9980 1.0000
1902.611713 1.0000 1.0000 1.0010 1.0010 1.0010
1906.959549 1.0010 1.0010 1.0020 1.0020 1.0020
1911.307385 1.0020 1.0020 1.0020 1.0040 1.0020
1915.655221 1.0020 1.0020 1.0020 1.0020 1.0040
1920.003056 1.0040 1.0050 1.0050 1.0050 1.0050
1924.350892 1.0050 1.0040 1.0040 1.0040 1.0040
1928.698728 1.0040 1.0020 1.0020 1.0020 1.0020
1933.046564 1.0020 1.0020 1.0020 1.0020 1.0020
1937.394400 1.0020 1.0020 1.0020 1.0020 1.0020
1941.742236 1.0020 1.0020 1.0020 1.0020 1.0020
1946.090072 1.0020 1.0020 1.0020 1.0020 1.0020
1950.437907 1.0020 1.0020 1.0020 1.0020 1.0040
1954.785743 1.0040 1.0040 1.0040 1.0040 1.0040
1959.133579 1.0040 1.0040 1.0040 1.0040 1.0040
1963.481415 1.0020 1.0020 1.0020 1.0020 1.0020
1967.829251 1.0020 1.0040 1.0020 1.0020 1.0020
1972.177087 1.0020 1.0020 1.0010 1.0010 1.0010
1976.524923 1.0010 1.0010 1.0000 1.0000 1.0010
1980.872758 1.0010 1.0010 1.0010 1.0010 1.0000
1985.220594 1.0000 1.0000 1.0000 1.0000 1.0000
1989.568430 1.0000 0.9980 0.9980 0.9980 0.9980
1993.916266 0.9980 0.9980 0.9980 0.9980 1.0000
1998.264102 1.0010 1.0020 1.0020 1.0015 1.0010
2002.611938 1.0010 1.0010 1.0010 1.0010 1.0010
2006.959774 1.0010 1.0010 1.0010 1.0010 1.0010
2011.307609 1.0005 1.0000 1.0005 1.0010 1.0010
2015.655445 1.0010 1.0010 1.0010 1.0015 1.0020
2020.003281 1.0020 1.0020 1.0020 1.0020 1.0015
2024.351117 1.0010 1.0015 1.0020 1.0020 1.0020
2028.698953 1.0015 1.0010 1.0010 1.0010 1.0005
2033.046789 1.0000 1.0000 1.0000 1.0000 1.0000
2037.394625 1.0000 1.0000 1.0000 1.0000 1.0005
2041.742460 1.0010 1.0010 1.0010 1.0010 1.0010
2046.090296 1.0010 1.0010 1.0005 1.0000 1.0005
2050.438132 1.0010 1.0010 1.0010 1.0010 1.0010
2054.785968 1.0010 1.0010 1.0010 1.0010 1.0010
2059.133804 1.0010 1.0010 1.0010 1.0010 1.0010
2063.481640 1.0010 1.0010 1.0005 1.0000 1.0005
2067.829476 1.0010 1.0015 1.0020 1.0020 1.0020
2072.177311 1.0015 1.0010 1.0010 1.0010 1.0010
2076.525147 1.0010 1.0015 1.0020 1.0020 1.0020
2080.872983 1.0020 1.0020 1.0020 1.0020 1.0015
2085.220819 1.0010 1.0010 1.0010 1.0010 1.0010
2089.568655 1.0010 1.0010 1.0010 1.0010 1.0005
2093.916491 1.0000 1.0000 1.0000 1.0000 1.0000
2098.264326 1.0000 1.0000 1.0000 1.0000 1.0000
2102.612162 1.0000 1.0000 1.0000 1.0000 1.0000
2106.959998 1.0000 1.0000 1.0000 1.0000 1.0000
2111.307834 1.0000 1.0000 1.0000 1.0000 1.0000
2115.655670 1.0000 1.0000 1.0005 1.0010 1.0010
2120.003506 1.0010 1.0010 1.0010 1.0010 1.0010
2124.351342 1.0010 1.0010 1.0010 1.0010 1.0010
2128.699177 1.0010 1.0015 1.0020 1.0015 1.0010
2133.047013 1.0010 1.0010 1.0010 1.0010 1.0005
2137.394849 1.0000 1.0000 1.0000 1.0000 1.0000
