##TITLE=GLYCIDALDEHYDE
##JCAMP-DX=4.24
$$ By DXEDIT 1.05 (RS McDonald)
##DATA TYPE=INFRARED SPECTRUM
##CLASS=COBLENTZ III
##ORIGIN=WESTERN REGIONAL RES. USDA
##OWNER=COBLENTZ SOC.
Collection (C) 2018 copyright by the U.S. Secretary of Commerce
on behalf of the United States of America. All rights reserved.
##DATE=1967/06/16
##NAMES=2-oxiranecarbaldehyde
##CAS REGISTRY NO=765-34-4
##MOLFORM=C3 H4 O2
##SOURCE REFERENCE=COBLENTZ NO. 05781
##$NIST SOURCE=COBLENTZ
##$NIST IMAGE=cob5781
##SPECTROMETER/DATA SYSTEM=CARY 90 (GRATING)
##INSTRUMENT PARAMETERS=ORDER CHANGES: 3000, 2000, 1200 CM^-^1
##STATE=SOLUTION (10% CCl4 FOR 4000-1250, 10% CS2 FOR 1270-450 CM^-^1) VS SOLVENT
##PATH LENGTH=0.010 CM, AND 0.011 CM
##SAMPLING PROCEDURE=TRANSMISSION
##RESOLUTION=2
##DATA PROCESSING=DIGITIZED BY COBLENTZ SOCIETY (BATCH I) FROM HARD COPY
##XUNITS=1/CM
##YUNITS=TRANSMITTANCE
##XLABEL=Wavenumbers (cm-1)
##YLABEL=Transmittance
##XFACTOR=1
##YFACTOR=1
##DELTAX=1
##FIRSTX=3842
##LASTX=480
##FIRSTY=0.9243
##MAXX=3842
##MINX=480
##MAXY=0.9486
##MINY=0.0031
##NPOINTS=3363
##XYDATA=(X++(Y..Y))
3842.000000 0.9243 0.9244 0.9246 0.9257 0.9268
3837.000000 0.9278 0.9290 0.9298 0.9306 0.9310
3832.000000 0.9315 0.9318 0.9323 0.9327 0.9332
3827.000000 0.9336 0.9340 0.9344 0.9348 0.9352
3822.000000 0.9357 0.9361 0.9365 0.9368 0.9373
3817.000000 0.9377 0.9381 0.9385 0.9389 0.9392
3812.000000 0.9396 0.9400 0.9404 0.9407 0.9411
3807.000000 0.9415 0.9418 0.9423 0.9427 0.9430
3802.000000 0.9434 0.9436 0.9438 0.9440 0.9442
3797.000000 0.9444 0.9446 0.9448 0.9450 0.9452
3792.000000 0.9454 0.9456 0.9458 0.9460 0.9463
3787.000000 0.9464 0.9464 0.9464 0.9463 0.9461
3782.000000 0.9460 0.9458 0.9457 0.9455 0.9454
3777.000000 0.9452 0.9451 0.9449 0.9448 0.9447
3772.000000 0.9446 0.9444 0.9443 0.9442 0.9441
3767.000000 0.9440 0.9439 0.9437 0.9436 0.9435
3762.000000 0.9434 0.9433 0.9432 0.9430 0.9428
3757.000000 0.9428 0.9427 0.9425 0.9425 0.9424
3752.000000 0.9423 0.9421 0.9421 0.9421 0.9421
3747.000000 0.9420 0.9418 0.9418 0.9418 0.9417
3742.000000 0.9417 0.9417 0.9416 0.9416 0.9417
3737.000000 0.9418 0.9421 0.9423 0.9425 0.9428
3732.000000 0.9430 0.9432 0.9434 0.9436 0.9438
3727.000000 0.9440 0.9443 0.9445 0.9447 0.9449
3722.000000 0.9451 0.9453 0.9456 0.9458 0.9460
3717.000000 0.9462 0.9464 0.9466 0.9468 0.9471
3712.000000 0.9473 0.9475 0.9477 0.9478 0.9482
3707.000000 0.9484 0.9486 0.9481 0.9475 0.9470
3702.000000 0.9465 0.9459 0.9454 0.9448 0.9443
3697.000000 0.9437 0.9432 0.9425 0.9421 0.9415
3692.000000 0.9409 0.9403 0.9398 0.9393 0.9389
3687.000000 0.9388 0.9388 0.9387 0.9378 0.9385
3682.000000 0.9385 0.9384 0.9384 0.9384 0.9383
3677.000000 0.9384 0.9386 0.9388 0.9391 0.9393
3672.000000 0.9395 0.9397 0.9400 0.9402 0.9404
3667.000000 0.9406 0.9409 0.9411 0.9413 0.9415
3662.000000 0.9418 0.9420 0.9421 0.9421 0.9421
3657.000000 0.9421 0.9423 0.9423 0.9424 0.9424
3652.000000 0.9425 0.9425 0.9425 0.9425 0.9425
3647.000000 0.9425 0.9425 0.9425 0.9423 0.9418
3642.000000 0.9415 0.9410 0.9406 0.9402 0.9398
3637.000000 0.9394 0.9390 0.9386 0.9382 0.9377
3632.000000 0.9373 0.9368 0.9365 0.9361 0.9357
3627.000000 0.9352 0.9348 0.9343 0.9339 0.9334
3622.000000 0.9330 0.9325 0.9321 0.9316 0.9312
3617.000000 0.9307 0.9302 0.9297 0.9293 0.9288
3612.000000 0.9284 0.9278 0.9275 0.9270 0.9266
3607.000000 0.9262 0.9259 0.9255 0.9251 0.9247
3602.000000 0.9244 0.9240 0.9236 0.9232 0.9228
3597.000000 0.9224 0.9221 0.9217 0.9213 0.9209
3592.000000 0.9205 0.9201 0.9198 0.9194 0.9190
3587.000000 0.9186 0.9183 0.9178 0.9175 0.9171
3582.000000 0.9167 0.9163 0.9159 0.9155 0.9152
3577.000000 0.9148 0.9144 0.9140 0.9136 0.9132
3572.000000 0.9128 0.9125 0.9121 0.9117 0.9113
3567.000000 0.9109 0.9106 0.9102 0.9099 0.9095
3562.000000 0.9091 0.9087 0.9084 0.9080 0.9077
3557.000000 0.9073 0.9070 0.9066 0.9063 0.9059
3552.000000 0.9056 0.9052 0.9049 0.9044 0.9039
3547.000000 0.9034 0.9030 0.9025 0.9020 0.9015
3542.000000 0.9010 0.9005 0.9000 0.8995 0.8990
3537.000000 0.8985 0.8981 0.8978 0.8975 0.8973
3532.000000 0.8971 0.8970 0.8968 0.8966 0.8965
3527.000000 0.8963 0.8961 0.8959 0.8958 0.8956
3522.000000 0.8954 0.8952 0.8951 0.8947 0.8943
3517.000000 0.8939 0.8936 0.8932 0.8928 0.8925
3512.000000 0.8921 0.8917 0.8914 0.8910 0.8906
3507.000000 0.8902 0.8899 0.8893 0.8888 0.8878
3502.000000 0.8868 0.8859 0.8850 0.8840 0.8831
3497.000000 0.8821 0.8811 0.8799 0.8788 0.8770
3492.000000 0.8752 0.8733 0.8715 0.8697 0.8678
3487.000000 0.8657 0.8636 0.8612 0.8588 0.8563
3482.000000 0.8539 0.8515 0.8491 0.8463 0.8435
3477.000000 0.8406 0.8378 0.8350 0.8321 0.8296
3472.000000 0.8270 0.8244 0.8218 0.8189 0.8161
3467.000000 0.8118 0.8078 0.8037 0.7996 0.7957
3462.000000 0.7918 0.7878 0.7840 0.7757 0.7674
3457.000000 0.7667 0.7660 0.7661 0.7664 0.7665
3452.000000 0.7665 0.7665 0.7664 0.7674 0.7685
3447.000000 0.7717 0.7750 0.7791 0.7833 0.7915
3442.000000 0.7999 0.8064 0.8130 0.8196 0.8262
3437.000000 0.8332 0.8403 0.8463 0.8524 0.8545
3432.000000 0.8566 0.8587 0.8609 0.8630 0.8651
3427.000000 0.8671 0.8694 0.8707 0.8721 0.8732
3422.000000 0.8744 0.8756 0.8768 0.8778 0.8791
3417.000000 0.8803 0.8815 0.8825 0.8838 0.8849
3412.000000 0.8861 0.8865 0.8870 0.8875 0.8880
3407.000000 0.8885 0.8890 0.8895 0.8900 0.8905
3402.000000 0.8910 0.8915 0.8920 0.8925 0.8930
3397.000000 0.8934 0.8939 0.8944 0.8949 0.8954
3392.000000 0.8959 0.8964 0.8968 0.8974 0.8978
3387.000000 0.8982 0.8986 0.8989 0.8992 0.8995
3382.000000 0.8998 0.9001 0.9004 0.9007 0.9010
3377.000000 0.9013 0.9017 0.9020 0.9023 0.9025
3372.000000 0.9028 0.9032 0.9035 0.9038 0.9041
3367.000000 0.9044 0.9047 0.9050 0.9053 0.9056
3362.000000 0.9059 0.9062 0.9065 0.9068 0.9071
3357.000000 0.9073 0.9075 0.9078 0.9082 0.9085
3352.000000 0.9088 0.9091 0.9094 0.9097 0.9100
3347.000000 0.9103 0.9106 0.9108 0.9111 0.9114
3342.000000 0.9117 0.9120 0.9123 0.9125 0.9128
3337.000000 0.9130 0.9133 0.9135 0.9138 0.9140
3332.000000 0.9143 0.9145 0.9148 0.9150 0.9153
3327.000000 0.9155 0.9158 0.9160 0.9163 0.9165
3322.000000 0.9167 0.9168 0.9170 0.9171 0.9173
3317.000000 0.9174 0.9175 0.9177 0.9178 0.9180
3312.000000 0.9181 0.9181 0.9182 0.9182 0.9182
3307.000000 0.9182 0.9183 0.9183 0.9183 0.9183
3302.000000 0.9184 0.9184 0.9184 0.9184 0.9185
3297.000000 0.9185 0.9186 0.9186 0.9187 0.9187
3292.000000 0.9187 0.9187 0.9188 0.9188 0.9189
3287.000000 0.9189 0.9190 0.9190 0.9191 0.9192
3282.000000 0.9193 0.9193 0.9194 0.9195 0.9196
3277.000000 0.9197 0.9198 0.9198 0.9199 0.9200
3272.000000 0.9201 0.9201 0.9202 0.9203 0.9204
3267.000000 0.9205 0.9205 0.9205 0.9205 0.9205
3262.000000 0.9205 0.9205 0.9205 0.9204 0.9204
3257.000000 0.9204 0.9204 0.9204 0.9204 0.9203
3252.000000 0.9203 0.9203 0.9203 0.9203 0.9203
3247.000000 0.9202 0.9202 0.9202 0.9202 0.9202
3242.000000 0.9202 0.9201 0.9201 0.9201 0.9201
3237.000000 0.9201 0.9201 0.9201 0.9201 0.9201
3232.000000 0.9201 0.9201 0.9201 0.9201 0.9201
3227.000000 0.9201 0.9201 0.9201 0.9201 0.9201
3222.000000 0.9201 0.9201 0.9201 0.9200 0.9200
3217.000000 0.9199 0.9199 0.9198 0.9198 0.9197
3212.000000 0.9196 0.9195 0.9194 0.9193 0.9193
3207.000000 0.9192 0.9191 0.9190 0.9190 0.9190
3202.000000 0.9190 0.9190 0.9190 0.9190 0.9191
3197.000000 0.9191 0.9191 0.9191 0.9191 0.9191
3192.000000 0.9191 0.9191 0.9192 0.9192 0.9192
3187.000000 0.9192 0.9192 0.9192 0.9192 0.9191
3182.000000 0.9191 0.9190 0.9189 0.9188 0.9187
3177.000000 0.9186 0.9186 0.9185 0.9184 0.9183
3172.000000 0.9182 0.9178 0.9174 0.9170 0.9166
3167.000000 0.9161 0.9157 0.9153 0.9149 0.9144
3162.000000 0.9140 0.9135 0.9131 0.9127 0.9123
3157.000000 0.9118 0.9114 0.9110 0.9106 0.9101
3152.000000 0.9097 0.9088 0.9080 0.9071 0.9063
3147.000000 0.9054 0.9046 0.9044 0.9042 0.9040
3142.000000 0.9038 0.9036 0.9035 0.9033 0.9032
3137.000000 0.9030 0.9028 0.9027 0.9025 0.9023
3132.000000 0.9021 0.9020 0.9018 0.9018 0.9017
3127.000000 0.9016 0.9016 0.9016 0.9016 0.9015
3122.000000 0.9015 0.9015 0.9015 0.9014 0.9014
3117.000000 0.9013 0.9012 0.9009 0.9006 0.9003
3112.000000 0.9001 0.8998 0.8995 0.8992 0.8989
3107.000000 0.8986 0.8983 0.8980 0.8977 0.8974
3102.000000 0.8971 0.8964 0.8958 0.8950 0.8942
3097.000000 0.8934 0.8925 0.8918 0.8910 0.8891
3092.000000 0.8871 0.8850 0.8828 0.8805 0.8782
3087.000000 0.8758 0.8734 0.8709 0.8685 0.8614
3082.000000 0.8543 0.8451 0.8359 0.8266 0.8174
3077.000000 0.8082 0.7990 0.7897 0.7805 0.7711
3072.000000 0.7619 0.7528 0.7436 0.7343 0.7251
3067.000000 0.7158 0.7065 0.6974 0.6847 0.6869
3062.000000 0.6858 0.6861 0.6864 0.6911 0.6960
3057.000000 0.7025 0.7090 0.7154 0.7218 0.7284
3052.000000 0.7349 0.7414 0.7478 0.7543 0.7608
3047.000000 0.7672 0.7738 0.7803 0.7868 0.7925
3042.000000 0.7984 0.7984 0.7984 0.7978 0.7978
3037.000000 0.7931 0.7884 0.7835 0.7786 0.7737
3032.000000 0.7689 0.7640 0.7592 0.7564 0.7536
3027.000000 0.7540 0.7544 0.7554 0.7565 0.7576
3022.000000 0.7589 0.7594 0.7600 0.7592 0.7584
3017.000000 0.7575 0.7568 0.7540 0.7511 0.7445
3012.000000 0.7378 0.7228 0.7078 0.6898 0.6717
3007.000000 0.6536 0.6355 0.6174 0.5993 0.5810
3002.000000 0.5630 0.5449 0.5268 0.5123 0.4979
2997.000000 0.4981 0.5008 0.4999 0.5015 0.5252
2992.000000 0.5489 0.5726 0.5962 0.6200 0.6438
2987.000000 0.6675 0.6911 0.7149 0.7387 0.7624
2982.000000 0.7861 0.7924 0.7988 0.8046 0.8105
2977.000000 0.8171 0.8240 0.8267 0.8295 0.8315
2972.000000 0.8335 0.8352 0.8370 0.8390 0.8410
2967.000000 0.8417 0.8424 0.8430 0.8436 0.8439
2962.000000 0.8443 0.8446 0.8450 0.8451 0.8451
2957.000000 0.8451 0.8451 0.8450 0.8450 0.8450
2952.000000 0.8450 0.8449 0.8448 0.8444 0.8441
2947.000000 0.8437 0.8434 0.8425 0.8418 0.8409
2942.000000 0.8400 0.8386 0.8371 0.8357 0.8343
2937.000000 0.8328 0.8315 0.8296 0.8278 0.8260
2932.000000 0.8242 0.8223 0.8205 0.8187 0.8168
2927.000000 0.8125 0.8081 0.7791 0.7501 0.7161
2922.000000 0.6819 0.6768 0.6695 0.6715 0.6715
2917.000000 0.6714 0.6714 0.6849 0.6985 0.7132
2912.000000 0.7278 0.7425 0.7574 0.7721 0.7868
2907.000000 0.8015 0.8164 0.8210 0.8256 0.8282
2902.000000 0.8309 0.8334 0.8360 0.8375 0.8393
2897.000000 0.8403 0.8413 0.8415 0.8418 0.8421
2892.000000 0.8424 0.8425 0.8425 0.8425 0.8425
2887.000000 0.8425 0.8424 0.8423 0.8421 0.8406
2882.000000 0.8391 0.8373 0.8356 0.8328 0.8303
2877.000000 0.8275 0.8250 0.8223 0.8197 0.8169
2872.000000 0.8144 0.8108 0.8074 0.8039 0.8005
2867.000000 0.7969 0.7935 0.7900 0.7865 0.7815
2862.000000 0.7765 0.7694 0.7621 0.7544 0.7465
2857.000000 0.7380 0.7295 0.7211 0.7128 0.7055
2852.000000 0.6981 0.6907 0.6833 0.6628 0.6425
2847.000000 0.6354 0.6283 0.6212 0.6142 0.6087
2842.000000 0.6033 0.5980 0.5927 0.5876 0.5825
2837.000000 0.5782 0.5739 0.5692 0.5646 0.5536
2832.000000 0.5426 0.5275 0.5124 0.4973 0.4822
2827.000000 0.4670 0.4519 0.4368 0.4217 0.4066
2822.000000 0.3914 0.3764 0.3612 0.3495 0.3384
2817.000000 0.3377 0.3377 0.3429 0.3482 0.3634
2812.000000 0.3787 0.3939 0.4092 0.4244 0.4396
2807.000000 0.4548 0.4701 0.4853 0.5006 0.5158
2802.000000 0.5310 0.5462 0.5616 0.5768 0.5921
2797.000000 0.6060 0.6201 0.6202 0.6202 0.6203
2792.000000 0.6203 0.6203 0.6202 0.6199 0.6197
2787.000000 0.6194 0.6192 0.6188 0.6185 0.6179
2782.000000 0.6174 0.6169 0.6164 0.6158 0.6153
2777.000000 0.6147 0.6142 0.6136 0.6131 0.6125
2772.000000 0.6120 0.6114 0.6109 0.6138 0.6167
2767.000000 0.6230 0.6124 0.6356 0.6418 0.6482
2762.000000 0.6545 0.6608 0.6671 0.6735 0.6798
2757.000000 0.6861 0.6924 0.6987 0.7050 0.7112
2752.000000 0.7175 0.7239 0.7303 0.7365 0.7428
2747.000000 0.7492 0.7555 0.7618 0.7681 0.7744
2742.000000 0.7807 0.7861 0.7915 0.7928 0.7941
2737.000000 0.7953 0.7965 0.7976 0.7990 0.8001
2732.000000 0.8014 0.8025 0.8039 0.8057 0.8075
2727.000000 0.8099 0.8122 0.8157 0.8192 0.8260
2722.000000 0.8328 0.8358 0.8388 0.8395 0.8428
2717.000000 0.8403 0.8403 0.8403 0.8403 0.8402
2712.000000 0.8402 0.8359 0.8317 0.8259 0.8202
2707.000000 0.8145 0.8088 0.8031 0.7974 0.7928
2702.000000 0.7894 0.7887 0.7890 0.7893 0.7896
2697.000000 0.7898 0.7901 0.7901 0.7904 0.7944
2692.000000 0.7985 0.8028 0.8072 0.8115 0.8160
2687.000000 0.8204 0.8248 0.8293 0.8339 0.8392
2682.000000 0.8446 0.8513 0.8581 0.8636 0.8692
2677.000000 0.8728 0.8764 0.8791 0.8818 0.8833
2672.000000 0.8847 0.8861 0.8875 0.8889 0.8903
2667.000000 0.8914 0.8925 0.8933 0.8942 0.8950
2662.000000 0.8959 0.8965 0.8971 0.8978 0.8984
2657.000000 0.8990 0.8996 0.9000 0.9004 0.9008
2652.000000 0.9012 0.9013 0.9015 0.9015 0.9015
2647.000000 0.9015 0.9015 0.9015 0.9016 0.9016
2642.000000 0.9016 0.9016 0.9016 0.9016 0.9016
2637.000000 0.9015 0.9014 0.9013 0.9013 0.9012
2632.000000 0.9012 0.9011 0.9010 0.9009 0.9009
2627.000000 0.9008 0.9007 0.9006 0.9006 0.9005
2622.000000 0.9005 0.9005 0.9005 0.9004 0.9004
2617.000000 0.9003 0.9003 0.9003 0.9003 0.9009
2612.000000 0.9016 0.9021 0.9028 0.9035 0.9042
2607.000000 0.9048 0.9055 0.9063 0.9071 0.9080
2602.000000 0.9089 0.9097 0.9106 0.9115 0.9124
2597.000000 0.9133 0.9142 0.9151 0.9160 0.9168
2592.000000 0.9177 0.9186 0.9195 0.9203 0.9212
2587.000000 0.9218 0.9224 0.9228 0.9235 0.9241
2582.000000 0.9247 0.9252 0.9258 0.9260 0.9261
2577.000000 0.9262 0.9262 0.9262 0.9262 0.9261
2572.000000 0.9261 0.9260 0.9260 0.9259 0.9258
2567.000000 0.9255 0.9253 0.9250 0.9247 0.9244
2562.000000 0.9241 0.9238 0.9235 0.9233 0.9231
2557.000000 0.9235 0.9239 0.9243 0.9248 0.9252
2552.000000 0.9256 0.9260 0.9265 0.9268 0.9273
2547.000000 0.9277 0.9282 0.9282 0.9282 0.9282
2542.000000 0.9282 0.9282 0.9282 0.9282 0.9282
2537.000000 0.9282 0.9282 0.9277 0.9271 0.9266
2532.000000 0.9260 0.9259 0.9259 0.9263 0.9267
2527.000000 0.9271 0.9275 0.9278 0.9282 0.9285
2522.000000 0.9289 0.9291 0.9294 0.9297 0.9300
2517.000000 0.9303 0.9306 0.9307 0.9309 0.9310
2512.000000 0.9311 0.9312 0.9313 0.9314 0.9315
2507.000000 0.9316 0.9317 0.9318 0.9318 0.9318
2502.000000 0.9318 0.9318 0.9317 0.9315 0.9314
2497.000000 0.9312 0.9311 0.9310 0.9309 0.9307
2492.000000 0.9306 0.9304 0.9303 0.9302 0.9301
2487.000000 0.9297 0.9294 0.9288 0.9283 0.9278
2482.000000 0.9273 0.9268 0.9263 0.9257 0.9252
2477.000000 0.9247 0.9242 0.9240 0.9239 0.9239
2472.000000 0.9239 0.9239 0.9239 0.9239 0.9239
2467.000000 0.9241 0.9243 0.9245 0.9247 0.9248
2462.000000 0.9250 0.9252 0.9254 0.9256 0.9256
2457.000000 0.9256 0.9254 0.9251 0.9249 0.9246
2452.000000 0.9243 0.9244 0.9245 0.9247 0.9250
2447.000000 0.9253 0.9256 0.9258 0.9261 0.9263
2442.000000 0.9266 0.9268 0.9271 0.9273 0.9275
2437.000000 0.9278 0.9280 0.9282 0.9285 0.9287
2432.000000 0.9290 0.9292 0.9294 0.9296 0.9299
2427.000000 0.9301 0.9303 0.9305 0.9308 0.9310
2422.000000 0.9312 0.9313 0.9315 0.9316 0.9318
2417.000000 0.9320 0.9321 0.9323 0.9325 0.9325
2412.000000 0.9328 0.9328 0.9331 0.9332 0.9334
2407.000000 0.9335 0.9337 0.9338 0.9340 0.9341
2402.000000 0.9342 0.9343 0.9345 0.9346 0.9346
2397.000000 0.9346 0.9344 0.9340 0.9337 0.9330
2392.000000 0.9323 0.9315 0.9307 0.9299 0.9292
2387.000000 0.9283 0.9275 0.9267 0.9259 0.9256
2382.000000 0.9253 0.9250 0.9248 0.9245 0.9242
2377.000000 0.9243 0.9244 0.9252 0.9260 0.9268
2372.000000 0.9277 0.9284 0.9292 0.9299 0.9306
2367.000000 0.9305 0.9305 0.9294 0.9283 0.9271
2362.000000 0.9261 0.9254 0.9247 0.9243 0.9239
2357.000000 0.9235 0.9231 0.9227 0.9224 0.9223
2352.000000 0.9221 0.9221 0.9220 0.9218 0.9218
2347.000000 0.9218 0.9217 0.9216 0.9215 0.9215
2342.000000 0.9215 0.9215 0.9216 0.9217 0.9218
2337.000000 0.9218 0.9218 0.9218 0.9220 0.9221
2332.000000 0.9221 0.9221 0.9221 0.9221 0.9220
2327.000000 0.9218 0.9216 0.9214 0.9212 0.9210
2322.000000 0.9209 0.9207 0.9205 0.9203 0.9202
2317.000000 0.9199 0.9197 0.9194 0.9191 0.9188
2312.000000 0.9185 0.9182 0.9178 0.9175 0.9173
2307.000000 0.9170 0.9167 0.9164 0.9162 0.9160
2302.000000 0.9158 0.9155 0.9153 0.9151 0.9149
2297.000000 0.9146 0.9144 0.9142 0.9140 0.9137
2292.000000 0.9135 0.9135 0.9135 0.9135 0.9138
2287.000000 0.9140 0.9142 0.9144 0.9146 0.9147
2282.000000 0.9147 0.9147 0.9143 0.9138 0.9133
2277.000000 0.9127 0.9121 0.9116 0.9111 0.9104
2272.000000 0.9098 0.9092 0.9086 0.9078 0.9073
2267.000000 0.9064 0.9055 0.9046 0.9037 0.9028
2262.000000 0.9018 0.9031 0.9043 0.9051 0.9059
2257.000000 0.9067 0.9075 0.9084 0.9092 0.9100
2252.000000 0.9109 0.9116 0.9124 0.9131 0.9139
2247.000000 0.9146 0.9153 0.9160 0.9168 0.9175
2242.000000 0.9183 0.9190 0.9198 0.9201 0.9204
2237.000000 0.9206 0.9208 0.9210 0.9213 0.9215
2232.000000 0.9217 0.9218 0.9221 0.9224 0.9225
2227.000000 0.9228 0.9231 0.9233 0.9235 0.9237
2222.000000 0.9240 0.9242 0.9244 0.9245 0.9247
2217.000000 0.9248 0.9249 0.9250 0.9251 0.9252
2212.000000 0.9252 0.9252 0.9251 0.9247 0.9244
2207.000000 0.9240 0.9237 0.9233 0.9228 0.9225
2202.000000 0.9221 0.9218 0.9215 0.9211 0.9207
2197.000000 0.9202 0.9197 0.9192 0.9187 0.9182
2192.000000 0.9178 0.9174 0.9171 0.9171 0.9171
2187.000000 0.9171 0.9173 0.9174 0.9175 0.9178
2182.000000 0.9184 0.9188 0.9192 0.9196 0.9200
2177.000000 0.9204 0.9209 0.9210 0.9212 0.9213
2172.000000 0.9214 0.9214 0.9213 0.9209 0.9206
2167.000000 0.9202 0.9198 0.9195 0.9192 0.9189
2162.000000 0.9186 0.9183 0.9181 0.9178 0.9175
2157.000000 0.9171 0.9168 0.9166 0.9164 0.9161
2152.000000 0.9158 0.9155 0.9152 0.9150 0.9149
2147.000000 0.9149 0.9149 0.9149 0.9149 0.9149
2142.000000 0.9149 0.9149 0.9149 0.9149 0.9149
2137.000000 0.9149 0.9149 0.9149 0.9149 0.9150
2132.000000 0.9151 0.9151 0.9152 0.9153 0.9154
2127.000000 0.9155 0.9156 0.9157 0.9158 0.9159
2122.000000 0.9160 0.9161 0.9162 0.9162 0.9163
2117.000000 0.9163 0.9164 0.9164 0.9165 0.9165
2112.000000 0.9166 0.9166 0.9167 0.9167 0.9167
2107.000000 0.9166 0.9165 0.9163 0.9161 0.9159
2102.000000 0.9158 0.9156 0.9155 0.9153 0.9152
2097.000000 0.9150 0.9149 0.9148 0.9147 0.9145
2092.000000 0.9144 0.9140 0.9136 0.9131 0.9127
2087.000000 0.9118 0.9112 0.9101 0.9090 0.9078
2082.000000 0.9068 0.9058 0.9048 0.9040 0.9032
2077.000000 0.9024 0.9016 0.9008 0.9001 0.8982
2072.000000 0.8964 0.8944 0.8924 0.8904 0.8884
2067.000000 0.8864 0.8845 0.8825 0.8805 0.8785
2062.000000 0.8765 0.8745 0.8725 0.8706 0.8686
2057.000000 0.8667 0.8671 0.8648 0.8649 0.8649
2052.000000 0.8650 0.8663 0.8677 0.8688 0.8700
2047.000000 0.8711 0.8721 0.8733 0.8744 0.8755
2042.000000 0.8767 0.8778 0.8789 0.8800 0.8812
2037.000000 0.8823 0.8834 0.8845 0.8856 0.8867
2032.000000 0.8878 0.8890 0.8901 0.8912 0.8924
2027.000000 0.8935 0.8946 0.8957 0.8968 0.8977
2022.000000 0.8986 0.8988 0.8995 0.8996 0.8996
2017.000000 0.8988 0.8980 0.8965 0.8950 0.8935
2012.000000 0.8921 0.8906 0.8891 0.8875 0.8861
2007.000000 0.8846 0.8831 0.8816 0.8801 0.8786
2002.000000 0.8771 0.8742 0.8712 0.8682 0.8691
1997.000000 0.8656 0.8652 0.8660 0.8668 0.8684
1992.000000 0.8705 0.8725 0.8747 0.8763 0.8775
1987.000000 0.8789 0.8802 0.8802 0.8795 0.8789
1982.000000 0.8782 0.8768 0.8777 0.8787 0.8797
1977.000000 0.8807 0.8817 0.8828 0.8841 0.8854
1972.000000 0.8867 0.8878 0.8892 0.8905 0.8918
1967.000000 0.8927 0.8937 0.8946 0.8955 0.8965
1962.000000 0.8974 0.8984 0.8993 0.9002 0.9012
1957.000000 0.9021 0.9028 0.9032 0.9035 0.9039
1952.000000 0.9042 0.9046 0.9049 0.9053 0.9057
1947.000000 0.9057 0.9057 0.9056 0.9054 0.9053
1942.000000 0.9051 0.9050 0.9048 0.9047 0.9045
1937.000000 0.9041 0.9036 0.9032 0.9028 0.9023
1932.000000 0.9018 0.9014 0.9009 0.9003 0.8997
1927.000000 0.8991 0.8986 0.8986 0.8989 0.8992
1922.000000 0.8995 0.8998 0.9003 0.9008 0.9013
1917.000000 0.9018 0.9021 0.9023 0.9025 0.9025
1912.000000 0.9028 0.9030 0.9032 0.9034 0.9035
1907.000000 0.9035 0.9034 0.9032 0.9031 0.9030
1902.000000 0.9028 0.9027 0.9025 0.9025 0.9024
1897.000000 0.9021 0.9021 0.9018 0.9017 0.9015
1892.000000 0.9013 0.9011 0.9010 0.9008 0.9006
1887.000000 0.9003 0.8999 0.8994 0.8989 0.8985
1882.000000 0.8980 0.8975 0.8970 0.8966 0.8961
1877.000000 0.8956 0.8947 0.8937 0.8928 0.8918
1872.000000 0.8909 0.8900 0.8891 0.8884 0.8878
1867.000000 0.8871 0.8864 0.8858 0.8851 0.8845
1862.000000 0.8838 0.8833 0.8833 0.8834 0.8834
1857.000000 0.8835 0.8835 0.8836 0.8840 0.8843
1852.000000 0.8846 0.8849 0.8853 0.8856 0.8859
1847.000000 0.8862 0.8866 0.8868 0.8871 0.8871
1842.000000 0.8871 0.8871 0.8871 0.8868 0.8866
1837.000000 0.8862 0.8859 0.8870 0.8847 0.8841
