##TITLE=Cyclopropyl methyl carbinol
##JCAMP-DX=4.24
##DATA TYPE=INFRARED SPECTRUM
##ORIGIN=EPA-IR VAPOR PHASE LIBRARY
##OWNER=SRD/NIST
Collection (C) 2018 copyright by the U.S. Secretary of Commerce
on behalf of the United States of America. All rights reserved.
##CAS REGISTRY NO=765-42-4
##MOLFORM=C 5 H 10 O
##$NIST SOURCE=MSDC-IR
##STATE=gas
##XUNITS=1/CM
##YUNITS=ABSORBANCE
##XFACTOR=1.
##YFACTOR=0.001
##DELTAX=1.92934
##FIRSTX=549.9
##LASTX=3999.5
##FIRSTY=2.0562
##MAXX=3999.53
##MINX=549.863
##MAXY=0.04418
##MINY=0
##NPOINTS=1789
##XYDATA=(X++(Y..Y))
549.863 2.0562 2.003 2.1278 2.1699 2.24 2.3 2.34 2.46 2.54 2.45
569.156 2.35 2.36 2.41 2.39 2.43 2.37 2.2168 2.24 2.24 2.23
588.450 2.206 2.2129 2.1904 2.2018 2.2101 2.0617 1.9464 1.8545 1.8343 1.8792
607.743 1.8514 1.8396 1.8083 1.7485 1.6447 1.5795 1.6048 1.5353 1.4146 1.376
627.037 1.3787 1.4165 1.4435 1.4094 1.31091 1.3205 1.3943 1.3208 1.3764 1.4468
646.330 1.4262 1.3643 1.3257 1.387 1.3972 1.3396 1.28271 1.3398 1.3417 1.28262
665.624 1.29874 1.3309 1.349 1.28444 1.3407 1.4325 1.4415 1.3833 1.30139 1.3851
684.917 1.4255 1.3624 1.28452 1.29363 1.31939 1.31894 1.3798 1.3982 1.4548 1.5348
704.210 1.5345 1.5587 1.5816 1.6233 1.6725 1.6944 1.6886 1.7368 1.8235 1.8898
723.504 1.9302 1.9401 1.9492 1.962 1.9909 2.0144 2.0532 2.0689 2.0949 2.1891
742.797 2.25 2.1774 2.0976 2.1285 2.1352 2.1837 2.1915 2.1581 2.1544 2.1253
762.091 2.102 2.0435 2.0187 2.0018 2.0389 1.9736 1.8637 1.9133 1.9449 1.9278
781.384 1.9592 1.9981 2.0662 2.1821 2.3 2.49 2.71 2.9 3.16 3.48
800.678 3.8 4.19 4.64 5.13 5.62 6.04 6.34 6.59 6.83 7
819.971 7.05 6.96 6.71 6.49 6.54 6.61 6.46 6.21 5.89 5.61
839.264 5.38 5.05 4.76 4.56 4.53 4.47 4.44 4.57 4.72 4.87
858.558 5.07 5.35 5.72 6.16 6.57 7 7.37 7.69 8.11 8.43
877.851 8.67 8.92 9.19 9.56 9.98 10.38 10.73 11.1 11.44 11.63
897.145 11.64 11.6 11.69 11.83 12.04 12.25 12.51 12.87 13.3 13.94
916.438 14.71 15.68 16.87 18.26 19.85 21.31 22.55 23.5 24.15 24.47
935.732 24.5 24.65 24.9 25.05 24.9 24.68 24.67 24.38 23.56 22.22
955.025 20.55 18.84 17.19 15.72 14.42 13.38 12.65 12.04 11.61 11.36
974.318 11.27 11.28 11.29 11.31 11.39 11.52 11.69 12.03 12.55 13.21
993.612 13.94 14.72 15.57 16.51 17.6 18.83 20.15 21.51 22.72 23.8
1012.905 24.79 25.74 26.89 28.24 29.46 29.76 29.66 30.1 30.8 31.36
1032.199 31.58 31.39 30.93 30.26 29.45 28.61 27.88 27.41 27.36 27.76
1051.492 28.18 28.24 27.96 27.57 27.29 27.15 27.08 27.19 27.42 27.74
1070.786 28.18 28.71 29.28 29.89 30.45 31.02 31.6 32.04 32.49 32.89
1090.079 33.14 33.32 33.32 33.22 33.05 32.63 31.91 31.06 30.13 29.08
1109.372 27.99 26.86 25.65 24.41 23.24 22.01 20.73 19.48 18.29 17.23
1128.666 16.3 15.59 14.96 14.39 14.09 13.94 13.85 13.82 13.76 13.71
1147.959 13.71 13.59 13.43 13.29 13.14 13.04 12.95 12.73 12.47 12.24
1167.253 11.97 11.7 11.46 11.18 10.89 10.69 10.55 10.42 10.33 10.38
1186.546 10.37 10.33 10.37 10.36 10.31 10.21 10.13 10.13 10.16 10.13
1205.840 10.15 10.2 10.16 10.25 10.49 10.76 11.04 11.23 11.64 12.28
1225.133 12.91 13.53 14.27 15.07 16 17 17.85 18.74 19.55 20.14
1244.426 20.58 20.93 21.15 21.14 21.04 20.91 20.7 20.4 19.97 19.39
1263.720 18.74 17.89 16.87 15.81 14.75 13.8 12.99 12.29 11.75 11.4
1283.013 11.19 10.97 10.8 10.65 10.57 10.58 10.62 10.72 10.8 10.84
1302.307 10.9 11.02 11.11 11.14 11.19 11.21 11.23 11.21 11.13 11.04
1321.600 11.03 11.06 11.01 10.98 11.01 10.97 10.99 11.03 10.97 10.95
1340.894 10.93 10.95 11 11.07 11.23 11.41 11.71 12.09 12.52 13.01
1360.187 13.66 14.37 15.08 15.84 16.6 17.36 18.08 18.73 19.37 20.14
1379.480 20.84 21.44 22.06 22.57 22.87 22.98 22.9 22.56 22.05 21.41
1398.774 20.6 19.65 18.68 17.82 16.95 16.08 15.17 14.28 13.57 13.03
1418.067 12.54 11.99 11.42 10.91 10.47 10.12 9.79 9.42 9.13 9.01
1437.361 9.09 9.31 9.44 9.48 9.51 9.59 9.65 9.54 9.21 8.77
1456.654 8.41 8.09 7.75 7.43 7.12 6.8 6.37 5.93 5.55 5.14
1475.948 4.76 4.4 4.09 3.75 3.44 3.22 2.98 2.74 2.55 2.39
1495.241 2.2132 2.041 1.9213 1.7962 1.702 1.6757 1.6244 1.5177 1.52 1.506
1514.534 1.456 1.4169 1.3395 1.3513 1.3415 1.29437 1.29575 1.26079 1.23596 1.2037
1533.828 1.1765 1.1831 1.1449 1.115 1.109 1.087 1.059 1.044 1.057 1.021
1553.121 0.981 0.992 0.983 0.947 0.928 0.937 0.915 0.853 0.829 0.85
1572.415 0.877 0.863 0.873 0.878 0.849 0.845 0.847 0.832 0.862 0.904
1591.708 0.855 0.828 0.804 0.813 0.829 0.78 0.768 0.77 0.773 0.76
1611.002 0.745 0.763 0.758 0.792 0.814 0.793 0.793 0.78 0.797 0.81
1630.295 0.783 0.743 0.77 0.818 0.835 0.845 0.83 0.808 0.833 0.864
1649.588 0.889 0.906 0.867 0.839 0.858 0.871 0.827 0.779 0.783 0.796
1668.882 0.803 0.783 0.746 0.744 0.716 0.7 0.704 0.709 0.705 0.68
1688.175 0.691 0.71 0.676 0.638 0.646 0.653 0.628 0.596 0.612 0.633
1707.469 0.619 0.632 0.61 0.595 0.594 0.59 0.608 0.624 0.651 0.658
1726.762 0.656 0.669 0.685 0.704 0.712 0.722 0.772 0.753 0.76 0.788
1746.056 0.771 0.82 0.876 0.883 0.894 0.935 0.932 0.914 0.932 0.931
1765.349 0.945 1 1.008 0.973 0.969 0.984 0.976 0.952 0.965 0.975
1784.642 0.952 0.951 0.984 0.996 0.986 0.957 0.947 0.985 0.98 0.972
1803.936 0.98 0.966 0.965 0.998 1.013 1.045 1.096 1.1274 1.1305 1.103
1823.229 1.109 1.1445 1.1488 1.1351 1.1396 1.1353 1.1683 1.1988 1.1723 1.1521
1842.523 1.1664 1.1741 1.2001 1.1984 1.1469 1.1444 1.1413 1.1427 1.1482 1.1231
1861.816 1.1431 1.1688 1.1365 1.1741 1.21591 1.1726 1.1596 1.1663 1.176 1.1666
1881.110 1.1325 1.1546 1.159 1.1856 1.2562 1.2893 1.3238 1.339 1.3464 1.4125
1900.403 1.4632 1.482 1.548 1.6232 1.6515 1.6853 1.7307 1.7412 1.7638 1.7689
1919.696 1.7341 1.7234 1.7159 1.6857 1.675 1.673 1.6827 1.6733 1.611 1.5233
1938.990 1.4732 1.457 1.4297 1.3843 1.3326 1.26474 1.21284 1.1997 1.1624 1.1203
1958.283 1.073 1.052 1.031 1.027 1.016 0.987 0.973 0.941 0.941 0.932
1977.577 0.925 0.93 0.896 0.868 0.864 0.883 0.885 0.863 0.855 0.87
1996.870 0.866 0.842 0.805 0.783 0.797 0.794 0.81 0.818 0.812 0.837
2016.164 0.857 0.857 0.849 0.858 0.939 0.996 1.012 1.062 1.078 1.104
2035.457 1.1619 1.2034 1.25877 1.3153 1.3741 1.4467 1.4853 1.507 1.5389 1.5989
2054.750 1.6573 1.6353 1.6121 1.6592 1.6703 1.6761 1.6999 1.709 1.6886 1.6449
2074.044 1.6071 1.5818 1.5776 1.5307 1.4755 1.4639 1.4504 1.4332 1.3879 1.31156
2093.337 1.27668 1.25728 1.21919 1.1882 1.1644 1.1619 1.1421 1.076 1.013 0.989
2112.631 0.996 0.982 0.984 0.96 0.896 0.895 0.905 0.904 0.911 0.931
2131.924 0.922 0.896 0.888 0.869 0.852 0.865 0.861 0.871 0.912 0.896
2151.218 0.871 0.871 0.883 0.889 0.898 0.874 0.869 0.875 0.864 0.87
2170.511 0.853 0.868 0.906 0.878 0.833 0.86 0.875 0.836 0.816 0.826
2189.804 0.838 0.866 0.878 0.889 0.906 0.911 0.927 0.923 0.914 0.925
2209.098 0.946 0.958 0.95 0.954 0.969 0.952 0.936 0.921 0.918 0.946
2228.391 0.974 0.976 0.925 0.921 0.938 0.942 0.959 0.953 0.945 0.953
2247.685 0.967 0.977 1.017 1.034 1.018 1.024 1.049 1.019 0.988 0.996
2266.978 0.97 0.954 0.975 0.964 0.941 0.93 0.906 0.871 0.843 0.842
2286.272 0.843 0.806 0.789 0.805 0.793 0.796 0.831 0.852 0.834 0.819
2305.565 0.787 0.775 0.813 0.832 0.801 0.788 0.831 0.824 0.793 0.792
2324.858 0.815 0.854 0.857 0.842 0.841 0.839 0.823 0.829 0.823 0.846
2344.152 0.921 0.899 0.866 0.902 0.897 0.884 0.882 0.879 0.892 0.894
2363.445 0.909 0.894 0.85 0.893 0.933 0.951 0.941 0.921 0.929 0.94
2382.739 0.966 0.986 0.969 0.953 0.964 0.988 1.015 1 1.016 1.03
2402.032 1.012 1.024 1.032 1.047 1.072 1.046 0.998 0.98 0.993 1.04
2421.326 1.044 1.007 1.017 1.023 0.992 0.969 1.007 1.07 1.072 1.09
2440.619 1.065 1.008 1.033 1.061 1.054 1.048 1.078 1.117 1.098 1.1351
2459.912 1.1891 1.207 1.21728 1.21017 1.22266 1.25564 1.28678 1.3258 1.3398 1.331
2479.206 1.3225 1.31724 1.3257 1.31188 1.3283 1.324 1.30145 1.28887 1.25309 1.22532
2498.499 1.2024 1.1664 1.1211 1.106 1.095 1.084 1.061 1.045 1.069 1.043
2517.793 1.014 1.045 1.059 1.028 1.023 0.979 0.976 0.997 0.986 0.998
2537.086 0.977 1.002 1.01 1.035 1.089 1.072 1.069 1.093 1.105 1.095
2556.380 1.09 1.081 1.085 1.1306 1.1724 1.1909 1.2074 1.25532 1.27405 1.27853
2575.673 1.30199 1.30084 1.3331 1.31373 1.3022 1.3643 1.3753 1.3847 1.4135 1.4412
2594.966 1.4405 1.4513 1.5088 1.5412 1.5955 1.6188 1.5841 1.5758 1.5925 1.5989
2614.260 1.6348 1.6846 1.6779 1.6907 1.7177 1.7598 1.7685 1.7849 1.8193 1.8228
2633.553 1.8715 1.8172 1.7422 1.8227 1.8667 1.8604 1.8628 1.8504 1.8403 1.8464
2652.847 1.8365 1.7752 1.7512 1.7648 1.7439 1.7652 1.7842 1.7274 1.7336 1.8179
2672.140 1.8301 1.7617 1.7332 1.7508 1.7725 1.7459 1.7191 1.6774 1.6 1.5934
2691.434 1.6454 1.6752 1.6538 1.6227 1.596 1.5373 1.5679 1.6425 1.6675 1.6659
2710.727 1.6679 1.6805 1.68 1.7038 1.6983 1.6894 1.6769 1.6905 1.7831 1.8146
2730.020 1.792 1.7878 1.8341 1.8831 1.9055 1.9148 1.9388 1.9884 1.9923 1.981
2749.314 2.0274 2.0827 2.1295 2.1441 2.1387 2.1543 2.1891 2.26 2.27 2.29
2768.607 2.4 2.46 2.46 2.5 2.54 2.57 2.68 2.77 2.74 2.83
2787.901 2.94 2.92 3.02 3.13 3.14 3.19 3.25 3.31 3.38 3.51
2807.194 3.55 3.57 3.7 3.85 3.92 4.03 4.19 4.31 4.51 4.72
2826.488 4.91 5.12 5.44 5.74 6.04 6.43 6.83 7.35 7.96 8.58
2845.781 9.24 9.91 10.66 11.43 12.19 13.1 14.06 15.09 16.14 17.15
2865.074 18.09 19.02 19.98 20.83 21.5 22.16 22.75 23.23 23.66 23.89
2884.368 24.04 24.12 24.01 23.87 23.59 23.06 22.37 21.79 21.28 20.7
2903.661 20.11 19.52 18.97 18.54 18.2 17.8 17.53 17.33 17.15 17.09
2922.955 17.02 16.86 16.71 16.66 16.64 16.56 16.45 16.35 16.41 16.59
2942.248 16.72 17.04 17.64 18.33 19.01 19.87 20.91 22.04 23.3 24.92
2961.542 26.94 29.17 31.57 34.07 36.71 39.28 41.62 43.33 44.12 44.18
2980.835 43.65 42.91 42.51 42.55 42.41 41.8 41.04 40.58 40.29 39.74
3000.128 38.98 38.21 37.51 37.01 36.76 36.38 35.75 34.87 33.68 32.56
3019.422 31.75 30.8 29.5 27.99 26.05 23.84 21.65 19.46 17.44 15.51
3038.715 13.66 12.04 10.66 9.37 8.24 7.45 6.92 6.66 6.54 6.62
3058.009 6.89 7.33 8.03 8.8 9.82 10.99 12.16 13.43 14.68 15.98
3077.302 17.05 17.92 18.92 20.39 22.24 23.81 23.11 19.89 17.65 17.02
3096.596 16.52 15.82 14.81 13.6 12.23 10.81 9.2 7.76 6.65 5.57
3115.889 4.68 3.93 3.35 2.88 2.44 2.0959 1.775 1.4126 1.30962 1.3672
3135.182 1.25304 1.1438 1.101 1 1.019 1.091 1.017 1.02 0.914 0.748
3154.476 0.773 0.853 0.997 1.034 0.972 0.985 0.945 0.976 1.012 1.056
3173.769 1.073 1.085 1.078 1.084 1.144 1.011 0.99 1.023 0.969 0.97
3193.063 0.939 0.982 1.1203 1.1217 0.908 0.806 0.86 0.942 0.834 0.7
3212.356 0.673 0.663 0.679 0.592 0.47 0.361 0.379 0.348 0.376 0.535
3231.650 0.583 0.421 0.315 0.333 0.2 0.227 0.18 0.15 0.276 0.274
3250.943 0.282 0.285 0.17 0.13 0.237 0.241 0.19 0.24 0.251 0.19
3270.236 0.22 0.227 0.285 0.379 0.325 0.15 0.11 0.12 0.08 0.15
3289.530 0.06 0 0.14 0.18 0.18 0.19 0.14 0.16 0.221 0.15
3308.823 0.03 0.09 0.19 0.08 0 0.16 0.13 0.15 0.3 0.339
3328.117 0.352 0.249 0.21 0.282 0.309 0.22 0.21 0.264 0.25 0.344
3347.410 0.501 0.456 0.396 0.418 0.38 0.255 0.336 0.591 0.465 0.369
3366.704 0.462 0.496 0.529 0.577 0.685 0.598 0.409 0.256 0.17 0.408
3385.997 0.566 0.543 0.573 0.46 0.402 0.396 0.39 0.431 0.51 0.498
3405.290 0.367 0.254 0.329 0.386 0.319 0.259 0.304 0.381 0.422 0.478
3424.584 0.418 0.436 0.469 0.42 0.374 0.326 0.32 0.399 0.542 0.669
3443.877 0.612 0.547 0.49 0.41 0.38 0.362 0.513 0.552 0.478 0.618
3463.171 0.648 0.534 0.6 0.664 0.714 0.681 0.461 0.346 0.394 0.448
3482.464 0.438 0.403 0.366 0.397 0.491 0.48 0.429 0.425 0.392 0.5
3501.758 0.606 0.514 0.374 0.352 0.464 0.462 0.424 0.412 0.297 0.409
3521.051 0.427 0.265 0.303 0.308 0.302 0.273 0.22 0.19 0.254 0.359
3540.344 0.401 0.502 0.626 0.615 0.625 0.617 0.502 0.488 0.453 0.454
3559.638 0.524 0.483 0.511 0.491 0.425 0.47 0.56 0.483 0.413 0.542
3578.931 0.496 0.505 0.617 0.611 0.6 0.683 0.764 0.619 0.55 0.773
3598.225 0.888 0.907 0.895 1.004 1.1611 1.22682 1.3869 1.5826 1.8249 2.066
3617.518 2.31 2.73 3.18 3.53 4.01 4.66 5.37 6.03 6.67 7.16
3636.812 7.71 8.17 8.31 8.32 8.35 8.4 8.61 8.97 9.21 9.15
3656.105 8.86 8.49 7.95 7.47 7.01 6.46 5.87 5.36 4.87 4.33
3675.398 3.83 3.32 2.86 2.59 2.27 2.0211 1.8702 1.6407 1.5013 1.33
3694.692 1.21381 1.1446 1.077 0.984 0.856 0.78 0.812 0.894 0.842 0.771
3713.985 0.78 0.819 0.835 0.83 0.811 0.683 0.62 0.71 0.782 0.732
3733.279 0.684 0.709 0.747 0.792 0.805 0.811 0.866 0.871 0.712 0.564
3752.572 0.607 0.706 0.676 0.657 0.671 0.607 0.537 0.56 0.596 0.583
3771.866 0.587 0.528 0.534 0.579 0.602 0.644 0.673 0.721 0.649 0.628
3791.159 0.672 0.645 0.708 0.706 0.689 0.77 0.711 0.653 0.726 0.811
3810.452 0.873 0.887 0.842 0.889 0.967 0.969 1.032 1.014 1.002 1.1324
3829.746 1.1617 1.1337 1.093 1.1313 1.1399 1.113 1.112 1.079 1.124 1.094
3849.039 1.03 1.083 1.099 1.045 1.001 0.999 0.996 0.995 1.022 0.992
3868.333 0.918 0.976 1.04 0.916 0.885 1.003 1.04 1.031 1.049 0.98
3887.626 1.001 1.055 1.013 0.921 0.96 1.079 1.087 1.076 1.074 1.059
3906.920 1.03 0.993 0.951 0.95 1.051 1.1226 1.025 0.912 0.911 0.964
3926.213 0.944 0.895 0.903 0.919 0.886 0.898 0.95 1.006 0.977 0.928
3945.506 0.939 0.89 0.822 0.891 0.962 0.887 0.851 0.798 0.784 0.835
3964.800 0.834 0.813 0.731 0.64 0.618 0.709 0.802 0.741 0.726 0.843
3984.093 0.779 0.671 0.668 0.681 0.716 0.712 0.68 0.676 0.645
##END=
