##TITLE=Nitrogen fluoride
##JCAMP-DX=4.24
##DATA TYPE=INFRARED SPECTRUM
##CLASS=COBLENTZ
##ORIGIN=DOW CHEMICAL COMPANY
##OWNER=COBLENTZ SOC.
Collection (C) 2018 copyright by the U.S. Secretary of Commerce
on behalf of the United States of America. All rights reserved.
##DATE=1964
##NAMES=N,N,N-trifluoroamine
NITROGEN FLUORIDE
##CAS REGISTRY NO=7783-54-2
##MOLFORM=F3 N
##SOURCE REFERENCE=COBLENTZ NO. 08760
##$NIST SOURCE=COBLENTZ
##$NIST IMAGE=cob8760
##SPECTROMETER/DATA SYSTEM=DOW KBr FOREPRISM-GRATING
##INSTRUMENT PARAMETERS=GRATING CHANGED AT 5.0, 7.5, 15.0 MICRON
##STATE=GAS (50 mmHg, N2 ADDED, TOTAL PRESSURE 600 mmHg)
##PATH LENGTH=5 CM
##SAMPLING PROCEDURE=TRANSMISSION
##RESOLUTION=2
##DATA PROCESSING=DIGITIZED BY COBLENTZ SOCIETY (BATCH I) FROM HARD COPY
##XUNITS=1/CM
##YUNITS=TRANSMITTANCE
##XLABEL=Wavenumbers (cm-1)
##YLABEL=% Transmission
##XFACTOR=1
##YFACTOR=1
##DELTAX=1
##FIRSTX=459
##LASTX=3800
##FIRSTY=0.8506
##MAXX=3800
##MINX=459
##MAXY=0.896
##MINY=0.0083
##NPOINTS=3342
##XYDATA=(X++(Y..Y))
459.000000 0.8506 0.8503 0.8500 0.8497 0.8494
464.000000 0.8491 0.8490 0.8490 0.8475 0.8466
469.000000 0.8457 0.8448 0.8439 0.8431 0.8427
474.000000 0.8427 0.8427 0.8428 0.8432 0.8432
479.000000 0.8432 0.8432 0.8432 0.8432 0.8428
484.000000 0.8424 0.8421 0.8417 0.8403 0.8377
489.000000 0.8327 0.8277 0.8225 0.8174 0.8126
494.000000 0.8078 0.8026 0.7987 0.7965 0.7937
499.000000 0.8051 0.8324 0.8514 0.8497 0.8501
504.000000 0.8494 0.8484 0.8468 0.8452 0.8439
509.000000 0.8425 0.8413 0.8401 0.8385 0.8368
514.000000 0.8353 0.8340 0.8328 0.8321 0.8318
519.000000 0.8320 0.8321 0.8327 0.8336 0.8345
524.000000 0.8353 0.8361 0.8367 0.8374 0.8381
529.000000 0.8388 0.8395 0.8403 0.8410 0.8418
534.000000 0.8425 0.8433 0.8440 0.8447 0.8453
539.000000 0.8460 0.8466 0.8473 0.8477 0.8480
544.000000 0.8484 0.8487 0.8490 0.8493 0.8497
549.000000 0.8500 0.8504 0.8507 0.8511 0.8514
554.000000 0.8518 0.8523 0.8528 0.8533 0.8538
559.000000 0.8543 0.8548 0.8553 0.8558 0.8563
564.000000 0.8568 0.8574 0.8580 0.8585 0.8591
569.000000 0.8597 0.8602 0.8608 0.8614 0.8618
574.000000 0.8624 0.8628 0.8634 0.8639 0.8644
579.000000 0.8649 0.8654 0.8659 0.8664 0.8666
584.000000 0.8668 0.8670 0.8671 0.8673 0.8675
589.000000 0.8677 0.8678 0.8680 0.8682 0.8684
594.000000 0.8686 0.8687 0.8688 0.8689 0.8690
599.000000 0.8691 0.8691 0.8692 0.8693 0.8694
604.000000 0.8694 0.8695 0.8695 0.8695 0.8695
609.000000 0.8695 0.8693 0.8691 0.8689 0.8687
614.000000 0.8684 0.8682 0.8680 0.8678 0.8678
619.000000 0.8678 0.8678 0.8677 0.8675 0.8675
624.000000 0.8674 0.8673 0.8671 0.8668 0.8667
629.000000 0.8665 0.8664 0.8661 0.8659 0.8657
634.000000 0.8655 0.8653 0.8650 0.8647 0.8640
639.000000 0.8633 0.8625 0.8599 0.8568 0.8534
644.000000 0.8358 0.8044 0.7730 0.7415 0.7101
649.000000 0.6958 0.8641 0.8645 0.8644 0.8628
654.000000 0.8609 0.8586 0.8560 0.8532 0.8504
659.000000 0.8478 0.8453 0.8421 0.8388 0.8355
664.000000 0.8323 0.8303 0.8282 0.8267 0.8263
669.000000 0.8262 0.8267 0.8271 0.8275 0.8294
674.000000 0.8313 0.8342 0.8378 0.8418 0.8467
679.000000 0.8521 0.8568 0.8599 0.8631 0.8661
684.000000 0.8686 0.8711 0.8731 0.8745 0.8759
689.000000 0.8771 0.8778 0.8787 0.8795 0.8800
694.000000 0.8805 0.8810 0.8815 0.8817 0.8820
699.000000 0.8823 0.8825 0.8825 0.8821 0.8818
704.000000 0.8817 0.8814 0.8812 0.8810 0.8809
709.000000 0.8807 0.8805 0.8804 0.8805 0.8805
714.000000 0.8806 0.8807 0.8815 0.8823 0.8831
719.000000 0.8837 0.8842 0.8848 0.8847 0.8842
724.000000 0.8838 0.8836 0.8833 0.8831 0.8824
729.000000 0.8816 0.8808 0.8800 0.8795 0.8791
734.000000 0.8786 0.8781 0.8778 0.8777 0.8775
739.000000 0.8774 0.8773 0.8773 0.8775 0.8775
744.000000 0.8778 0.8778 0.8780 0.8781 0.8781
749.000000 0.8781 0.8782 0.8782 0.8782 0.8783
754.000000 0.8783 0.8784 0.8784 0.8784 0.8784
759.000000 0.8784 0.8784 0.8784 0.8784 0.8784
764.000000 0.8782 0.8781 0.8780 0.8778 0.8777
769.000000 0.8775 0.8775 0.8775 0.8775 0.8774
774.000000 0.8774 0.8774 0.8773 0.8773 0.8771
779.000000 0.8771 0.8771 0.8771 0.8771 0.8770
784.000000 0.8770 0.8770 0.8768 0.8768 0.8768
789.000000 0.8768 0.8767 0.8767 0.8766 0.8765
794.000000 0.8765 0.8764 0.8763 0.8763 0.8762
799.000000 0.8761 0.8761 0.8759 0.8757 0.8754
804.000000 0.8752 0.8750 0.8747 0.8745 0.8743
809.000000 0.8740 0.8738 0.8736 0.8733 0.8728
814.000000 0.8725 0.8721 0.8717 0.8713 0.8710
819.000000 0.8706 0.8701 0.8694 0.8687 0.8680
824.000000 0.8674 0.8667 0.8660 0.8653 0.8642
829.000000 0.8630 0.8618 0.8606 0.8594 0.8583
834.000000 0.8563 0.8544 0.8524 0.8501 0.8477
839.000000 0.8449 0.8414 0.8378 0.8344 0.8296
844.000000 0.8242 0.8188 0.8132 0.8074 0.8017
849.000000 0.7951 0.7864 0.7776 0.7691 0.7605
854.000000 0.7518 0.7351 0.7187 0.7042 0.6910
859.000000 0.6787 0.6665 0.6528 0.6389 0.6218
864.000000 0.6040 0.5687 0.5452 0.5329 0.5252
869.000000 0.5175 0.4854 0.4479 0.4103 0.3727
874.000000 0.3350 0.2975 0.2599 0.2222 0.1836
879.000000 0.1623 0.1411 0.1107 0.0925 0.0755
884.000000 0.0607 0.0475 0.0349 0.0224 0.0162
889.000000 0.0130 0.0105 0.0097 0.0094 0.0094
894.000000 0.0095 0.0096 0.0098 0.0099 0.0100
899.000000 0.0101 0.0102 0.0102 0.0102 0.0102
904.000000 0.0102 0.0083 0.0099 0.0097 0.0096
909.000000 0.0094 0.0092 0.0092 0.0092 0.0094
914.000000 0.0095 0.0097 0.0098 0.0105 0.0113
919.000000 0.0124 0.0151 0.0199 0.0311 0.0399
924.000000 0.0477 0.0565 0.0963 0.1092 0.1487
929.000000 0.2159 0.2832 0.3504 0.4177 0.4891
934.000000 0.5276 0.6184 0.6354 0.6504 0.6645
939.000000 0.6790 0.6944 0.7248 0.7361 0.7457
944.000000 0.7555 0.7668 0.7778 0.7867 0.7955
949.000000 0.8040 0.8118 0.8195 0.8233 0.8271
954.000000 0.8295 0.8307 0.8315 0.8321 0.8325
959.000000 0.8328 0.8333 0.8335 0.8335 0.8335
964.000000 0.8333 0.8332 0.8330 0.8324 0.8316
969.000000 0.8307 0.8296 0.8280 0.8261 0.8235
974.000000 0.8209 0.8175 0.8141 0.8085 0.8021
979.000000 0.7892 0.7730 0.7568 0.7484 0.7580
984.000000 0.7730 0.7726 0.7704 0.7644 0.7584
989.000000 0.7524 0.7465 0.7391 0.7275 0.7125
994.000000 0.7011 0.6884 0.6572 0.6309 0.6118
999.000000 0.5845 0.5560 0.5154 0.4940 0.4747
1004.000000 0.4501 0.4332 0.4217 0.4104 0.4030
1009.000000 0.3980 0.3977 0.3984 0.3999 0.4044
1014.000000 0.4106 0.4164 0.4229 0.4310 0.4551
1019.000000 0.4832 0.5488 0.6016 0.6022 0.5910
1024.000000 0.5804 0.5755 0.5744 0.6038 0.4898
1029.000000 0.3758 0.2617 0.1477 0.0670 0.0651
1034.000000 0.7548 0.7868 0.7851 0.7860 0.7741
1039.000000 0.7583 0.7424 0.7265 0.7106 0.7028
1044.000000 0.6996 0.6989 0.6989 0.6989 0.6998
1049.000000 0.7015 0.7118 0.7245 0.7355 0.7448
1054.000000 0.7547 0.7636 0.7721 0.7891 0.8011
1059.000000 0.8114 0.8204 0.8277 0.8347 0.8413
1064.000000 0.8475 0.8521 0.8560 0.8597 0.8628
1069.000000 0.8646 0.8662 0.8678 0.8691 0.8705
1074.000000 0.8718 0.8728 0.8738 0.8748 0.8757
1079.000000 0.8762 0.8767 0.8773 0.8778 0.8783
1084.000000 0.8787 0.8788 0.8788 0.8789 0.8789
1089.000000 0.8790 0.8790 0.8790 0.8787 0.8785
1094.000000 0.8782 0.8780 0.8778 0.8775 0.8773
1099.000000 0.8770 0.8767 0.8763 0.8760 0.8756
1104.000000 0.8753 0.8749 0.8746 0.8743 0.8740
1109.000000 0.8738 0.8735 0.8732 0.8732 0.8732
1114.000000 0.8736 0.8740 0.8744 0.8748 0.8753
1119.000000 0.8758 0.8767 0.8775 0.8785 0.8784
1124.000000 0.8778 0.8775 0.8745 0.8711 0.8677
1129.000000 0.8647 0.8618 0.8588 0.8558 0.8528
1134.000000 0.8502 0.8481 0.8481 0.8481 0.8504
1139.000000 0.8705 0.8767 0.8764 0.8760 0.8756
1144.000000 0.8749 0.8743 0.8737 0.8734 0.8730
1149.000000 0.8727 0.8725 0.8723 0.8721 0.8723
1154.000000 0.8723 0.8725 0.8725 0.8728 0.8731
1159.000000 0.8737 0.8742 0.8752 0.8763 0.8775
1164.000000 0.8786 0.8798 0.8809 0.8820 0.8828
1169.000000 0.8835 0.8835 0.8835 0.8834 0.8831
1174.000000 0.8827 0.8821 0.8818 0.8812 0.8806
1179.000000 0.8810 0.8831 0.8851 0.8870 0.8888
1184.000000 0.8895 0.8901 0.8905 0.8908 0.8911
1189.000000 0.8914 0.8917 0.8918 0.8921 0.8923
1194.000000 0.8925 0.8928 0.8930 0.8933 0.8936
1199.000000 0.8938 0.8941 0.8943 0.8946 0.8948
1204.000000 0.8950 0.8953 0.8955 0.8958 0.8960
1209.000000 0.8960 0.8959 0.8957 0.8956 0.8955
1214.000000 0.8953 0.8952 0.8950 0.8949 0.8948
1219.000000 0.8946 0.8945 0.8944 0.8943 0.8942
1224.000000 0.8941 0.8939 0.8938 0.8937 0.8936
1229.000000 0.8935 0.8934 0.8930 0.8925 0.8921
1234.000000 0.8917 0.8913 0.8909 0.8904 0.8899
1239.000000 0.8894 0.8889 0.8884 0.8875 0.8864
1244.000000 0.8853 0.8842 0.8831 0.8820 0.8809
1249.000000 0.8801 0.8792 0.8784 0.8775 0.8767
1254.000000 0.8759 0.8752 0.8746 0.8740 0.8733
1259.000000 0.8727 0.8720 0.8714 0.8710 0.8706
1264.000000 0.8701 0.8697 0.8693 0.8690 0.8689
1269.000000 0.8688 0.8687 0.8685 0.8684 0.8683
1274.000000 0.8682 0.8682 0.8682 0.8682 0.8682
1279.000000 0.8682 0.8682 0.8682 0.8682 0.8685
1284.000000 0.8689 0.8693 0.8697 0.8703 0.8707
1289.000000 0.8711 0.8713 0.8713 0.8712 0.8712
1294.000000 0.8712 0.8712 0.8711 0.8711 0.8711
1299.000000 0.8711 0.8710 0.8710 0.8710 0.8710
1304.000000 0.8709 0.8709 0.8709 0.8709 0.8708
1309.000000 0.8708 0.8708 0.8708 0.8707 0.8707
1314.000000 0.8707 0.8707 0.8706 0.8706 0.8706
1319.000000 0.8705 0.8705 0.8705 0.8705 0.8704
1324.000000 0.8704 0.8703 0.8703 0.8702 0.8702
1329.000000 0.8701 0.8700 0.8698 0.8696 0.8694
1334.000000 0.8692 0.8690 0.8688 0.8686 0.8684
1339.000000 0.8682 0.8681 0.8678 0.8678 0.8675
1344.000000 0.8675 0.8673 0.8671 0.8670 0.8668
1349.000000 0.8667 0.8666 0.8666 0.8666 0.8665
1354.000000 0.8665 0.8664 0.8664 0.8663 0.8663
1359.000000 0.8662 0.8661 0.8659 0.8657 0.8656
1364.000000 0.8654 0.8653 0.8651 0.8646 0.8641
1369.000000 0.8635 0.8630 0.8624 0.8618 0.8610
1374.000000 0.8602 0.8594 0.8586 0.8578 0.8570
1379.000000 0.8563 0.8557 0.8552 0.8547 0.8554
1384.000000 0.8561 0.8568 0.8574 0.8580 0.8588
1389.000000 0.8596 0.8604 0.8611 0.8618 0.8621
1394.000000 0.8625 0.8628 0.8632 0.8633 0.8634
1399.000000 0.8635 0.8636 0.8636 0.8636 0.8636
1404.000000 0.8636 0.8636 0.8636 0.8636 0.8636
1409.000000 0.8636 0.8636 0.8636 0.8636 0.8636
1414.000000 0.8636 0.8636 0.8636 0.8636 0.8636
1419.000000 0.8636 0.8636 0.8636 0.8636 0.8636
1424.000000 0.8635 0.8633 0.8632 0.8630 0.8628
1429.000000 0.8627 0.8625 0.8623 0.8621 0.8620
1434.000000 0.8618 0.8618 0.8617 0.8616 0.8614
1439.000000 0.8613 0.8612 0.8611 0.8610 0.8609
1444.000000 0.8609 0.8609 0.8609 0.8610 0.8610
1449.000000 0.8610 0.8611 0.8611 0.8611 0.8612
1454.000000 0.8612 0.8614 0.8617 0.8620 0.8621
1459.000000 0.8625 0.8628 0.8631 0.8633 0.8636
1464.000000 0.8636 0.8637 0.8637 0.8637 0.8638
1469.000000 0.8638 0.8639 0.8639 0.8638 0.8636
1474.000000 0.8635 0.8634 0.8632 0.8631 0.8628
1479.000000 0.8628 0.8625 0.8621 0.8618 0.8616
1484.000000 0.8613 0.8609 0.8606 0.8603 0.8600
1489.000000 0.8598 0.8595 0.8593 0.8590 0.8588
1494.000000 0.8586 0.8583 0.8581 0.8581 0.8580
1499.000000 0.8578 0.8578 0.8578 0.8578 0.8580
1504.000000 0.8582 0.8584 0.8586 0.8588 0.8589
1509.000000 0.8590 0.8591 0.8591 0.8590 0.8587
1514.000000 0.8584 0.8577 0.8565 0.8552 0.8537
1519.000000 0.8507 0.8405 0.8312 0.8303 0.8299
1524.000000 0.8375 0.8459 0.8543 0.8566 0.8566
1529.000000 0.8563 0.8555 0.8542 0.8527 0.8512
1534.000000 0.8497 0.8481 0.8466 0.8453 0.8441
1539.000000 0.8428 0.8417 0.8409 0.8406 0.8402
1544.000000 0.8399 0.8398 0.8397 0.8396 0.8400
1549.000000 0.8405 0.8409 0.8420 0.8434 0.8448
1554.000000 0.8463 0.8478 0.8496 0.8512 0.8527
1559.000000 0.8542 0.8558 0.8575 0.8587 0.8593
1564.000000 0.8599 0.8604 0.8609 0.8610 0.8612
1569.000000 0.8614 0.8616 0.8617 0.8617 0.8618
1574.000000 0.8618 0.8618 0.8620 0.8620 0.8620
1579.000000 0.8621 0.8621 0.8621 0.8621 0.8621
1584.000000 0.8623 0.8623 0.8623 0.8623 0.8623
1589.000000 0.8623 0.8621 0.8621 0.8621 0.8621
1594.000000 0.8621 0.8621 0.8621 0.8620 0.8620
1599.000000 0.8620 0.8618 0.8618 0.8618 0.8617
1604.000000 0.8617 0.8616 0.8616 0.8615 0.8615
1609.000000 0.8614 0.8614 0.8613 0.8613 0.8612
1614.000000 0.8612 0.8613 0.8613 0.8614 0.8614
1619.000000 0.8614 0.8615 0.8615 0.8616 0.8616
1624.000000 0.8615 0.8615 0.8614 0.8614 0.8614
1629.000000 0.8613 0.8613 0.8612 0.8612 0.8612
1634.000000 0.8612 0.8612 0.8612 0.8612 0.8612
1639.000000 0.8612 0.8612 0.8612 0.8612 0.8612
1644.000000 0.8612 0.8611 0.8611 0.8611 0.8610
1649.000000 0.8610 0.8609 0.8609 0.8609 0.8608
1654.000000 0.8608 0.8608 0.8608 0.8608 0.8608
1659.000000 0.8607 0.8606 0.8605 0.8604 0.8603
1664.000000 0.8602 0.8601 0.8600 0.8598 0.8597
1669.000000 0.8595 0.8594 0.8593 0.8591 0.8590
1674.000000 0.8590 0.8591 0.8593 0.8595 0.8596
1679.000000 0.8598 0.8600 0.8602 0.8603 0.8605
1684.000000 0.8607 0.8608 0.8610 0.8610 0.8610
1689.000000 0.8608 0.8605 0.8602 0.8600 0.8597
1694.000000 0.8595 0.8592 0.8590 0.8587 0.8584
1699.000000 0.8582 0.8578 0.8577 0.8574 0.8571
1704.000000 0.8568 0.8566 0.8564 0.8561 0.8559
1709.000000 0.8556 0.8554 0.8551 0.8549 0.8546
1714.000000 0.8543 0.8541 0.8538 0.8536 0.8533
1719.000000 0.8531 0.8528 0.8525 0.8523 0.8520
1724.000000 0.8518 0.8518 0.8517 0.8516 0.8515
1729.000000 0.8515 0.8516 0.8516 0.8517 0.8518
1734.000000 0.8518 0.8518 0.8518 0.8516 0.8513
1739.000000 0.8511 0.8508 0.8501 0.8489 0.8478
1744.000000 0.8467 0.8456 0.8445 0.8435 0.8424
1749.000000 0.8414 0.8403 0.8393 0.8382 0.8371
1754.000000 0.8361 0.8350 0.8340 0.8328 0.8318
1759.000000 0.8309 0.8299 0.8289 0.8278 0.8268
1764.000000 0.8259 0.8249 0.8239 0.8228 0.8218
1769.000000 0.8206 0.8195 0.8183 0.8171 0.8160
1774.000000 0.8149 0.8137 0.8125 0.8112 0.8101
1779.000000 0.8089 0.8075 0.8064 0.8051 0.8040
1784.000000 0.8028 0.8017 0.8006 0.7996 0.7985
1789.000000 0.7974 0.7962 0.7951 0.7943 0.7935
1794.000000 0.7926 0.7918 0.7911 0.7905 0.7898
1799.000000 0.7891 0.7884 0.7876 0.7865 0.7838
1804.000000 0.7768 0.7704 0.7661 0.7651 0.7645
1809.000000 0.7665 0.7855 0.8045 0.8178 0.8195
1814.000000 0.8205 0.8208 0.8202 0.8193 0.8175
1819.000000 0.8150 0.8106 0.8040 0.8003 0.7998
1824.000000 0.7998 0.8001 0.8004 0.8011 0.8017
1829.000000 0.8024 0.8030 0.8037 0.8045 0.8053
1834.000000 0.8061 0.8071 0.8084 0.8095 0.8108
1839.000000 0.8125 0.8142 0.8162 0.8186 0.8209
1844.000000 0.8233 0.8259 0.8285 0.8307 0.8325
1849.000000 0.8343 0.8361 0.8378 0.8392 0.8404
1854.000000 0.8416 0.8428 0.8439 0.8445 0.8451
1859.000000 0.8458 0.8464 0.8470 0.8475 0.8477
1864.000000 0.8478 0.8478 0.8478 0.8478 0.8478
1869.000000 0.8478 0.8478 0.8477 0.8475 0.8475
1874.000000 0.8474 0.8473 0.8471 0.8470 0.8468
1879.000000 0.8468 0.8467 0.8466 0.8466 0.8465
1884.000000 0.8464 0.8462 0.8460 0.8458 0.8455
1889.000000 0.8448 0.8440 0.8433 0.8423 0.8411
1894.000000 0.8399 0.8386 0.8373 0.8361 0.8345
1899.000000 0.8330 0.8309 0.8286 0.8263 0.8240
1904.000000 0.8217 0.8194 0.8171 0.8124 0.8075
1909.000000 0.8028 0.7983 0.7940 0.7898 0.7855
1914.000000 0.7788 0.7718 0.7648 0.7565 0.7484
1919.000000 0.7407 0.7328 0.7258 0.7228 0.7210
1924.000000 0.7196 0.7200 0.7255 0.7403 0.7643
1929.000000 0.7884 0.7908 0.6771 0.6755 0.6975
1934.000000 0.7093 0.7211 0.7331 0.7465 0.7778
1939.000000 0.7860 0.7928 0.7998 0.8071 0.8143
1944.000000 0.8212 0.8253 0.8294 0.8328 0.8364
1949.000000 0.8393 0.8421 0.8442 0.8461 0.8480
1954.000000 0.8492 0.8504 0.8515 0.8520 0.8525
1959.000000 0.8532 0.8536 0.8539 0.8542 0.8544
1964.000000 0.8546 0.8548 0.8550 0.8551 0.8553
1969.000000 0.8555 0.8556 0.8557 0.8558 0.8559
1974.000000 0.8559 0.8560 0.8561 0.8561 0.8563
1979.000000 0.8565 0.8567 0.8568 0.8571 0.8573
1984.000000 0.8575 0.8577 0.8578 0.8581 0.8583
1989.000000 0.8586 0.8589 0.8591 0.8594 0.8597
1994.000000 0.8599 0.8602 0.8604 0.8605 0.8605
1999.000000 0.8606 0.8607 0.8607 0.8608 0.8608
2004.000000 0.8609 0.8609 0.8610 0.8610 0.8610
2009.000000 0.8610 0.8611 0.8611 0.8611 0.8611
2014.000000 0.8611 0.8611 0.8611 0.8611 0.8611
2019.000000 0.8611 0.8611 0.8611 0.8611 0.8611
2024.000000 0.8611 0.8611 0.8611 0.8611 0.8611
2029.000000 0.8611 0.8611 0.8611 0.8611 0.8611
2034.000000 0.8611 0.8611 0.8611 0.8611 0.8611
2039.000000 0.8611 0.8611 0.8611 0.8612 0.8612
2044.000000 0.8612 0.8612 0.8612 0.8612 0.8613
2049.000000 0.8613 0.8613 0.8613 0.8613 0.8613
2054.000000 0.8613 0.8613 0.8614 0.8614 0.8614
2059.000000 0.8614 0.8614 0.8614 0.8614 0.8614
2064.000000 0.8615 0.8615 0.8615 0.8615 0.8616
2069.000000 0.8616 0.8616 0.8616 0.8617 0.8617
2074.000000 0.8618 0.8618 0.8618 0.8618 0.8618
2079.000000 0.8618 0.8618 0.8618 0.8620 0.8620
2084.000000 0.8621 0.8621 0.8621 0.8621 0.8621
2089.000000 0.8621 0.8623 0.8623 0.8624 0.8624
2094.000000 0.8625 0.8625 0.8625 0.8627 0.8628
2099.000000 0.8628 0.8628 0.8630 0.8631 0.8631
2104.000000 0.8632 0.8632 0.8633 0.8634 0.8635
2109.000000 0.8635 0.8636 0.8637 0.8638 0.8638
2114.000000 0.8638 0.8638 0.8639 0.8639 0.8639
2119.000000 0.8639 0.8639 0.8639 0.8640 0.8640
2124.000000 0.8640 0.8640 0.8640 0.8640 0.8640
2129.000000 0.8640 0.8641 0.8641 0.8641 0.8641
2134.000000 0.8641 0.8641 0.8642 0.8642 0.8642
2139.000000 0.8641 0.8641 0.8640 0.8640 0.8639
2144.000000 0.8639 0.8638 0.8638 0.8637 0.8637
2149.000000 0.8636 0.8636 0.8635 0.8635 0.8634
2154.000000 0.8633 0.8632 0.8632 0.8631 0.8631
2159.000000 0.8630 0.8630 0.8630 0.8630 0.8628
2164.000000 0.8628 0.8628 0.8628 0.8628 0.8628
2169.000000 0.8628 0.8628 0.8627 0.8627 0.8625
2174.000000 0.8625 0.8625 0.8625 0.8625 0.8625
2179.000000 0.8625 0.8625 0.8624 0.8624 0.8624
2184.000000 0.8624 0.8623 0.8623 0.8623 0.8623
2189.000000 0.8621 0.8621 0.8621 0.8621 0.8621
2194.000000 0.8621 0.8621 0.8621 0.8620 0.8620
2199.000000 0.8618 0.8618 0.8618 0.8618 0.8618
2204.000000 0.8618 0.8618 0.8618 0.8617 0.8617
2209.000000 0.8617 0.8617 0.8616 0.8616 0.8616
2214.000000 0.8616 0.8615 0.8615 0.8615 0.8615
2219.000000 0.8614 0.8614 0.8614 0.8614 0.8613
2224.000000 0.8613 0.8613 0.8613 0.8612 0.8612
2229.000000 0.8611 0.8611 0.8611 0.8611 0.8610
2234.000000 0.8610 0.8610 0.8610 0.8609 0.8609
2239.000000 0.8609 0.8609 0.8608 0.8608 0.8608
2244.000000 0.8608 0.8607 0.8607 0.8607 0.8607
2249.000000 0.8606 0.8606 0.8606 0.8606 0.8605
2254.000000 0.8605 0.8605 0.8605 0.8604 0.8604
2259.000000 0.8603 0.8603 0.8603 0.8603 0.8602
2264.000000 0.8602 0.8602 0.8602 0.8601 0.8601
2269.000000 0.8601 0.8601 0.8600 0.8600 0.8600
2274.000000 0.8600 0.8599 0.8599 0.8599 0.8599
2279.000000 0.8598 0.8598 0.8598 0.8598 0.8597
2284.000000 0.8597 0.8596 0.8596 0.8596 0.8596
2289.000000 0.8595 0.8595 0.8594 0.8594 0.8593
2294.000000 0.8593 0.8592 0.8592 0.8591 0.8591
2299.000000 0.8591 0.8591 0.8590 0.8590 0.8589
2304.000000 0.8589 0.8589 0.8589 0.8588 0.8588
2309.000000 0.8588 0.8588 0.8588 0.8589 0.8590
2314.000000 0.8591 0.8591 0.8592 0.8593 0.8594
2319.000000 0.8595 0.8596 0.8597 0.8599 0.8601
2324.000000 0.8603 0.8605 0.8607 0.8609 0.8611
2329.000000 0.8613 0.8615 0.8616 0.8618 0.8618
2334.000000 0.8621 0.8623 0.8625 0.8625 0.8628
2339.000000 0.8628 0.8628 0.8628 0.8627 0.8625
2344.000000 0.8625 0.8624 0.8623 0.8620 0.8617
2349.000000 0.8613 0.8610 0.8606 0.8606 0.8606
2354.000000 0.8610 0.8617 0.8624 0.8630 0.8637
2359.000000 0.8646 0.8656 0.8662 0.8668 0.8668
2364.000000 0.8668 0.8668 0.8668 0.8668 0.8668
2369.000000 0.8668 0.8668 0.8668 0.8668 0.8668
2374.000000 0.8668 0.8668 0.8670 0.8670 0.8671
2379.000000 0.8671 0.8671 0.8673 0.8674 0.8674
2384.000000 0.8675 0.8675 0.8677 0.8677 0.8678
2389.000000 0.8678 0.8678 0.8680 0.8681 0.8681
2394.000000 0.8682 0.8682 0.8683 0.8683 0.8683
2399.000000 0.8683 0.8684 0.8684 0.8685 0.8685
2404.000000 0.8686 0.8686 0.8687 0.8687 0.8688
2409.000000 0.8689 0.8690 0.8690 0.8691 0.8691
2414.000000 0.8692 0.8693 0.8694 0.8694 0.8695
2419.000000 0.8696 0.8697 0.8697 0.8698 0.8699
2424.000000 0.8700 0.8700 0.8701 0.8701 0.8702
2429.000000 0.8703 0.8704 0.8704 0.8705 0.8706
2434.000000 0.8707 0.8707 0.8708 0.8708 0.8709
2439.000000 0.8710 0.8711 0.8711 0.8712 0.8713
2444.000000 0.8714 0.8715 0.8716 0.8716 0.8717
2449.000000 0.8718 0.8718 0.8720 0.8721 0.8721
2454.000000 0.8721 0.8723 0.8724 0.8724 0.8725
2459.000000 0.8725 0.8727 0.8727 0.8727 0.8727
2464.000000 0.8727 0.8727 0.8727 0.8727 0.8727
2469.000000 0.8727 0.8727 0.8727 0.8727 0.8727
2474.000000 0.8727 0.8727 0.8727 0.8727 0.8727
2479.000000 0.8725 0.8725 0.8725 0.8725 0.8725
2484.000000 0.8725 0.8724 0.8724 0.8723 0.8723
