##TITLE=HYDROGEN SULFIDE
##JCAMP-DX=4.24
##DATA TYPE=INFRARED SPECTRUM
##CLASS=COBLENTZ
##ORIGIN=DOW CHEMICAL COMPANY
##OWNER=COBLENTZ SOCIETY
Collection (C) 2018 copyright by the U.S. Secretary of Commerce
on behalf of the United States of America. All rights reserved.
##DATE=1964
##CAS REGISTRY NO=7783-06-4
##MOLFORM=H2 S
##SOURCE REFERENCE=COBLENTZ NO. 8759
##$NIST SOURCE=COBLENTZ
##$NIST IMAGE=cob8759
##SPECTROMETER/DATA SYSTEM=DOW KBr FOREPRISM
##INSTRUMENT PARAMETERS=GRATING CHANGED AT 5.0, 7.5, 15.0 MICRON
##STATE=GAS (600 mmHg DILUTED TO A TOTAL PRESSURE OF 600 mmHg WITH N2)
##PATH LENGTH=12.5 CM
##SAMPLING PROCEDURE=TRANSMISSION
##RESOLUTION=4
##DATA PROCESSING=DIGITIZED BY NIST FROM HARD COPY (FROM TWO SEGMENTS)
##XUNITS=1/CM
##YUNITS=TRANSMITTANCE
##XFACTOR=1.000000
##YFACTOR=1
##DELTAX=0.935748
##FIRSTX=457.891
##LASTX=3797.58
##FIRSTY=0.992
##MAXX=3797.58
##MINX=457.891
##MAXY=1
##MINY=0.544
##NPOINTS=3570
##XYDATA=(X++(Y..Y))
457.891000 0.9920 0.9920 0.9920 0.9920 0.9940
462.569742 0.9940 0.9940 0.9950 0.9950 0.9950
467.248485 0.9970 0.9970 0.9980 0.9980 0.9980
471.927227 0.9980 0.9980 0.9980 0.9980 0.9980
476.605970 0.9980 0.9980 0.9980 0.9980 0.9980
481.284712 0.9980 1.0000 1.0000 1.0000 1.0000
485.963455 1.0000 1.0000 1.0000 1.0000 1.0000
490.642197 1.0000 1.0000 1.0000 1.0000 1.0000
495.320940 0.9980 0.9980 0.9980 0.9970 0.9970
499.999682 0.9950 0.9950 0.9920 0.9920 0.9940
504.678424 0.9920 0.9920 0.9920 0.9920 0.9910
509.357167 0.9910 0.9910 0.9910 0.9890 0.9890
514.035909 0.9880 0.9880 0.9860 0.9850 0.9850
518.714652 0.9840 0.9840 0.9840 0.9850 0.9860
523.393394 0.9860 0.9850 0.9840 0.9840 0.9840
528.072137 0.9840 0.9840 0.9840 0.9850 0.9850
532.750879 0.9850 0.9840 0.9840 0.9820 0.9810
537.429622 0.9810 0.9810 0.9810 0.9790 0.9780
542.108364 0.9790 0.9780 0.9780 0.9780 0.9760
546.787106 0.9760 0.9760 0.9760 0.9760 0.9780
551.465849 0.9780 0.9790 0.9790 0.9790 0.9790
556.144591 0.9790 0.9810 0.9810 0.9810 0.9810
560.823334 0.9810 0.9810 0.9820 0.9840 0.9840
565.502076 0.9840 0.9850 0.9840 0.9840 0.9840
570.180819 0.9840 0.9840 0.9840 0.9840 0.9840
574.859561 0.9850 0.9850 0.9850 0.9850 0.9860
579.538304 0.9880 0.9860 0.9850 0.9850 0.9850
584.217046 0.9850 0.9860 0.9860 0.9860 0.9860
588.895788 0.9850 0.9850 0.9840 0.9840 0.9840
593.574531 0.9840 0.9840 0.9840 0.9840 0.9840
598.253273 0.9820 0.9820 0.9820 0.9820 0.9840
602.932016 0.9840 0.9840 0.9840 0.9840 0.9840
607.610758 0.9840 0.9840 0.9850 0.9860 0.9860
612.289501 0.9860 0.9860 0.9860 0.9860 0.9860
616.968243 0.9880 0.9880 0.9890 0.9890 0.9890
621.646985 0.9910 0.9910 0.9890 0.9890 0.9890
626.325728 0.9890 0.9890 0.9890 0.9890 0.9890
631.004470 0.9910 0.9910 0.9890 0.9890 0.9890
635.683213 0.9880 0.9880 0.9880 0.9880 0.9880
640.361955 0.9890 0.9880 0.9860 0.9860 0.9860
645.040698 0.9860 0.9860 0.9860 0.9860 0.9860
649.719440 0.9860 0.9890 0.9880 0.9860 0.9850
654.398183 0.9840 0.9840 0.9840 0.9840 0.9840
659.076925 0.9840 0.9840 0.9840 0.9840 0.9820
663.755667 0.9820 0.9820 0.9820 0.9820 0.9820
668.434410 0.9820 0.9820 0.9820 0.9820 0.9820
673.113152 0.9810 0.9810 0.9810 0.9790 0.9790
677.791895 0.9780 0.9780 0.9780 0.9780 0.9790
682.470637 0.9790 0.9810 0.9810 0.9810 0.9810
687.149380 0.9820 0.9840 0.9850 0.9860 0.9860
691.828122 0.9880 0.9880 0.9880 0.9880 0.9890
696.506865 0.9890 0.9910 0.9910 0.9920 0.9940
701.185607 0.9940 0.9940 0.9920 0.9920 0.9920
705.864349 0.9920 0.9940 0.9940 0.9940 0.9950
710.543092 0.9950 0.9940 0.9920 0.9920 0.9920
715.221834 0.9920 0.9910 0.9910 0.9910 0.9910
719.900577 0.9910 0.9890 0.9890 0.9880 0.9880
724.579319 0.9880 0.9860 0.9860 0.9860 0.9860
729.258062 0.9860 0.9860 0.9850 0.9840 0.9820
733.936804 0.9810 0.9810 0.9790 0.9790 0.9780
738.615547 0.9790 0.9790 0.9790 0.9780 0.9780
743.294289 0.9760 0.9760 0.9760 0.9760 0.9760
747.973031 0.9760 0.9760 0.9760 0.9760 0.9780
752.651774 0.9780 0.9790 0.9790 0.9780 0.9780
757.330516 0.9780 0.9780 0.9780 0.9780 0.9760
762.009259 0.9760 0.9760 0.9750 0.9750 0.9750
766.688001 0.9750 0.9730 0.9720 0.9710 0.9690
771.366744 0.9690 0.9680 0.9680 0.9680 0.9680
776.045486 0.9680 0.9680 0.9680 0.9680 0.9680
780.724229 0.9660 0.9660 0.9660 0.9660 0.9650
785.402971 0.9650 0.9650 0.9650 0.9630 0.9630
790.081713 0.9620 0.9620 0.9620 0.9620 0.9620
794.760456 0.9620 0.9630 0.9630 0.9630 0.9630
799.439198 0.9630 0.9630 0.9620 0.9620 0.9620
804.117941 0.9630 0.9650 0.9650 0.9650 0.9650
808.796683 0.9660 0.9660 0.9660 0.9660 0.9660
813.475426 0.9680 0.9680 0.9690 0.9690 0.9710
818.154168 0.9690 0.9690 0.9710 0.9720 0.9720
822.832911 0.9720 0.9720 0.9730 0.9730 0.9730
827.511653 0.9730 0.9750 0.9750 0.9750 0.9750
832.190395 0.9750 0.9760 0.9760 0.9760 0.9760
836.869138 0.9760 0.9780 0.9780 0.9780 0.9790
841.547880 0.9810 0.9810 0.9810 0.9790 0.9790
846.226623 0.9790 0.9790 0.9790 0.9810 0.9810
850.905365 0.9810 0.9790 0.9780 0.9780 0.9790
855.584108 0.9790 0.9790 0.9810 0.9810 0.9810
860.262850 0.9810 0.9810 0.9790 0.9790 0.9780
864.941592 0.9760 0.9760 0.9760 0.9760 0.9760
869.620335 0.9790 0.9790 0.9780 0.9780 0.9780
874.299077 0.9760 0.9760 0.9760 0.9750 0.9750
878.977820 0.9750 0.9780 0.9790 0.9790 0.9780
883.656562 0.9780 0.9780 0.9780 0.9780 0.9780
888.335305 0.9760 0.9750 0.9730 0.9730 0.9730
893.014047 0.9730 0.9730 0.9730 0.9730 0.9730
897.692790 0.9750 0.9750 0.9760 0.9760 0.9760
902.371532 0.9760 0.9760 0.9750 0.9750 0.9750
907.050274 0.9750 0.9750 0.9750 0.9760 0.9760
911.729017 0.9780 0.9790 0.9790 0.9810 0.9810
916.407759 0.9820 0.9840 0.9850 0.9840 0.9820
921.086502 0.9820 0.9820 0.9820 0.9820 0.9820
925.765244 0.9820 0.9840 0.9840 0.9860 0.9880
930.443987 0.9880 0.9880 0.9880 0.9860 0.9880
935.122729 0.9880 0.9910 0.9920 0.9950 0.9950
939.801472 0.9950 0.9950 0.9940 0.9920 0.9910
944.480214 0.9910 0.9910 0.9910 0.9910 0.9910
949.158956 0.9890 0.9890 0.9890 0.9890 0.9890
953.837699 0.9890 0.9890 0.9890 0.9890 0.9890
958.516441 0.9890 0.9920 0.9920 0.9890 0.9890
963.195184 0.9880 0.9880 0.9880 0.9880 0.9880
967.873926 0.9880 0.9910 0.9890 0.9880 0.9880
972.552669 0.9860 0.9860 0.9860 0.9860 0.9860
977.231411 0.9850 0.9850 0.9840 0.9850 0.9840
981.910154 0.9840 0.9840 0.9820 0.9840 0.9840
986.588896 0.9840 0.9840 0.9840 0.9820 0.9810
991.267638 0.9790 0.9780 0.9780 0.9780 0.9760
995.946381 0.9760 0.9760 0.9760 0.9760 0.9760
1000.625123 0.9760 0.9760 0.9760 0.9760 0.9760
1005.303866 0.9760 0.9760 0.9760 0.9760 0.9760
1009.982608 0.9760 0.9760 0.9810 0.9820 0.9820
1014.661351 0.9820 0.9820 0.9820 0.9820 0.9820
1019.340093 0.9820 0.9820 0.9810 0.9820 0.9810
1024.018836 0.9810 0.9790 0.9790 0.9790 0.9810
1028.697578 0.9810 0.9810 0.9810 0.9820 0.9840
1033.376320 0.9840 0.9840 0.9840 0.9850 0.9850
1038.055063 0.9850 0.9860 0.9880 0.9880 0.9860
1042.733805 0.9860 0.9860 0.9860 0.9860 0.9860
1047.412548 0.9860 0.9860 0.9860 0.9850 0.9840
1052.091290 0.9820 0.9810 0.9810 0.9820 0.9840
1056.770033 0.9850 0.9850 0.9850 0.9860 0.9890
1061.448775 0.9890 0.9880 0.9860 0.9840 0.9820
1066.127518 0.9790 0.9780 0.9780 0.9760 0.9750
1070.806260 0.9750 0.9780 0.9780 0.9760 0.9760
1075.485002 0.9760 0.9750 0.9730 0.9730 0.9710
1080.163745 0.9680 0.9680 0.9750 0.9750 0.9750
1084.842487 0.9730 0.9690 0.9680 0.9660 0.9650
1089.521230 0.9620 0.9600 0.9630 0.9680 0.9680
1094.199972 0.9680 0.9680 0.9690 0.9750 0.9720
1098.878715 0.9660 0.9620 0.9560 0.9550 0.9580
1103.557457 0.9590 0.9590 0.9600 0.9620 0.9600
1108.236200 0.9580 0.9470 0.9320 0.9320 0.9519
1112.914942 0.9530 0.9560 0.9600 0.9630 0.9630
1117.593684 0.9590 0.9261 0.9230 0.9200 0.9270
1122.272427 0.9430 0.9520 0.9620 0.9660 0.9660
1126.951169 0.9590 0.9520 0.9400 0.9260 0.9111
1131.629912 0.9111 0.9600 0.9630 0.9630 0.9600
1136.308654 0.9560 0.9430 0.9210 0.9210 0.9529
1140.987397 0.9550 0.9530 0.9520 0.9520 0.9500
1145.666139 0.9460 0.9320 0.9290 0.9290 0.9400
1150.344881 0.9460 0.9520 0.9620 0.9620 0.9590
1155.023624 0.9550 0.9500 0.9400 0.9390 0.9400
1159.702366 0.9520 0.9530 0.9530 0.9520 0.9470
1164.381109 0.9450 0.9450 0.9450 0.9470 0.9470
1169.059851 0.9450 0.9340 0.9290 0.9140 0.9100
1173.738594 0.9060 0.9060 0.9110 0.9240 0.9499
1178.417336 0.9560 0.9590 0.9620 0.9630 0.9650
1183.096079 0.9630 0.9620 0.9600 0.9560 0.9500
1187.774821 0.9300 0.9230 0.9210 0.9390 0.9530
1192.453563 0.9530 0.9560 0.9560 0.9161 0.8562
1197.132306 0.8561 0.8800 0.9060 0.8950 0.8900
1201.811048 0.8820 0.8900 0.8930 0.8970 0.9030
1206.489791 0.8650 0.8490 0.8350 0.8200 0.8200
1211.168533 0.8380 0.8520 0.8680 0.8999 0.8880
1215.847276 0.8680 0.8590 0.8510 0.8480 0.8450
1220.526018 0.8390 0.8330 0.8280 0.8220 0.8031
1225.204761 0.7870 0.7870 0.8160 0.8460 0.8800
1229.883503 0.8770 0.8720 0.8670 0.8610 0.8510
1234.562245 0.8429 0.7889 0.7450 0.7450 0.8230
1239.240988 0.8560 0.8610 0.8640 0.8640 0.8520
1243.919730 0.8378 0.7440 0.7441 0.8490 0.8490
1248.598473 0.7451 0.7380 0.7520 0.8068 0.8319
1253.277215 0.8389 0.7839 0.7550 0.7550 0.8170
1257.955958 0.8200 0.8260 0.8380 0.8420 0.8450
1262.634700 0.8880 0.8900 0.8900 0.8490 0.8450
1267.313443 0.8190 0.7940 0.7731 0.7501 0.7500
1271.992185 0.7930 0.8091 0.8950 0.8950 0.8910
1276.670927 0.8720 0.8540 0.8390 0.8360 0.8380
1281.349670 0.8650 0.8910 0.9140 0.9140 0.8910
1286.028412 0.8610 0.8331 0.8300 0.8290 0.7931
1290.707155 0.7729 0.7500 0.7260 0.7050 0.7050
1295.385897 0.7520 0.8419 0.9298 0.9460 0.9420
1300.064640 0.9199 0.8949 0.8429 0.8090 0.7990
1304.743382 0.7990 0.8849 0.9329 0.9450 0.9600
1309.422125 0.9599 0.9320 0.9170 0.8870 0.8620
1314.100867 0.8430 0.8250 0.8060 0.8220 0.8479
1318.779609 0.8821 0.9110 0.9230 0.9330 0.9340
1323.458352 0.9320 0.9400 0.9520 0.9530 0.9530
1328.137094 0.9530 0.9420 0.9290 0.9230 0.9060
1332.815837 0.9060 0.9270 0.9689 0.9690 0.9331
1337.494579 0.8979 0.8749 0.8490 0.8229 0.7260
1342.173322 0.7220 0.6561 0.6560 0.8037 0.9496
1346.852064 0.9500 0.9500 0.9200 0.9200 0.9390
1351.530807 0.9590 0.9620 0.9620 0.9580 0.9490
1356.209549 0.9239 0.9039 0.8610 0.8490 0.8330
1360.888291 0.8330 0.9059 0.9290 0.9290 0.8971
1365.567034 0.8720 0.8590 0.8680 0.8750 0.9340
1370.245776 0.9430 0.9600 0.9600 0.9580 0.9560
1374.924519 0.9550 0.9550 0.9550 0.9550 0.9560
1379.603261 0.9550 0.9520 0.9390 0.9360 0.9270
1384.282004 0.9291 0.9530 0.9630 0.9660 0.9580
1388.960746 0.9320 0.9060 0.9010 0.9060 0.9260
1393.639489 0.9300 0.9330 0.9340 0.9340 0.9420
1398.318231 0.9470 0.9520 0.9520 0.9560 0.9550
1402.996973 0.9530 0.9470 0.9430 0.9390 0.9320
1407.675716 0.9240 0.9210 0.9230 0.9420 0.9470
1412.354458 0.9500 0.9420 0.9340 0.9320 0.9270
1417.033201 0.9330 0.9390 0.9460 0.9470 0.9580
1421.711943 0.9590 0.9590 0.9580 0.9580 0.9530
1426.390686 0.9520 0.9500 0.9490 0.9450 0.9340
1431.069428 0.9300 0.9300 0.9420 0.9390 0.9370
1435.748170 0.9330 0.9270 0.9260 0.9270 0.9340
1440.426913 0.9430 0.9470 0.9500 0.9520 0.9520
1445.105655 0.9520 0.9520 0.9520 0.9520 0.9500
1449.784398 0.9460 0.9430 0.9420 0.9400 0.9390
1454.463140 0.9360 0.9320 0.9270 0.9170 0.9140
1459.141883 0.9170 0.9330 0.9420 0.9430 0.9430
1463.820625 0.9430 0.9420 0.9450 0.9490 0.9530
1468.499368 0.9550 0.9550 0.9420 0.9340 0.9320
1473.178110 0.9330 0.9370 0.9420 0.9470 0.9520
1477.856852 0.9550 0.9580 0.9590 0.9650 0.9530
1482.535595 0.9530 0.9600 0.9620 0.9630 0.9620
1487.214337 0.9560 0.9500 0.9470 0.9470 0.9490
1491.893080 0.9560 0.9600 0.9620 0.9590 0.9550
1496.571822 0.9450 0.9420 0.9400 0.9430 0.9530
1501.250565 0.9600 0.9630 0.9600 0.9550 0.9490
1505.929307 0.9270 0.9200 0.9210 0.9240 0.9390
1510.608050 0.9460 0.9500 0.9530 0.9530 0.9550
1515.286792 0.9550 0.9530 0.9460 0.9420 0.9400
1519.965534 0.9370 0.9270 0.9240 0.9240 0.9300
1524.644277 0.9400 0.9430 0.9400 0.9460 0.9500
1529.323019 0.9500 0.9520 0.9530 0.9520 0.9470
1534.001762 0.9430 0.9400 0.9300 0.9500 0.9400
1538.680504 0.9270 0.9000 0.8980 0.8980 0.9189
1543.359247 0.9240 0.9320 0.9360 0.9420 0.9520
1548.037989 0.9520 0.9530 0.9530 0.9530 0.9520
1552.716732 0.9470 0.9450 0.9320 0.9270 0.9230
1557.395474 0.9070 0.9000 0.9000 0.9210 0.9360
1562.074216 0.9470 0.9560 0.9560 0.9550 0.9550
1566.752959 0.9550 0.9520 0.9450 0.9430 0.9520
1571.431701 0.9550 0.9530 0.9520 0.9390 0.9300
1576.110444 0.9300 0.9370 0.9520 0.9520 0.9560
1580.789186 0.9580 0.9590 0.9590 0.9590 0.9590
1585.467929 0.9580 0.9580 0.9580 0.9580 0.9560
1590.146671 0.9550 0.9530 0.9520 0.9500 0.9500
1594.825414 0.9490 0.9490 0.9470 0.9470 0.9470
1599.504156 0.9470 0.9470 0.9460 0.9430 0.9420
1604.182898 0.9400 0.9390 0.9390 0.9360 0.9330
1608.861641 0.9320 0.9300 0.9290 0.9260 0.9210
1613.540383 0.9190 0.9080 0.9040 0.9010 0.9040
1618.219126 0.9160 0.9170 0.9170 0.9100 0.9100
1622.897868 0.9100 0.9110 0.9190 0.9200 0.9210
1627.576611 0.9240 0.9270 0.9290 0.9270 0.9270
1632.255353 0.9240 0.9140 0.9080 0.9080 0.9100
1636.934096 0.9290 0.9330 0.9370 0.9390 0.9400
1641.612838 0.9400 0.9370 0.9320 0.9230 0.9100
1646.291580 0.9080 0.9190 0.9290 0.9290 0.9230
1650.970323 0.9040 0.8940 0.8930 0.8950 0.9269
1655.649065 0.9400 0.9450 0.9500 0.9500 0.9500
1660.327808 0.9500 0.9490 0.9490 0.9470 0.9460
1665.006550 0.9430 0.9400 0.9390 0.9360 0.9340
1669.685293 0.9320 0.9300 0.9320 0.9320 0.9340
1674.364035 0.9360 0.9370 0.9400 0.9420 0.9430
1679.042777 0.9430 0.9360 0.9240 0.9140 0.9040
1683.721520 0.9061 0.9200 0.9320 0.9390 0.9400
1688.400262 0.9420 0.9450 0.9500 0.9500 0.9430
1693.079005 0.9269 0.9080 0.9060 0.9070 0.9100
1697.757747 0.9160 0.9170 0.9190 0.9260 0.9330
1702.436490 0.9360 0.9390 0.9360 0.9390 0.9420
1707.115232 0.9500 0.9500 0.9520 0.9520 0.9430
1711.793975 0.9360 0.9290 0.9230 0.9140 0.9100
1716.472717 0.9100 0.9160 0.9320 0.9430 0.9470
1721.151459 0.9490 0.9500 0.9500 0.9500 0.9500
1725.830202 0.9490 0.9460 0.9450 0.9370 0.9320
1730.508944 0.9260 0.9160 0.9100 0.9070 0.9140
1735.187687 0.9210 0.9290 0.9340 0.9340 0.9340
1739.866429 0.9360 0.9360 0.9370 0.9390 0.9390
1744.545172 0.9370 0.9330 0.9320 0.9300 0.9290
1749.223914 0.9230 0.9300 0.9340 0.9360 0.9370
1753.902657 0.9390 0.9400 0.9420 0.9420 0.9420
1758.581399 0.9430 0.9430 0.9450 0.9460 0.9470
1763.260141 0.9470 0.9400 0.9360 0.9340 0.9330
1767.938884 0.9300 0.9290 0.9260 0.9260 0.9290
1772.617626 0.9460 0.9470 0.9470 0.9470 0.9470
1777.296369 0.9460 0.9450 0.9460 0.9460 0.9490
1781.975111 0.9500 0.9500 0.9520 0.9520 0.9500
1786.653854 0.9470 0.9430 0.9390 0.9360 0.9360
1791.332596 0.9430 0.9490 0.9500 0.9500 0.9520
1796.011339 0.9520 0.9490 0.9490 0.9500 0.9520
1800.690081 0.9550 0.9580 0.9580 0.9580 0.9580
1805.368823 0.9530 0.9530 0.9530 0.9530 0.9530
1810.047566 0.9530 0.9530 0.9550 0.9580 0.9580
1814.726308 0.9580 0.9590 0.9600 0.9600 0.9600
1819.405051 0.9590 0.9580 0.9550 0.9530 0.9520
1824.083793 0.9520 0.9520 0.9490 0.9490 0.9500
1828.762536 0.9530 0.9550 0.9560 0.9580 0.9580
1833.441278 0.9580 0.9580 0.9580 0.9580 0.9580
1838.120021 0.9560 0.9560 0.9530 0.9460 0.9420
1842.798763 0.9420 0.9500 0.9530 0.9560 0.9580
1847.477505 0.9580 0.9590 0.9590 0.9590 0.9590
1852.156248 0.9590 0.9590 0.9590 0.9590 0.9590
1856.834990 0.9580 0.9580 0.9580 0.9580 0.9560
1861.513733 0.9560 0.9550 0.9550 0.9530 0.9520
1866.192475 0.9500 0.9500 0.9500 0.9520 0.9530
1870.871218 0.9530 0.9520 0.9530 0.9530 0.9530
1875.549960 0.9550 0.9550 0.9550 0.9550 0.9550
1880.228703 0.9550 0.9550 0.9550 0.9560 0.9560
1884.907445 0.9560 0.9560 0.9560 0.9560 0.9560
1889.586187 0.9560 0.9560 0.9560 0.9560 0.9560
1894.264930 0.9580 0.9560 0.9560 0.9580 0.9580
1898.943672 0.9580 0.9580 0.9560 0.9560 0.9560
1903.622415 0.9550 0.9550 0.9550 0.9530 0.9530
1908.301157 0.9530 0.9530 0.9530 0.9530 0.9530
1912.979900 0.9530 0.9530 0.9530 0.9550 0.9550
1917.658642 0.9560 0.9580 0.9580 0.9590 0.9590
1922.337385 0.9600 0.9600 0.9600 0.9600 0.9600
1927.016127 0.9600 0.9600 0.9600 0.9620 0.9620
1931.694869 0.9600 0.9600 0.9590 0.9590 0.9580
1936.373612 0.9580 0.9580 0.9580 0.9580 0.9560
1941.052354 0.9560 0.9560 0.9580 0.9590 0.9590
1945.731097 0.9590 0.9590 0.9590 0.9600 0.9600
1950.409839 0.9600 0.9620 0.9620 0.9620 0.9630
1955.088582 0.9630 0.9630 0.9650 0.9660 0.9660
1959.767324 0.9660 0.9660 0.9660 0.9680 0.9680
1964.446066 0.9680 0.9680 0.9680 0.9690 0.9690
1969.124809 0.9710 0.9710 0.9710 0.9710 0.9710
1973.803551 0.9710 0.9710 0.9710 0.9710 0.9710
1978.482294 0.9710 0.9710 0.9710 0.9710 0.9710
1983.161036 0.9710 0.9710 0.9710 0.9710 0.9720
1987.839779 0.9720 0.9720 0.9720 0.9720 0.9720
1992.518521 0.9720 0.9720 0.9720 0.9720 0.9720
1997.197264 0.9720 0.9720 0.9720 0.9720 0.9720
2001.876006 0.9720 0.9720 0.9720 0.9720 0.9720
2006.554748 0.9720 0.9720 0.9720 0.9720 0.9720
2011.233491 0.9720 0.9720 0.9720 0.9720 0.9720
2015.912233 0.9720 0.9720 0.9715 0.9710 0.9710
2020.590976 0.9710 0.9710 0.9710 0.9710 0.9710
2025.269718 0.9710 0.9710 0.9701 0.9691 0.9690
2029.948461 0.9690 0.9690 0.9690 0.9690 0.9690
2034.627203 0.9690 0.9690 0.9699 0.9709 0.9701
2039.305946 0.9691 0.9690 0.9690 0.9690 0.9690
2043.984688 0.9690 0.9690 0.9690 0.9690 0.9690
2048.663430 0.9690 0.9690 0.9690 0.9690 0.9690
2053.342173 0.9690 0.9690 0.9690 0.9690 0.9690
2058.020915 0.9690 0.9690 0.9690 0.9690 0.9690
2062.699658 0.9690 0.9690 0.9690 0.9690 0.9690
2067.378400 0.9690 0.9690 0.9690 0.9690 0.9690
2072.057143 0.9690 0.9690 0.9690 0.9690 0.9690
2076.735885 0.9690 0.9690 0.9690 0.9690 0.9690
2081.414628 0.9690 0.9690 0.9690 0.9690 0.9690
2086.093370 0.9690 0.9690 0.9690 0.9690 0.9690
2090.772112 0.9686 0.9681 0.9680 0.9680 0.9680
2095.450855 0.9680 0.9680 0.9680 0.9680 0.9680
2100.129597 0.9680 0.9680 0.9680 0.9680 0.9680
2104.808340 0.9680 0.9680 0.9680 0.9680 0.9680
2109.487082 0.9680 0.9680 0.9680 0.9680 0.9680
2114.165825 0.9680 0.9680 0.9680 0.9680 0.9680
2118.844567 0.9680 0.9680 0.9680 0.9680 0.9680
2123.523310 0.9680 0.9680 0.9680 0.9680 0.9680
2128.202052 0.9680 0.9680 0.9680 0.9680 0.9680
2132.880794 0.9680 0.9680 0.9680 0.9680 0.9680
2137.559537 0.9680 0.9680 0.9680 0.9680 0.9680
2142.238279 0.9680 0.9680 0.9680 0.9680 0.9680
2146.917022 0.9680 0.9680 0.9680 0.9680 0.9680
2151.595764 0.9680 0.9680 0.9680 0.9680 0.9680
2156.274507 0.9680 0.9680 0.9680 0.9680 0.9680
2160.953249 0.9680 0.9680 0.9680 0.9680 0.9680
2165.631992 0.9683 0.9688 0.9690 0.9690 0.9690
2170.310734 0.9690 0.9690 0.9690 0.9690 0.9690
2174.989476 0.9690 0.9690 0.9690 0.9690 0.9690
2179.668219 0.9690 0.9690 0.9690 0.9690 0.9690
2184.346961 0.9690 0.9690 0.9690 0.9690 0.9690
2189.025704 0.9690 0.9690 0.9690 0.9690 0.9690
2193.704446 0.9696 0.9706 0.9710 0.9710 0.9710
2198.383189 0.9710 0.9710 0.9710 0.9710 0.9710
2203.061931 0.9710 0.9710 0.9710 0.9710 0.9710
2207.740673 0.9710 0.9704 0.9694 0.9690 0.9690
2212.419416 0.9690 0.9690 0.9690 0.9690 0.9690
2217.098158 0.9690 0.9690 0.9690 0.9690 0.9690
2221.776901 0.9687 0.9682 0.9680 0.9680 0.9680
2226.455643 0.9680 0.9680 0.9680 0.9680 0.9680
2231.134386 0.9680 0.9680 0.9680 0.9680 0.9675
2235.813128 0.9665 0.9660 0.9660 0.9660 0.9660
2240.491871 0.9660 0.9660 0.9660 0.9660 0.9660
2245.170613 0.9660 0.9660 0.9660 0.9660 0.9660
2249.849355 0.9660 0.9660 0.9660 0.9660 0.9660
2254.528098 0.9660 0.9660 0.9660 0.9665 0.9675
2259.206840 0.9680 0.9680 0.9680 0.9680 0.9680
2263.885583 0.9680 0.9682 0.9687 0.9690 0.9690
2268.564325 0.9690 0.9690 0.9688 0.9683 0.9680
2273.243068 0.9680 0.9680 0.9680 0.9680 0.9680
2277.921810 0.9682 0.9687 0.9690 0.9690 0.9690
2282.600553 0.9690 0.9690 0.9690 0.9690 0.9690
2287.279295 0.9690 0.9690 0.9690 0.9690 0.9690
2291.958037 0.9690 0.9684 0.9669 0.9660 0.9660
2296.636780 0.9664 0.9674 0.9682 0.9687 0.9694
2301.315522 0.9704 0.9710 0.9710 0.9710 0.9710
2305.994265 0.9710 0.9710 0.9710 0.9710 0.9710
2310.673007 0.9710 0.9710 0.9710 0.9710 0.9710
2315.351750 0.9706 0.9696 0.9690 0.9690 0.9690
2320.030492 0.9690 0.9690 0.9690 0.9690 0.9690
2324.709235 0.9690 0.9690 0.9690 0.9690 0.9690
2329.387977 0.9690 0.9690 0.9690 0.9690 0.9690
2334.066719 0.9690 0.9690 0.9690 0.9690 0.9690
2338.745462 0.9690 0.9690 0.9690 0.9690 0.9690
2343.424204 0.9690 0.9690 0.9690 0.9690 0.9690
2348.102947 0.9690 0.9690 0.9690 0.9690 0.9690
2352.781689 0.9690 0.9690 0.9693 0.9703 0.9710
2357.460432 0.9710 0.9710 0.9710 0.9710 0.9710
