##TITLE=1,1-DICHLORO-1-FLUORO PROPANE
##JCAMP-DX=4.24
##DATA TYPE=INFRARED SPECTRUM
##CLASS=COBLENTZ
##ORIGIN=DOW CHEMICAL COMPANY
##OWNER=COBLENTZ SOCIETY
Collection (C) 2018 copyright by the U.S. Secretary of Commerce
on behalf of the United States of America. All rights reserved.
##DATE=Not specified, most likely prior to 1970
##NAMES=1,1-dichloro-1-fluoropropane
##CAS REGISTRY NO=7799-56-6
##MOLFORM=C3 H5 Cl2 F
##SOURCE REFERENCE=COBLENTZ NO. 1929
##$NIST SOURCE=COBLENTZ
##$NIST IMAGE=cob1929
##SPECTROMETER/DATA SYSTEM=Not specified, most likely a prism, grating, or hybrid spectrometer.
##STATE=SOLUTION (10% CCl4 FOR 5000-1330, 10% CS2 FOR 1330-625 CM^-^1)
##PATH LENGTH=0.0110 CM, 0.0111 CM
$$SPECTRAL CONTAMINATION DUE TO CCl4 AROUND 1550 CM^-^1
##SAMPLING PROCEDURE=TRANSMISSION
##RESOLUTION=4
##DATA PROCESSING=DIGITIZED BY NIST FROM HARD COPY
##XUNITS=MICROMETERS
##YUNITS=TRANSMITTANCE
##XFACTOR=1.000000
##YFACTOR=1
##DELTAX=000.006859
##FIRSTX=2.048
##LASTX=15.904
##FIRSTY=0.902
##MAXX=15.904
##MINX=2.048
##MAXY=0.948
##MINY=0.025
##NPOINTS=2021
##XYDATA=(X++(Y..Y))
2.048000 0.9020 0.9030 0.9030 0.9030 0.9030
2.082314 0.9030 0.9030 0.9030 0.9030 0.9030
2.117000 0.9030 0.9030 0.9030 0.9030 0.9030
2.151314 0.9030 0.9030 0.9030 0.9030 0.9030
2.185000 0.9030 0.9020 0.9020 0.9000 0.8980
2.219314 0.8950 0.8910 0.8910 0.8910 0.8910
2.254000 0.8910 0.8910 0.8910 0.8930 0.8950
2.288314 0.8970 0.8970 0.8980 0.8980 0.9000
2.322000 0.9020 0.9030 0.9050 0.9090 0.9090
2.356314 0.9090 0.9090 0.9090 0.9090 0.9090
2.391000 0.9070 0.9050 0.9030 0.9030 0.9020
2.425314 0.9020 0.9020 0.9030 0.9030 0.9050
2.460000 0.9070 0.9090 0.9100 0.9120 0.9120
2.494314 0.9120 0.9100 0.9100 0.9100 0.9120
2.528000 0.9120 0.9140 0.9140 0.9150 0.9170
2.562314 0.9170 0.9190 0.9190 0.9190 0.9210
2.597000 0.9220 0.9260 0.9310 0.9310 0.9270
2.631314 0.9260 0.9240 0.9220 0.9220 0.9240
2.665000 0.9260 0.9270 0.9290 0.9290 0.9270
2.699314 0.9270 0.9260 0.9260 0.9260 0.9240
2.734000 0.9240 0.9240 0.9240 0.9240 0.9240
2.768314 0.9240 0.9240 0.9240 0.9260 0.9260
2.803000 0.9260 0.9260 0.9260 0.9240 0.9240
2.837314 0.9240 0.9240 0.9220 0.9210 0.9190
2.871000 0.9170 0.9120 0.9050 0.9000 0.8950
2.905314 0.8930 0.8910 0.8910 0.8910 0.8910
2.940000 0.8910 0.8910 0.8910 0.8910 0.8910
2.974314 0.8930 0.8950 0.8970 0.8970 0.9020
3.008000 0.9020 0.9030 0.9030 0.9030 0.9030
3.042314 0.9030 0.9030 0.9020 0.9020 0.9020
3.077000 0.9020 0.9020 0.9020 0.9030 0.9030
3.111314 0.9050 0.9050 0.9070 0.9070 0.9090
3.146000 0.9090 0.9100 0.9100 0.9100 0.9100
3.180314 0.9090 0.9090 0.9090 0.9070 0.9070
3.214000 0.9070 0.9070 0.9070 0.9070 0.9070
3.248314 0.9050 0.9050 0.9030 0.9000 0.8950
3.283000 0.8790 0.8710 0.8450 0.7750 0.7230
3.317314 0.6650 0.6190 0.6140 0.6140 0.6200
3.351000 0.6560 0.6890 0.6960 0.7060 0.7130
3.385314 0.7270 0.7440 0.7680 0.8020 0.8180
3.420000 0.8310 0.8330 0.8330 0.8330 0.8330
3.454314 0.8350 0.8490 0.8670 0.8810 0.8910
3.488000 0.8980 0.9000 0.9020 0.9090 0.9140
3.522314 0.9150 0.9190 0.9220 0.9270 0.9290
3.557000 0.9290 0.9290 0.9260 0.9240 0.9240
3.591314 0.9240 0.9240 0.9240 0.9260 0.9260
3.626000 0.9260 0.9260 0.9270 0.9270 0.9270
3.660314 0.9270 0.9290 0.9290 0.9290 0.9290
3.694000 0.9310 0.9330 0.9330 0.9340 0.9360
3.728314 0.9360 0.9360 0.9360 0.9360 0.9360
3.763000 0.9340 0.9340 0.9340 0.9340 0.9340
3.797314 0.9340 0.9340 0.9340 0.9340 0.9340
3.831000 0.9340 0.9340 0.9340 0.9340 0.9340
3.865314 0.9340 0.9340 0.9340 0.9340 0.9340
3.900000 0.9340 0.9340 0.9340 0.9360 0.9380
3.934314 0.9360 0.9380 0.9380 0.9380 0.9380
3.969000 0.9390 0.9390 0.9390 0.9390 0.9390
4.003314 0.9390 0.9390 0.9380 0.9380 0.9360
4.037000 0.9340 0.9330 0.9310 0.9310 0.9330
4.071314 0.9340 0.9360 0.9380 0.9380 0.9380
4.106000 0.9390 0.9390 0.9410 0.9410 0.9430
4.140314 0.9450 0.9450 0.9460 0.9460 0.9480
4.174000 0.9480 0.9480 0.9480 0.9480 0.9480
4.208314 0.9480 0.9480 0.9480 0.9480 0.9480
4.243000 0.9480 0.9480 0.9480 0.9480 0.9480
4.277314 0.9480 0.9460 0.9430 0.9410 0.9380
4.312000 0.9340 0.9260 0.9210 0.9210 0.9240
4.346314 0.9240 0.9270 0.9270 0.9270 0.9270
4.380000 0.9270 0.9270 0.9270 0.9270 0.9260
4.414314 0.9260 0.9270 0.9290 0.9310 0.9330
4.449000 0.9360 0.9380 0.9380 0.9380 0.9380
4.483314 0.9390 0.9390 0.9410 0.9430 0.9450
4.517000 0.9450 0.9460 0.9460 0.9460 0.9460
4.551314 0.9460 0.9460 0.9460 0.9460 0.9460
4.586000 0.9480 0.9480 0.9480 0.9480 0.9480
4.620314 0.9480 0.9480 0.9480 0.9480 0.9480
4.655000 0.9480 0.9480 0.9480 0.9480 0.9480
4.689314 0.9480 0.9480 0.9480 0.9480 0.9480
4.723000 0.9480 0.9480 0.9460 0.9460 0.9460
4.757314 0.9460 0.9450 0.9450 0.9450 0.9450
4.792000 0.9450 0.9430 0.9430 0.9430 0.9410
4.826314 0.9410 0.9390 0.9380 0.9380 0.9360
4.860000 0.9340 0.9340 0.9340 0.9340 0.9340
4.894314 0.9340 0.9340 0.9340 0.9340 0.9340
4.929000 0.9340 0.9340 0.9340 0.9340 0.9340
4.963314 0.9340 0.9340 0.9340 0.9340 0.9340
4.998000 0.9340 0.9340 0.9340 0.9360 0.9360
5.032314 0.9360 0.9380 0.9380 0.9390 0.9390
5.066000 0.9390 0.9390 0.9390 0.9390 0.9390
5.100314 0.9390 0.9390 0.9380 0.9360 0.9360
5.135000 0.9360 0.9360 0.9360 0.9360 0.9360
5.169314 0.9360 0.9360 0.9360 0.9360 0.9360
5.203000 0.9390 0.9390 0.9380 0.9380 0.9360
5.237314 0.9360 0.9360 0.9360 0.9360 0.9380
5.272000 0.9380 0.9360 0.9360 0.9380 0.9380
5.306314 0.9380 0.9380 0.9380 0.9380 0.9380
5.341000 0.9380 0.9380 0.9380 0.9360 0.9360
5.375314 0.9360 0.9340 0.9360 0.9360 0.9360
5.409000 0.9360 0.9340 0.9330 0.9330 0.9330
5.443314 0.9330 0.9330 0.9330 0.9330 0.9340
5.478000 0.9340 0.9340 0.9340 0.9340 0.9340
5.512314 0.9360 0.9360 0.9360 0.9360 0.9360
5.546000 0.9360 0.9360 0.9360 0.9380 0.9360
5.580314 0.9360 0.9360 0.9360 0.9360 0.9360
5.615000 0.9360 0.9360 0.9360 0.9340 0.9340
5.649314 0.9340 0.9330 0.9310 0.9290 0.9290
5.683000 0.9290 0.9290 0.9290 0.9290 0.9270
5.717314 0.9270 0.9270 0.9270 0.9270 0.9260
5.752000 0.9260 0.9240 0.9240 0.9220 0.9220
5.786314 0.9220 0.9220 0.9220 0.9220 0.9220
5.821000 0.9220 0.9220 0.9220 0.9220 0.9220
5.855314 0.9220 0.9240 0.9260 0.9260 0.9270
5.889000 0.9270 0.9270 0.9270 0.9270 0.9270
5.923314 0.9270 0.9270 0.9270 0.9270 0.9260
5.958000 0.9260 0.9240 0.9240 0.9220 0.9210
5.992314 0.9210 0.9210 0.9210 0.9210 0.9210
6.026000 0.9190 0.9170 0.9150 0.9120 0.9090
6.060314 0.9030 0.8980 0.8970 0.8900 0.8860
6.095000 0.8850 0.8780 0.8780 0.8760 0.8730
6.129314 0.8730 0.8730 0.8730 0.8730 0.8710
6.164000 0.8690 0.8670 0.8640 0.8540 0.8450
6.198314 0.8370 0.8230 0.8070 0.7940 0.7820
6.232000 0.7660 0.7490 0.7340 0.7150 0.7010
6.266314 0.6920 0.6800 0.6720 0.6630 0.6580
6.301000 0.6530 0.6510 0.6480 0.6460 0.6430
6.335314 0.6410 0.6360 0.6310 0.6220 0.6140
6.369000 0.6000 0.5830 0.5780 0.5600 0.5470
6.403314 0.5330 0.5210 0.5160 0.5140 0.5110
6.438000 0.5110 0.5090 0.5090 0.5180 0.5260
6.472314 0.5380 0.5520 0.5690 0.5860 0.6030
6.507000 0.6170 0.6290 0.6360 0.6460 0.6530
6.541314 0.6600 0.6680 0.6750 0.6800 0.6860
6.575000 0.6910 0.6990 0.7100 0.7200 0.7320
6.609314 0.7440 0.7560 0.7590 0.7660 0.7750
6.644000 0.7850 0.7990 0.8010 0.8040 0.8090
6.678314 0.8110 0.8160 0.8180 0.8210 0.8210
6.712000 0.8230 0.8230 0.8250 0.8230 0.8210
6.746314 0.8090 0.7680 0.7270 0.6790 0.6440
6.781000 0.5980 0.5570 0.5230 0.5020 0.4870
6.815314 0.4800 0.4800 0.4900 0.5300 0.5590
6.850000 0.6220 0.6310 0.6960 0.7160 0.7440
6.884314 0.7540 0.7650 0.7660 0.7660 0.7660
6.918000 0.7660 0.7580 0.7440 0.7390 0.7300
6.952314 0.7300 0.7320 0.7460 0.7610 0.7660
6.987000 0.7830 0.8090 0.8350 0.8540 0.8570
7.021314 0.8640 0.8660 0.8670 0.8710 0.8730
7.055000 0.8760 0.8780 0.8790 0.8790 0.8790
7.089314 0.8790 0.8790 0.8790 0.8790 0.8790
7.124000 0.8790 0.8780 0.8690 0.8620 0.8470
7.158314 0.8230 0.8070 0.7900 0.7680 0.7460
7.193000 0.7390 0.7370 0.7370 0.7400 0.7490
7.227314 0.7900 0.8060 0.8350 0.8540 0.8710
7.261000 0.8760 0.8780 0.8790 0.8790 0.8810
7.295314 0.8810 0.8830 0.8830 0.8830 0.8830
7.330000 0.8830 0.8810 0.8790 0.8790 0.8740
7.364314 0.8670 0.8500 0.8450 0.8380 0.8130
7.398000 0.8020 0.7700 0.7320 0.7130 0.7010
7.432314 0.6720 0.6700 0.6700 0.6790 0.7080
7.467000 0.7440 0.7630 0.7710 0.7780 0.7870
7.501314 0.7950 0.8020 0.8110 0.8180 0.8230
7.536000 0.8330 0.8400 0.8450 0.8470 0.8470
7.570314 0.8490 0.8490 0.8500 0.8520 0.8540
7.604000 0.8550 0.8570 0.8570 0.8570 0.8590
7.638314 0.8590 0.8590 0.8590 0.8590 0.8590
7.673000 0.8590 0.8590 0.8590 0.8500 0.8500
7.707314 0.8470 0.8400 0.8300 0.8180 0.8110
7.741000 0.7970 0.7820 0.7560 0.7420 0.6980
7.775314 0.6740 0.6360 0.6070 0.5670 0.5360
7.810000 0.5190 0.4990 0.4850 0.4780 0.4760
7.844314 0.4780 0.4920 0.5020 0.5260 0.5480
7.878000 0.5720 0.6140 0.6410 0.6720 0.6980
7.912314 0.7220 0.7440 0.7660 0.7820 0.7900
7.947000 0.8060 0.8160 0.8190 0.8260 0.8300
7.981314 0.8370 0.8420 0.8450 0.8470 0.8490
8.016000 0.8500 0.8520 0.8540 0.8550 0.8570
8.050314 0.8610 0.8620 0.8660 0.8660 0.8670
8.084000 0.8690 0.8690 0.8710 0.8710 0.8710
8.118314 0.8710 0.8710 0.8730 0.8730 0.8710
8.153000 0.8710 0.8710 0.8710 0.8710 0.8710
8.187314 0.8710 0.8710 0.8710 0.8710 0.8690
8.221000 0.8690 0.8670 0.8670 0.8660 0.8660
8.255314 0.8660 0.8660 0.8660 0.8660 0.8640
8.290000 0.8620 0.8620 0.8620 0.8610 0.8610
8.324314 0.8590 0.8590 0.8590 0.8590 0.8590
8.359000 0.8590 0.8590 0.8590 0.8610 0.8610
8.393314 0.8610 0.8610 0.8610 0.8610 0.8610
8.427000 0.8610 0.8590 0.8590 0.8570 0.8520
8.461314 0.8500 0.8470 0.8380 0.8310 0.8250
8.496000 0.8210 0.8180 0.8130 0.8060 0.7970
8.530314 0.7900 0.7820 0.7710 0.7580 0.7440
8.564000 0.7270 0.6890 0.6650 0.6630 0.6580
8.598314 0.5720 0.5300 0.4440 0.4350 0.3670
8.633000 0.3130 0.2590 0.2280 0.1980 0.1710
8.667314 0.1560 0.1540 0.1560 0.1590 0.1680
8.702000 0.1860 0.2330 0.2690 0.3010 0.3320
8.736314 0.3670 0.4080 0.4130 0.4400 0.4570
8.770000 0.4640 0.4760 0.4780 0.4780 0.4730
8.804314 0.4570 0.4420 0.4230 0.4060 0.3840
8.839000 0.3610 0.3340 0.3170 0.2980 0.2830
8.873314 0.2740 0.2670 0.2600 0.2520 0.2450
8.907000 0.2360 0.2240 0.2140 0.2090 0.2050
8.941314 0.1980 0.1970 0.1980 0.2000 0.2040
8.976000 0.2090 0.2170 0.2290 0.2400 0.2480
9.010314 0.2590 0.2690 0.2790 0.2910 0.3010
9.045000 0.3130 0.3190 0.3240 0.3240 0.3200
9.079314 0.3010 0.2860 0.2570 0.2400 0.2290
9.113000 0.2280 0.2290 0.2500 0.2740 0.3000
9.147314 0.3290 0.3390 0.4300 0.4590 0.5280
9.182000 0.5480 0.5780 0.5930 0.6190 0.6310
9.216314 0.6380 0.6390 0.6390 0.6380 0.6260
9.250000 0.6140 0.5790 0.5500 0.5120 0.4710
9.284314 0.4280 0.3910 0.3610 0.3340 0.3310
9.319000 0.3340 0.3480 0.3750 0.4230 0.4690
9.353314 0.5180 0.5620 0.6050 0.6430 0.6580
9.388000 0.6620 0.6740 0.6980 0.7080 0.7230
9.422314 0.7280 0.7370 0.7420 0.7460 0.7490
9.456000 0.7530 0.7560 0.7580 0.7610 0.7630
9.490314 0.7630 0.7630 0.7660 0.7630 0.7610
9.525000 0.7590 0.7560 0.7510 0.7440 0.7250
9.559314 0.7010 0.6940 0.6840 0.6550 0.6340
9.593000 0.5910 0.5470 0.5040 0.4630 0.4200
9.627314 0.3770 0.3320 0.2880 0.2400 0.1880
9.662000 0.1490 0.1470 0.1470 0.1490 0.1710
9.696314 0.1930 0.2210 0.2550 0.3030 0.3630
9.731000 0.3910 0.4440 0.4690 0.5140 0.5450
9.765314 0.5690 0.5880 0.6100 0.6390 0.6560
9.799000 0.6630 0.6700 0.6740 0.6940 0.7150
9.833314 0.7280 0.7420 0.7490 0.7580 0.7630
9.868000 0.7680 0.7710 0.7770 0.7780 0.7780
9.902314 0.7780 0.7800 0.7800 0.7800 0.7780
9.936000 0.7780 0.7770 0.7730 0.7700 0.7610
9.970314 0.7530 0.7490 0.7440 0.7370 0.7300
10.005000 0.7220 0.7130 0.7060 0.6990 0.6920
10.039314 0.6840 0.6720 0.6510 0.6440 0.6310
10.073000 0.6170 0.5980 0.5790 0.5590 0.5430
10.107314 0.5300 0.5140 0.4930 0.4690 0.4450
10.142000 0.4180 0.3890 0.3610 0.3320 0.3030
10.176314 0.2960 0.2770 0.2530 0.2240 0.1970
10.211000 0.1730 0.1540 0.1470 0.1380 0.1370
10.245314 0.1380 0.1420 0.1490 0.1620 0.1800
10.279000 0.2040 0.2360 0.2740 0.3120 0.3460
10.313314 0.3800 0.4150 0.4450 0.4750 0.5040
10.348000 0.5280 0.5500 0.5620 0.5840 0.6030
10.382314 0.6080 0.6200 0.6320 0.6410 0.6480
10.416000 0.6530 0.6580 0.6620 0.6680 0.6700
10.450314 0.6750 0.6750 0.6770 0.6770 0.6770
10.485000 0.6750 0.6750 0.6740 0.6700 0.6630
10.519314 0.6550 0.6500 0.6410 0.6310 0.6200
10.554000 0.6100 0.5980 0.5860 0.5740 0.5600
10.588314 0.5480 0.5330 0.5190 0.5040 0.4880
10.622000 0.4730 0.4570 0.4400 0.4230 0.4060
10.656314 0.3870 0.3680 0.3510 0.3310 0.3120
10.691000 0.2910 0.2710 0.2500 0.2290 0.2070
10.725314 0.1850 0.1620 0.1470 0.1300 0.1130
10.759000 0.0960 0.0780 0.0630 0.0460 0.0370
10.793314 0.0290 0.0270 0.0270 0.0290 0.0300
10.828000 0.0360 0.0390 0.0440 0.0510 0.0610
10.862314 0.0720 0.0840 0.0990 0.1180 0.1400
10.897000 0.1640 0.1920 0.2220 0.2460 0.2690
10.931314 0.2930 0.3190 0.3490 0.3870 0.4180
10.965000 0.4420 0.4610 0.4780 0.4950 0.5160
10.999314 0.5400 0.5550 0.5690 0.5810 0.5950
11.034000 0.6070 0.6200 0.6360 0.6440 0.6530
11.068314 0.6620 0.6680 0.6770 0.6860 0.6920
11.102000 0.6960 0.7030 0.7080 0.7100 0.7150
11.136314 0.7160 0.7160 0.7180 0.7180 0.7180
11.171000 0.7180 0.7200 0.7200 0.7200 0.7200
11.205314 0.7200 0.7180 0.7150 0.7110 0.7080
11.240000 0.7030 0.6990 0.6980 0.6940 0.6920
11.274314 0.6870 0.6860 0.6820 0.6800 0.6790
11.308000 0.6770 0.6750 0.6720 0.6700 0.6680
11.342314 0.6670 0.6620 0.6600 0.6560 0.6510
11.377000 0.6500 0.6480 0.6390 0.6340 0.6240
11.411314 0.6120 0.6050 0.6000 0.5930 0.5830
11.445000 0.5790 0.5690 0.5670 0.5660 0.5620
11.479314 0.5600 0.5590 0.5590 0.5600 0.5600
11.514000 0.5620 0.5640 0.5660 0.5660 0.5660
11.548314 0.5660 0.5660 0.5660 0.5660 0.5620
11.583000 0.5590 0.5550 0.5500 0.5470 0.5420
11.617314 0.5360 0.5310 0.5230 0.5160 0.5090
11.651000 0.5020 0.4950 0.4880 0.4800 0.4730
11.685314 0.4640 0.4540 0.4450 0.4350 0.4230
11.720000 0.4110 0.3970 0.3840 0.3680 0.3530
11.754314 0.3360 0.3150 0.2950 0.2720 0.2460
11.788000 0.2220 0.2020 0.1800 0.1610 0.1440
11.822314 0.1280 0.1130 0.1010 0.0890 0.0780
11.857000 0.0680 0.0630 0.0540 0.0460 0.0420
11.891314 0.0370 0.0320 0.0300 0.0290 0.0270
11.926000 0.0250 0.0250 0.0270 0.0290 0.0290
11.960314 0.0300 0.0340 0.0410 0.0480 0.0560
11.994000 0.0660 0.0750 0.0840 0.0900 0.0960
12.028314 0.0970 0.1010 0.1020 0.1020 0.1010
12.063000 0.0990 0.0990 0.0940 0.0850 0.0730
12.097314 0.0630 0.0530 0.0460 0.0440 0.0390
12.131000 0.0340 0.0320 0.0300 0.0300 0.0320
12.165314 0.0320 0.0340 0.0390 0.0460 0.0530
12.200000 0.0630 0.0730 0.0850 0.0990 0.1140
12.234314 0.1300 0.1450 0.1620 0.1810 0.2000
12.268000 0.2190 0.2380 0.2590 0.2770 0.2980
12.302314 0.3170 0.3360 0.3550 0.3730 0.3920
12.337000 0.4090 0.4250 0.4420 0.4560 0.4690
12.371314 0.4810 0.4920 0.5000 0.5120 0.5230
12.406000 0.5310 0.5400 0.5480 0.5550 0.5620
12.440314 0.5690 0.5760 0.5810 0.5880 0.5930
12.474000 0.5980 0.6030 0.6080 0.6140 0.6170
12.508314 0.6240 0.6290 0.6320 0.6390 0.6410
12.543000 0.6430 0.6440 0.6460 0.6480 0.6500
12.577314 0.6500 0.6510 0.6510 0.6510 0.6500
12.611000 0.6480 0.6460 0.6460 0.6410 0.6390
12.645314 0.6360 0.6290 0.6190 0.6120 0.6020
12.680000 0.5910 0.5790 0.5690 0.5590 0.5470
12.714314 0.5350 0.5210 0.5090 0.4950 0.4810
12.749000 0.4680 0.4540 0.4390 0.4280 0.4110
12.783314 0.3940 0.3720 0.3510 0.3290 0.3080
12.817000 0.2880 0.2720 0.2590 0.2500 0.2450
12.851314 0.2400 0.2330 0.2290 0.2280 0.2280
12.886000 0.2280 0.2280 0.2290 0.2330 0.2380
12.920314 0.2450 0.2500 0.2570 0.2620 0.2690
12.954000 0.2760 0.2840 0.2930 0.3010 0.3120
12.988314 0.3220 0.3320 0.3440 0.3560 0.3680
13.023000 0.3820 0.3960 0.4110 0.4270 0.4420
13.057314 0.4570 0.4750 0.4920 0.5060 0.5180
13.092000 0.5300 0.5420 0.5550 0.5660 0.5780
13.126314 0.5900 0.6000 0.6120 0.6220 0.6310
13.160000 0.6410 0.6500 0.6580 0.6670 0.6740
13.194314 0.6770 0.6890 0.6960 0.7030 0.7060
13.229000 0.7110 0.7150 0.7180 0.7220 0.7270
13.263314 0.7280 0.7320 0.7340 0.7370 0.7390
13.297000 0.7400 0.7440 0.7460 0.7470 0.7470
13.331314 0.7510 0.7510 0.7510 0.7530 0.7530
13.366000 0.7540 0.7540 0.7560 0.7560 0.7560
13.400314 0.7560 0.7560 0.7560 0.7560 0.7540
13.435000 0.7540 0.7530 0.7510 0.7490 0.7470
13.469314 0.7470 0.7420 0.7390 0.7340 0.7300
13.503000 0.7270 0.7250 0.7230 0.7200 0.7160
13.537314 0.7150 0.7100 0.7060 0.7010 0.6980
13.572000 0.6940 0.6870 0.6860 0.6770 0.6720
13.606314 0.6670 0.6550 0.6480 0.6460 0.6430
13.640000 0.6380 0.6240 0.6150 0.6030 0.5930
13.674314 0.5830 0.5740 0.5670 0.5540 0.5430
13.709000 0.5260 0.5190 0.5070 0.4970 0.4810
13.743314 0.4630 0.4440 0.4230 0.4030 0.3800
13.778000 0.3580 0.3320 0.3070 0.2810 0.2520
13.812314 0.2210 0.2090 0.1930 0.1800 0.1660
13.846000 0.1540 0.1440 0.1370 0.1250 0.1180
13.880314 0.1090 0.1080 0.1080 0.1080 0.1080
13.915000 0.1080 0.1140 0.1230 0.1280 0.1350
13.949314 0.1440 0.1540 0.1660 0.1780 0.1920
13.983000 0.2050 0.2210 0.2380 0.2530 0.2710
14.017314 0.2880 0.3050 0.3220 0.3370 0.3550
14.052000 0.3700 0.3850 0.3990 0.4130 0.4250
14.086314 0.4370 0.4450 0.4570 0.4680 0.4760
14.121000 0.4870 0.4970 0.5040 0.5120 0.5190
14.155314 0.5230 0.5310 0.5360 0.5430 0.5480
14.189000 0.5540 0.5570 0.5660 0.5710 0.5780
14.223314 0.5810 0.5840 0.5880 0.5880 0.5950
14.258000 0.5980 0.6000 0.6020 0.6030 0.6080
14.292314 0.6100 0.6170 0.6190 0.6200 0.6220
14.326000 0.6260 0.6270 0.6290 0.6310 0.6320
14.360314 0.6340 0.6360 0.6380 0.6380 0.6380
14.395000 0.6390 0.6410 0.6430 0.6430 0.6440
14.429314 0.6440 0.6460 0.6480 0.6480 0.6480
14.463000 0.6480 0.6480 0.6480 0.6480 0.6480
14.497314 0.6480 0.6480 0.6480 0.6480 0.6480
14.532000 0.6480 0.6480 0.6480 0.6480 0.6480
14.566314 0.6480 0.6480 0.6480 0.6460 0.6460
14.601000 0.6460 0.6440 0.6430 0.6430 0.6430
14.635314 0.6410 0.6410 0.6390 0.6380 0.6380
14.669000 0.6380 0.6320 0.6320 0.6310 0.6310
14.703314 0.6290 0.6270 0.6270 0.6270 0.6270
14.738000 0.6240 0.6240 0.6220 0.6200 0.6190
14.772314 0.6190 0.6190 0.6170 0.6170 0.6150
14.806000 0.6140 0.6120 0.6100 0.6080 0.6080
14.840314 0.6080 0.6080 0.6070 0.6070 0.6070
14.875000 0.6070 0.6050 0.6050 0.6050 0.6050
14.909314 0.6050 0.6050 0.6050 0.6050 0.6030
14.944000 0.6030 0.6020 0.6020 0.6000 0.6000
14.978314 0.5980 0.5960 0.5950 0.5930 0.5910
15.012000 0.5900 0.5880 0.5860 0.5810 0.5790
15.046314 0.5780 0.5760 0.5720 0.5710 0.5690
15.081000 0.5690 0.5670 0.5670 0.5640 0.5640
15.115314 0.5620 0.5620 0.5600 0.5600 0.5590
15.149000 0.5570 0.5540 0.5520 0.5520 0.5500
15.183314 0.5500 0.5480 0.5480 0.5470 0.5470
15.218000 0.5430 0.5420 0.5380 0.5380 0.5380
15.252314 0.5360 0.5330 0.5310 0.5310 0.5300
15.287000 0.5300 0.5280 0.5280 0.5280 0.5260
15.321314 0.5260 0.5260 0.5240 0.5240 0.5230
15.355000 0.5230 0.5210 0.5210 0.5210 0.5210
15.389314 0.5210 0.5190 0.5190 0.5190 0.5190
15.424000 0.5190 0.5180 0.5180 0.5180 0.5160
15.458314 0.5160 0.5160 0.5160 0.5140 0.5140
15.492000 0.5120 0.5120 0.5120 0.5120 0.5120
15.526314 0.5120 0.5120 0.5120 0.5110 0.5110
15.561000 0.5110 0.5090 0.5090 0.5090 0.5070
15.595314 0.5070 0.5070 0.5070 0.5070 0.5070
15.630000 0.5070 0.5070 0.5060 0.5060 0.5060
15.664314 0.5060 0.5060 0.5060 0.5060 0.5060
15.698000 0.5060 0.5060 0.5060 0.5060 0.5060
15.732314 0.5040 0.5040 0.5040 0.5040 0.5040
15.767000 0.5040 0.5040 0.5040 0.5040 0.5040
15.801314 0.5040 0.5040 0.5040 0.5040 0.5040
15.835000 0.5040 0.5040 0.5040 0.5040 0.5040
15.869314 0.5040 0.5040 0.5040 0.5040 0.5040
15.904000 0.5040
##END=
