##TITLE=3-BUTEN-2-ONE
##JCAMP-DX=4.24
##DATA TYPE=INFRARED SPECTRUM
##CLASS=COBLENTZ
##ORIGIN=DOW CHEMICAL COMPANY
##OWNER=COBLENTZ SOCIETY
Collection (C) 2018 copyright by the U.S. Secretary of Commerce
on behalf of the United States of America. All rights reserved.
##DATE=1964
##NAMES=METHYL VINYL KETONE
##CAS REGISTRY NO=78-94-4
##MOLFORM=C4 H6 O
##SOURCE REFERENCE=COBLENTZ NO. 8782
##$NIST SOURCE=COBLENTZ
##$NIST IMAGE=cob-r8782
##SPECTROMETER/DATA SYSTEM=DOW KBr FOREPRISM-GRATING
##INSTRUMENT PARAMETERS=GRATING CHANGED AT 5.0, 7.5, 15.0 MICRON
##STATE=GAS (50 mmHg, N2 ADDED, TOTAL PRESSURE 600 mmHg)
##PATH LENGTH=5 CM
##SAMPLING PROCEDURE=TRANSMISSION
##RESOLUTION=2
##DATA PROCESSING=DIGITIZED BY NIST FROM HARD COPY (FROM TWO SEGMENTS)
##XUNITS=1/CM
##YUNITS=TRANSMITTANCE
##XFACTOR=1.000000
##YFACTOR=1
##DELTAX=0.939706
##FIRSTX=469.225
##LASTX=3816.46
##FIRSTY=0.855
##MAXX=3816.46
##MINX=469.225
##MAXY=0.994
##MINY=0.00700876
##NPOINTS=3563
##XYDATA=(X++(Y..Y))
469.225000 0.8550 0.8510 0.8400 0.8350 0.8330
473.923528 0.8260 0.8210 0.8180 0.8160 0.8140
478.622057 0.8140 0.8110 0.8100 0.8070 0.8050
483.320585 0.8040 0.8010 0.8000 0.7980 0.7950
488.019113 0.7890 0.7830 0.7780 0.7720 0.7660
492.717641 0.7640 0.7640 0.7640 0.7660 0.7670
497.416170 0.7690 0.7700 0.7750 0.7780 0.7790
502.114698 0.7810 0.7820 0.7820 0.7830 0.7850
506.813226 0.7850 0.7860 0.7860 0.7860 0.7880
511.511755 0.7890 0.7910 0.7910 0.7920 0.7920
516.210283 0.7940 0.7950 0.7950 0.7970 0.8020
520.908811 0.8080 0.8230 0.8270 0.8290 0.8320
525.607339 0.8320 0.8300 0.8300 0.8290 0.8270
530.305868 0.8290 0.8330 0.8370 0.8489 0.8560
535.004396 0.8700 0.8710 0.8720 0.8720 0.8710
539.702924 0.8680 0.8670 0.8670 0.8700 0.8710
544.401453 0.8720 0.8740 0.8770 0.8800 0.8810
549.099981 0.8840 0.8900 0.8960 0.9020 0.9050
553.798509 0.9080 0.9080 0.9090 0.9090 0.9090
558.497038 0.9090 0.9080 0.9080 0.9080 0.9060
563.195566 0.9060 0.9080 0.9090 0.9090 0.9100
567.894094 0.9100 0.9120 0.9120 0.9130 0.9130
572.592622 0.9130 0.9130 0.9130 0.9130 0.9120
577.291151 0.9120 0.9100 0.9100 0.9090 0.9080
581.989679 0.9060 0.9050 0.8990 0.8930 0.8900
586.688207 0.8840 0.8800 0.8750 0.8710 0.8640
591.386736 0.8560 0.8550 0.8540 0.8540 0.8540
596.085264 0.8550 0.8550 0.8550 0.8550 0.8520
600.783792 0.8180 0.8520 0.8480 0.8450 0.8420
605.482320 0.8390 0.8360 0.8350 0.8350 0.8350
610.180849 0.8360 0.8370 0.8390 0.8450 0.8490
614.879377 0.8520 0.8560 0.8620 0.8710 0.8720
619.577905 0.8750 0.8810 0.8930 0.8960 0.9120
624.276434 0.9130 0.9210 0.9240 0.9290 0.9310
628.974962 0.9340 0.9380 0.9440 0.9470 0.9480
633.673490 0.9480 0.9500 0.9500 0.9500 0.9500
638.372018 0.9480 0.9470 0.9450 0.9440 0.9380
643.070547 0.9350 0.9350 0.9340 0.9320 0.9310
647.769075 0.9290 0.9290 0.9270 0.9240 0.9210
652.467603 0.9150 0.9130 0.9100 0.9080 0.9030
657.166132 0.8970 0.8930 0.8870 0.8810 0.8710
661.864660 0.8700 0.8680 0.8700 0.8710 0.8720
666.563188 0.8750 0.8780 0.8780 0.8770 0.8750
671.261716 0.8750 0.8740 0.8720 0.8740 0.8750
675.960245 0.8770 0.8770 0.8780 0.8800 0.8800
680.658773 0.8800 0.8800 0.8800 0.8800 0.8780
685.357301 0.8780 0.8780 0.8770 0.8740 0.8620
690.055830 0.8370 0.8300 0.8230 0.8200 0.8200
694.754358 0.8300 0.8390 0.8480 0.8540 0.8650
699.452886 0.8650 0.8750 0.8860 0.8910 0.8940
704.151414 0.8960 0.8970 0.9000 0.9020 0.9050
708.849943 0.9100 0.9120 0.9180 0.9190 0.9210
713.548471 0.9220 0.9290 0.9320 0.9350 0.9410
718.246999 0.9440 0.9470 0.9500 0.9510 0.9540
722.945528 0.9570 0.9600 0.9620 0.9620 0.9640
727.644056 0.9640 0.9630 0.9630 0.9620 0.9590
732.342584 0.9570 0.9560 0.9540 0.9530 0.9510
737.041113 0.9500 0.9450 0.9430 0.9400 0.9370
741.739641 0.9340 0.9290 0.9270 0.9250 0.9240
746.438169 0.9220 0.9210 0.9190 0.9180 0.9160
751.136697 0.9150 0.9130 0.9100 0.9100 0.9090
755.835226 0.9060 0.9050 0.9050 0.9030 0.9030
760.533754 0.9020 0.9000 0.8990 0.8970 0.8960
765.232282 0.8940 0.8990 0.9100 0.9120 0.9160
769.930811 0.9190 0.9210 0.9220 0.9250 0.9290
774.629339 0.9310 0.9320 0.9340 0.9370 0.9370
779.327867 0.9380 0.9400 0.9400 0.9410 0.9440
784.026395 0.9440 0.9450 0.9480 0.9530 0.9540
788.724924 0.9560 0.9600 0.9620 0.9690 0.9700
793.423452 0.9720 0.9730 0.9750 0.9760 0.9760
798.121980 0.9760 0.9760 0.9780 0.9780 0.9780
802.820509 0.9780 0.9780 0.9780 0.9780 0.9780
807.519037 0.9780 0.9780 0.9780 0.9780 0.9780
812.217565 0.9780 0.9780 0.9780 0.9780 0.9780
816.916093 0.9780 0.9780 0.9760 0.9760 0.9760
821.614622 0.9760 0.9760 0.9760 0.9760 0.9760
826.313150 0.9760 0.9760 0.9760 0.9750 0.9750
831.011678 0.9730 0.9730 0.9720 0.9720 0.9720
835.710207 0.9700 0.9700 0.9690 0.9690 0.9690
840.408735 0.9690 0.9690 0.9690 0.9690 0.9690
845.107263 0.9690 0.9690 0.9690 0.9670 0.9670
849.805791 0.9660 0.9660 0.9640 0.9640 0.9640
854.504320 0.9630 0.9630 0.9620 0.9630 0.9620
859.202848 0.9600 0.9600 0.9600 0.9620 0.9620
863.901376 0.9620 0.9630 0.9630 0.9630 0.9620
868.599905 0.9620 0.9600 0.9590 0.9560 0.9540
873.298433 0.9540 0.9540 0.9500 0.9470 0.9450
877.996961 0.9440 0.9440 0.9410 0.9410 0.9400
882.695490 0.9380 0.9370 0.9350 0.9350 0.9340
887.394018 0.9340 0.9340 0.9340 0.9340 0.9340
892.092546 0.9340 0.9320 0.9320 0.9320 0.9320
896.791074 0.9320 0.9320 0.9320 0.9320 0.9320
901.489603 0.9320 0.9320 0.9320 0.9310 0.9310
906.188131 0.9310 0.9310 0.9290 0.9290 0.9290
910.886659 0.9280 0.9280 0.9250 0.9190 0.9120
915.585188 0.9090 0.9060 0.8990 0.8930 0.8870
920.283716 0.8810 0.8640 0.8420 0.8200 0.8080
924.982244 0.7950 0.7730 0.7351 0.6971 0.6552
929.680772 0.6130 0.5890 0.5660 0.5560 0.5440
934.379301 0.5210 0.4990 0.4751 0.4650 0.4540
939.077829 0.4299 0.3820 0.3750 0.3670 0.3480
943.776357 0.3310 0.3130 0.2871 0.2611 0.2241
948.474886 0.1890 0.1720 0.1540 0.1150 0.1000
953.173414 0.0840 0.1429 0.3146 0.3270 0.3270
957.871942 0.3280 0.3290 0.3290 0.3310 0.3340
962.570470 0.3370 0.3380 0.3400 0.3400 0.3410
967.268999 0.3410 0.3410 0.3410 0.3410 0.3720
971.967527 0.4319 0.4590 0.4700 0.4750 0.4810
976.666055 0.4860 0.4890 0.4960 0.4970 0.4970
981.364584 0.4860 0.4710 0.4650 0.4580 0.4261
986.063112 0.3779 0.3540 0.3292 0.5000 0.5080
990.761640 0.5120 0.5130 0.5150 0.5160 0.5150
995.460168 0.5100 0.5019 0.4650 0.4480 0.4290
1000.158697 0.3920 0.3750 0.3570 0.4777 0.5528
1004.857225 0.5620 0.5820 0.6010 0.6040 0.6100
1009.555753 0.6110 0.6260 0.6480 0.6620 0.6620
1014.254282 0.6740 0.6780 0.6900 0.6970 0.7060
1018.952810 0.7060 0.7080 0.7080 0.7080 0.7080
1023.651338 0.7080 0.7120 0.7210 0.7600 0.7790
1028.349866 0.7890 0.7940 0.8000 0.8080 0.8110
1033.048395 0.8130 0.8140 0.8140 0.8140 0.8130
1037.746923 0.8110 0.8100 0.8080 0.8070 0.8050
1042.445451 0.8050 0.8040 0.8020 0.8020 0.8020
1047.143980 0.8020 0.8010 0.7980 0.7970 0.7950
1051.842508 0.7940 0.7920 0.7920 0.7920 0.7950
1056.541036 0.7950 0.7970 0.7980 0.8000 0.8010
1061.239565 0.8040 0.8050 0.8070 0.8100 0.8110
1065.938093 0.8300 0.8370 0.8450 0.8480 0.8490
1070.636621 0.8510 0.8540 0.8580 0.8590 0.8610
1075.335149 0.8680 0.8710 0.8740 0.8840 0.8900
1080.033678 0.9100 0.9130 0.9190 0.9310 0.9320
1084.732206 0.9350 0.9350 0.9350 0.9350 0.9340
1089.430734 0.9340 0.9310 0.9280 0.9280 0.9270
1094.129263 0.9250 0.9250 0.9250 0.9250 0.9250
1098.827791 0.9240 0.9240 0.9190 0.9180 0.9160
1103.526319 0.9160 0.9150 0.9150 0.9130 0.9120
1108.224847 0.9120 0.9120 0.9100 0.9100 0.9100
1112.923376 0.9100 0.9100 0.9100 0.9100 0.9120
1117.621904 0.9120 0.9150 0.9180 0.9210 0.9220
1122.320432 0.9240 0.9250 0.9270 0.9280 0.9310
1127.018961 0.9310 0.9320 0.9320 0.9320 0.9320
1131.717489 0.9310 0.9310 0.9310 0.9310 0.9290
1136.416017 0.9270 0.9250 0.9240 0.9220 0.9210
1141.114545 0.9180 0.9160 0.9160 0.9130 0.9130
1145.813074 0.9120 0.9120 0.9100 0.9090 0.9060
1150.511602 0.9020 0.8910 0.8800 0.8611 0.8510
1155.210130 0.8330 0.8140 0.7910 0.7720 0.7540
1159.908659 0.6970 0.6391 0.5811 0.5531 0.5251
1164.607187 0.4938 0.4459 0.3970 0.3790 0.3620
1169.305715 0.3410 0.3290 0.3250 0.3220 0.3130
1174.004243 0.2970 0.2940 0.2810 0.2750 0.2700
1178.702772 0.2560 0.2830 0.2960 0.3030 0.2970
1183.401300 0.2870 0.2830 0.2780 0.2680 0.2580
1188.099828 0.2490 0.2550 0.2810 0.2910 0.3079
1192.798357 0.3850 0.3940 0.4070 0.4290 0.4770
1197.496885 0.4870 0.4960 0.5160 0.5310 0.5639
1202.195413 0.5891 0.6140 0.6320 0.6460 0.6550
1206.893942 0.6590 0.6620 0.6640 0.6670 0.6680
1211.592470 0.6680 0.6650 0.6620 0.6430 0.6270
1216.290998 0.6100 0.5970 0.5850 0.5730 0.5790
1220.989526 0.5861 0.6050 0.6010 0.5910 0.5500
1225.688055 0.5310 0.5120 0.4810 0.4511 0.4241
1230.386583 0.3720 0.3590 0.3450 0.3350 0.3150
1235.085111 0.3030 0.2860 0.2830 0.2800 0.2750
1239.783640 0.2720 0.2700 0.2670 0.2650 0.2620
1244.482168 0.2590 0.2580 0.2560 0.2560 0.2550
1249.180696 0.2480 0.2540 0.2550 0.2550 0.2550
1253.879224 0.2560 0.2580 0.2640 0.2680 0.2840
1258.577753 0.2960 0.3030 0.3210 0.3370 0.3780
1263.276281 0.3820 0.4050 0.4589 0.4830 0.5029
1267.974809 0.5180 0.5310 0.5401 0.5780 0.5910
1272.673338 0.6180 0.6290 0.6430 0.6580 0.6710
1277.371866 0.6841 0.7210 0.7340 0.7380 0.7570
1282.070394 0.7630 0.7730 0.7760 0.7790 0.7860
1286.768922 0.7890 0.7940 0.7950 0.8000 0.8020
1291.467451 0.8050 0.8080 0.8200 0.8230 0.8300
1296.165979 0.8320 0.8420 0.8490 0.8510 0.8550
1300.864507 0.8590 0.8640 0.8670 0.8700 0.8700
1305.563036 0.8710 0.8710 0.8800 0.8830 0.8870
1310.261564 0.8900 0.8910 0.8930 0.8940 0.8940
1314.960092 0.8940 0.8960 0.8970 0.8970 0.8960
1319.658620 0.8940 0.8930 0.8900 0.8900 0.8870
1324.357149 0.8810 0.8740 0.8710 0.8700 0.8590
1329.055677 0.8520 0.8430 0.8320 0.8230 0.8140
1333.754205 0.8040 0.7950 0.7780 0.7620 0.7450
1338.452734 0.7400 0.7310 0.7120 0.6910 0.6551
1343.151262 0.6429 0.6270 0.6099 0.5809 0.5440
1347.849790 0.5080 0.4750 0.4430 0.4320 0.4160
1352.548318 0.3889 0.3629 0.3289 0.3000 0.2780
1357.246847 0.2560 0.2480 0.2400 0.2330 0.2260
1361.945375 0.2240 0.2210 0.2200 0.2200 0.2180
1366.643903 0.2170 0.2130 0.2040 0.1910 0.1760
1371.342432 0.1730 0.1760 0.1890 0.1950 0.2020
1376.040960 0.2050 0.2110 0.2160 0.2230 0.2320
1380.739488 0.2490 0.2510 0.2540 0.2560 0.2540
1385.438017 0.2510 0.2510 0.2490 0.2480 0.2480
1390.136545 0.2460 0.2450 0.2460 0.2490 0.2520
1394.835073 0.2550 0.2580 0.2680 0.2860 0.2780
1399.533601 0.2808 0.2208 0.1623 0.2740 0.2610
1404.232130 0.2540 0.2460 0.2390 0.2320 0.2240
1408.930658 0.2170 0.2100 0.2070 0.2080 0.2180
1413.629186 0.2290 0.2400 0.2540 0.2650 0.2830
1418.327715 0.3000 0.3051 0.3280 0.3350 0.3370
1423.026243 0.3410 0.3500 0.3540 0.3700 0.3820
1427.724771 0.3820 0.3880 0.4000 0.4100 0.4200
1432.423299 0.4260 0.4350 0.4490 0.4510 0.4520
1437.121828 0.4540 0.4550 0.4550 0.4640 0.4680
1441.820356 0.4780 0.4870 0.5030 0.5160 0.5280
1446.518884 0.5371 0.5620 0.5750 0.5850 0.5970
1451.217413 0.6130 0.6420 0.6550 0.6680 0.6800
1455.915941 0.6900 0.6940 0.7060 0.7100 0.7210
1460.614469 0.7290 0.7400 0.7450 0.7560 0.7590
1465.312997 0.7631 0.7750 0.7760 0.7810 0.7920
1470.011526 0.7940 0.8020 0.8100 0.8130 0.8210
1474.710054 0.8240 0.8300 0.8350 0.8370 0.8420
1479.408582 0.8430 0.8480 0.8490 0.8520 0.8540
1484.107111 0.8580 0.8670 0.8680 0.8700 0.8700
1488.805639 0.8700 0.8700 0.8710 0.8720 0.8750
1493.504167 0.8770 0.8780 0.8780 0.8800 0.8810
1498.202695 0.8810 0.8810 0.8810 0.8810 0.8800
1502.901224 0.8770 0.8770 0.8770 0.8770 0.8770
1507.599752 0.8770 0.8770 0.8750 0.8740 0.8740
1512.298280 0.8740 0.8740 0.8740 0.8710 0.8720
1516.996809 0.8710 0.8710 0.8710 0.8710 0.8700
1521.695337 0.8700 0.8700 0.8700 0.8680 0.8680
1526.393865 0.8680 0.8670 0.8680 0.8680 0.8680
1531.092394 0.8680 0.8680 0.8680 0.8680 0.8680
1535.790922 0.8680 0.8680 0.8700 0.8700 0.8700
1540.489450 0.8700 0.8710 0.8710 0.8710 0.8710
1545.187978 0.8710 0.8720 0.8720 0.8720 0.8720
1549.886507 0.8720 0.8750 0.8750 0.8770 0.8780
1554.585035 0.8810 0.8830 0.8860 0.8870 0.8890
1559.283563 0.8900 0.8910 0.8910 0.8930 0.8930
1563.982092 0.8940 0.8940 0.8960 0.8960 0.8970
1568.680620 0.8970 0.8970 0.8970 0.8970 0.8970
1573.379148 0.8960 0.8960 0.8960 0.8970 0.8990
1578.077676 0.8990 0.9000 0.8990 0.8990 0.8960
1582.776205 0.8940 0.8930 0.8930 0.8910 0.8900
1587.474733 0.8900 0.8890 0.8890 0.8870 0.8860
1592.173261 0.8780 0.8740 0.8680 0.8670 0.8590
1596.871790 0.8520 0.8400 0.8300 0.8230 0.8160
1601.570318 0.8020 0.7880 0.7540 0.7500 0.7440
1606.268846 0.7239 0.7030 0.6909 0.6639 0.6350
1610.967374 0.6160 0.5890 0.5750 0.5640 0.5620
1615.665903 0.5600 0.5590 0.5540 0.5510 0.5480
1620.364431 0.5370 0.5340 0.5370 0.5590 0.5590
1625.062959 0.5530 0.5449 0.5249 0.5080 0.4970
1629.761488 0.4940 0.4910 0.4960 0.5030 0.5100
1634.460016 0.5190 0.5271 0.5541 0.5791 0.6010
1639.158544 0.6070 0.6140 0.6650 0.6740 0.7150
1643.857072 0.7310 0.7381 0.7590 0.7690 0.7750
1648.555601 0.7780 0.7830 0.7940 0.7980 0.8010
1653.254129 0.8050 0.8110 0.8230 0.8230 0.8260
1657.952657 0.8260 0.8260 0.8260 0.8260 0.8240
1662.651186 0.8230 0.8200 0.8170 0.8130 0.8080
1667.349714 0.7950 0.7890 0.7570 0.7410 0.7320
1672.048242 0.7219 0.7029 0.6829 0.6639 0.6449
1676.746770 0.6130 0.5810 0.5570 0.5320 0.5280
1681.445299 0.4697 0.4098 0.3558 0.2999 0.2749
1686.143827 0.2509 0.2040 0.1570 0.1130 0.1030
1690.842355 0.0829 0.0609 0.0480 0.0460 0.0400
1695.540884 0.0370 0.0370 0.0370 0.0370 0.0360
1700.239412 0.0320 0.0260 0.0230 0.0230 0.0230
1704.937940 0.0230 0.0210 0.0210 0.0200 0.0170
1709.636469 0.0110 0.0100 0.0080 0.0070 0.0100
1714.334997 0.0110 0.0170 0.0210 0.0260 0.0270
1719.033525 0.0320 0.0400 0.0491 0.0640 0.0700
1723.732053 0.0830 0.0890 0.0930 0.0930 0.0910
1728.430582 0.0890 0.0860 0.0830 0.0810 0.0860
1733.129110 0.0900 0.1000 0.1030 0.1120 0.1240
1737.827638 0.1371 0.1481 0.1661 0.2041 0.2241
1742.526167 0.2451 0.2800 0.2910 0.3000 0.3290
1747.224695 0.3452 0.3791 0.3950 0.4071 0.4291
1751.923223 0.4650 0.4870 0.5160 0.5240 0.5660
1756.621751 0.5861 0.6001 0.6140 0.6261 0.6481
1761.320280 0.6700 0.6720 0.6890 0.7050 0.7150
1766.018808 0.7411 0.7530 0.7620 0.7700 0.7780
1770.717336 0.7850 0.7920 0.8050 0.8140 0.8200
1775.415865 0.8320 0.8350 0.8370 0.8420 0.8450
1780.114393 0.8510 0.8540 0.8550 0.8580 0.8620
1784.812921 0.8640 0.8700 0.8700 0.8710 0.8740
1789.511449 0.8750 0.8780 0.8810 0.8870 0.8890
1794.209978 0.8910 0.8910 0.8930 0.8940 0.8970
1798.908506 0.8990 0.9000 0.9020 0.9020 0.9060
1803.607034 0.9090 0.9100 0.9100 0.9100 0.9120
1808.305563 0.9130 0.9150 0.9160 0.9190 0.9190
1813.004091 0.9210 0.9220 0.9240 0.9250 0.9270
1817.702619 0.9280 0.9280 0.9290 0.9290 0.9310
1822.401147 0.9320 0.9320 0.9340 0.9350 0.9350
1827.099676 0.9370 0.9380 0.9380 0.9380 0.9380
1831.798204 0.9380 0.9400 0.9400 0.9410 0.9410
1836.496732 0.9410 0.9430 0.9430 0.9440 0.9450
1841.195261 0.9450 0.9450 0.9450 0.9470 0.9470
1845.893789 0.9470 0.9480 0.9480 0.9480 0.9480
1850.592317 0.9480 0.9480 0.9480 0.9480 0.9480
1855.290846 0.9470 0.9470 0.9470 0.9470 0.9470
1859.989374 0.9470 0.9470 0.9450 0.9450 0.9440
1864.687902 0.9440 0.9440 0.9440 0.9440 0.9430
1869.386430 0.9430 0.9410 0.9400 0.9370 0.9340
1874.084959 0.9340 0.9340 0.9320 0.9310 0.9310
1878.783487 0.9290 0.9280 0.9270 0.9190 0.9150
1883.482015 0.9120 0.9100 0.9100 0.9090 0.9020
1888.180544 0.8960 0.8930 0.8900 0.8840 0.8800
1892.879072 0.8770 0.8750 0.8740 0.8710 0.8700
1897.577600 0.8710 0.8720 0.8740 0.8740 0.8770
1902.276128 0.8720 0.8670 0.8640 0.8620 0.8610
1906.974657 0.8620 0.8640 0.8650 0.8670 0.8670
1911.673185 0.8700 0.8700 0.8710 0.8740 0.8770
1916.371713 0.8771 0.8860 0.8900 0.8900 0.8930
1921.070242 0.8940 0.8960 0.8990 0.9000 0.9000
1925.768770 0.9000 0.9020 0.9030 0.9030 0.9050
1930.467298 0.9050 0.9050 0.9050 0.9020 0.9020
1935.165826 0.9000 0.8990 0.8990 0.8990 0.9000
1939.864355 0.9000 0.9000 0.9000 0.9020 0.9020
1944.562883 0.9020 0.9030 0.9030 0.9060 0.9080
1949.261411 0.9100 0.9100 0.9120 0.9130 0.9130
1953.959940 0.9150 0.9160 0.9160 0.9180 0.9190
1958.658468 0.9210 0.9220 0.9240 0.9280 0.9310
1963.356996 0.9320 0.9320 0.9350 0.9380 0.9400
1968.055524 0.9410 0.9430 0.9430 0.9430 0.9440
1972.754053 0.9440 0.9440 0.9440 0.9440 0.9430
1977.452581 0.9430 0.9410 0.9410 0.9410 0.9400
1982.151109 0.9400 0.9380 0.9400 0.9400 0.9400
1986.849638 0.9410 0.9410 0.9440 0.9440 0.9440
1991.548166 0.9440 0.9440 0.9440 0.9440 0.9440
1996.246694 0.9430 0.9440 0.9440 0.9440 0.9450
2000.945223 0.9450 0.9450 0.9450 0.9450 0.9460
2005.643751 0.9470 0.9470 0.9470 0.9470 0.9470
2010.342279 0.9475 0.9480 0.9490 0.9500 0.9500
2015.040807 0.9500 0.9500 0.9500 0.9505 0.9510
2019.739336 0.9510 0.9510 0.9520 0.9530 0.9530
2024.437864 0.9530 0.9535 0.9540 0.9550 0.9560
2029.136392 0.9560 0.9560 0.9560 0.9560 0.9560
2033.834921 0.9560 0.9560 0.9560 0.9560 0.9560
2038.533449 0.9560 0.9560 0.9560 0.9560 0.9560
2043.231977 0.9560 0.9565 0.9570 0.9570 0.9570
2047.930505 0.9570 0.9570 0.9570 0.9570 0.9570
2052.629034 0.9570 0.9570 0.9570 0.9580 0.9590
2057.327562 0.9590 0.9590 0.9590 0.9590 0.9590
2062.026090 0.9590 0.9590 0.9590 0.9590 0.9590
2066.724619 0.9590 0.9590 0.9590 0.9590 0.9590
2071.423147 0.9590 0.9595 0.9600 0.9600 0.9600
2076.121675 0.9600 0.9600 0.9600 0.9600 0.9600
2080.820203 0.9600 0.9600 0.9600 0.9600 0.9600
2085.518732 0.9600 0.9600 0.9595 0.9590 0.9590
2090.217260 0.9590 0.9590 0.9590 0.9580 0.9570
2094.915788 0.9570 0.9570 0.9570 0.9570 0.9565
2099.614317 0.9560 0.9560 0.9560 0.9560 0.9560
2104.312845 0.9550 0.9540 0.9540 0.9540 0.9535
2109.011373 0.9530 0.9515 0.9500 0.9490 0.9480
2113.709901 0.9465 0.9450 0.9445 0.9440 0.9440
2118.408430 0.9440 0.9440 0.9440 0.9440 0.9440
2123.106958 0.9435 0.9430 0.9430 0.9430 0.9430
2127.805486 0.9430 0.9430 0.9430 0.9430 0.9430
2132.504015 0.9430 0.9430 0.9435 0.9440 0.9445
2137.202543 0.9450 0.9460 0.9470 0.9470 0.9470
2141.901071 0.9475 0.9480 0.9480 0.9480 0.9495
2146.599599 0.9510 0.9510 0.9510 0.9510 0.9510
2151.298128 0.9510 0.9510 0.9510 0.9510 0.9510
2155.996656 0.9510 0.9510 0.9510 0.9510 0.9510
2160.695184 0.9510 0.9510 0.9510 0.9510 0.9510
2165.393713 0.9510 0.9510 0.9510 0.9510 0.9510
2170.092241 0.9510 0.9510 0.9510 0.9510 0.9505
2174.790769 0.9500 0.9500 0.9500 0.9490 0.9480
2179.489298 0.9475 0.9470 0.9470 0.9470 0.9470
2184.187826 0.9470 0.9460 0.9450 0.9450 0.9450
2188.886354 0.9450 0.9450 0.9450 0.9450 0.9460
2193.584882 0.9470 0.9470 0.9470 0.9470 0.9470
2198.283411 0.9485 0.9500 0.9515 0.9530 0.9535
2202.981939 0.9540 0.9555 0.9570 0.9585 0.9600
2207.680467 0.9610 0.9620 0.9620 0.9620 0.9625
2212.378996 0.9630 0.9630 0.9630 0.9630 0.9630
2217.077524 0.9635 0.9640 0.9640 0.9640 0.9640
2221.776052 0.9640 0.9640 0.9640 0.9640 0.9640
2226.474580 0.9640 0.9640 0.9640 0.9640 0.9640
2231.173109 0.9640 0.9640 0.9640 0.9640 0.9640
2235.871637 0.9640 0.9640 0.9635 0.9630 0.9630
2240.570165 0.9630 0.9630 0.9630 0.9630 0.9630
2245.268694 0.9630 0.9630 0.9630 0.9630 0.9630
2249.967222 0.9630 0.9630 0.9630 0.9630 0.9630
2254.665750 0.9630 0.9630 0.9630 0.9630 0.9630
2259.364278 0.9630 0.9630 0.9630 0.9630 0.9630
2264.062807 0.9630 0.9630 0.9630 0.9630 0.9630
2268.761335 0.9630 0.9630 0.9630 0.9625 0.9620
2273.459863 0.9620 0.9620 0.9620 0.9620 0.9610
2278.158392 0.9600 0.9600 0.9600 0.9595 0.9590
2282.856920 0.9590 0.9590 0.9580 0.9570 0.9570
2287.555448 0.9570 0.9570 0.9570 0.9570 0.9570
2292.253976 0.9570 0.9570 0.9570 0.9570 0.9570
2296.952505 0.9570 0.9570 0.9570 0.9565 0.9560
2301.651033 0.9560 0.9560 0.9560 0.9560 0.9560
2306.349561 0.9560 0.9560 0.9560 0.9560 0.9560
2311.048090 0.9560 0.9560 0.9560 0.9560 0.9560
2315.746618 0.9560 0.9560 0.9560 0.9565 0.9570
2320.445146 0.9570 0.9570 0.9570 0.9570 0.9570
2325.143675 0.9570 0.9570 0.9570 0.9570 0.9570
2329.842203 0.9570 0.9570 0.9570 0.9570 0.9580
2334.540731 0.9590 0.9595 0.9600 0.9600 0.9600
2339.239259 0.9610 0.9620 0.9620 0.9620 0.9625
2343.937788 0.9630 0.9630 0.9630 0.9635 0.9640
2348.636316 0.9640 0.9640 0.9640 0.9640 0.9640
2353.334844 0.9640 0.9640 0.9640 0.9635 0.9630
2358.033373 0.9630 0.9630 0.9630 0.9629 0.9614
2362.731901 0.9600 0.9595 0.9590 0.9590 0.9590
2367.430429 0.9580 0.9570 0.9570 0.9570 0.9570
2372.128957 0.9570 0.9570 0.9570 0.9570 0.9570
2376.827486 0.9570 0.9570 0.9580 0.9590 0.9590
