##TITLE=PROPIONAMIDE
##JCAMP-DX=4.24
$$ By DXEDIT 1.05 (RS McDonald)
##DATA TYPE=INFRARED SPECTRUM
##CLASS=COBLENTZ II
##ORIGIN=DOW CHEMICAL COMPANY
##OWNER=COBLENTZ SOC.
Collection (C) 2018 copyright by the U.S. Secretary of Commerce
on behalf of the United States of America. All rights reserved.
##DATE=1964/01/13
##CAS REGISTRY NO=79-05-0
##MOLFORM=C3 H7 N O
##SOURCE REFERENCE=COBLENTZ NO. 05755
##$NIST SOURCE=COBLENTZ
##$NIST IMAGE=cob5755
##SPECTROMETER/DATA SYSTEM=DOW KBr FOREPRISM-GRATING
##INSTRUMENT PARAMETERS=BLAZED AT 3.5, 12.0, 20.0 MICRON AND CHANGED AT 5.0, 7.5, 14.9 MICRON
##STATE=SOLID (SPLIT MULL)
##SAMPLING PROCEDURE=TRANSMISSION
##RESOLUTION=2
##DATA PROCESSING=DIGITIZED BY COBLENTZ SOCIETY (BATCH I) FROM HARD COPY
##XUNITS=1/CM
##YUNITS=TRANSMITTANCE
##XLABEL=Wavenumbers (cm-1)
##YLABEL=% Transmission
##XFACTOR=1
##YFACTOR=1
##DELTAX=1
##FIRSTX=3806
##LASTX=451
##FIRSTY=0.8435
##MAXX=3806
##MINX=451
##MAXY=0.9973
##MINY=0.0683
##NPOINTS=3356
##XYDATA=(X++(Y..Y))
3806.000000 0.8435 0.8435 0.8436 0.8437 0.8438
3801.000000 0.8439 0.8440 0.8441 0.8442 0.8443
3796.000000 0.8444 0.8444 0.8445 0.8446 0.8447
3791.000000 0.8448 0.8449 0.8450 0.8451 0.8452
3786.000000 0.8453 0.8454 0.8455 0.8456 0.8457
3781.000000 0.8457 0.8458 0.8459 0.8460 0.8461
3776.000000 0.8462 0.8463 0.8464 0.8465 0.8466
3771.000000 0.8467 0.8468 0.8470 0.8471 0.8474
3766.000000 0.8477 0.8478 0.8481 0.8483 0.8486
3761.000000 0.8488 0.8491 0.8493 0.8495 0.8497
3756.000000 0.8500 0.8502 0.8504 0.8506 0.8509
3751.000000 0.8511 0.8513 0.8515 0.8517 0.8518
3746.000000 0.8521 0.8524 0.8525 0.8528 0.8530
3741.000000 0.8532 0.8535 0.8535 0.8535 0.8535
3736.000000 0.8534 0.8533 0.8532 0.8531 0.8530
3731.000000 0.8528 0.8528 0.8528 0.8527 0.8525
3726.000000 0.8525 0.8524 0.8523 0.8521 0.8521
3721.000000 0.8521 0.8523 0.8524 0.8525 0.8525
3716.000000 0.8525 0.8525 0.8527 0.8527 0.8528
3711.000000 0.8528 0.8528 0.8530 0.8531 0.8531
3706.000000 0.8532 0.8533 0.8534 0.8538 0.8542
3701.000000 0.8546 0.8550 0.8553 0.8557 0.8561
3696.000000 0.8565 0.8568 0.8573 0.8575 0.8580
3691.000000 0.8584 0.8588 0.8592 0.8596 0.8599
3686.000000 0.8603 0.8606 0.8610 0.8613 0.8616
3681.000000 0.8618 0.8621 0.8624 0.8627 0.8630
3676.000000 0.8633 0.8635 0.8638 0.8641 0.8644
3671.000000 0.8647 0.8650 0.8652 0.8655 0.8658
3666.000000 0.8661 0.8663 0.8666 0.8668 0.8671
3661.000000 0.8675 0.8678 0.8680 0.8683 0.8685
3656.000000 0.8687 0.8688 0.8690 0.8691 0.8693
3651.000000 0.8694 0.8696 0.8697 0.8699 0.8700
3646.000000 0.8702 0.8703 0.8705 0.8706 0.8708
3641.000000 0.8709 0.8711 0.8712 0.8714 0.8715
3636.000000 0.8717 0.8718 0.8720 0.8721 0.8723
3631.000000 0.8724 0.8725 0.8727 0.8728 0.8730
3626.000000 0.8732 0.8733 0.8735 0.8736 0.8738
3621.000000 0.8740 0.8742 0.8743 0.8745 0.8746
3616.000000 0.8748 0.8749 0.8751 0.8752 0.8754
3611.000000 0.8755 0.8757 0.8759 0.8761 0.8762
3606.000000 0.8764 0.8765 0.8767 0.8768 0.8770
3601.000000 0.8771 0.8773 0.8774 0.8775 0.8777
3596.000000 0.8778 0.8780 0.8781 0.8782 0.8783
3591.000000 0.8783 0.8784 0.8784 0.8785 0.8786
3586.000000 0.8787 0.8787 0.8788 0.8788 0.8789
3581.000000 0.8790 0.8791 0.8791 0.8792 0.8793
3576.000000 0.8794 0.8794 0.8795 0.8795 0.8796
3571.000000 0.8797 0.8798 0.8798 0.8799 0.8800
3566.000000 0.8801 0.8801 0.8801 0.8801 0.8801
3561.000000 0.8801 0.8801 0.8801 0.8801 0.8801
3556.000000 0.8801 0.8801 0.8801 0.8801 0.8801
3551.000000 0.8801 0.8801 0.8801 0.8801 0.8801
3546.000000 0.8801 0.8801 0.8801 0.8801 0.8801
3541.000000 0.8801 0.8801 0.8801 0.8801 0.8801
3536.000000 0.8801 0.8801 0.8801 0.8801 0.8801
3531.000000 0.8801 0.8801 0.8800 0.8800 0.8798
3526.000000 0.8797 0.8795 0.8794 0.8792 0.8791
3521.000000 0.8788 0.8786 0.8783 0.8794 0.8777
3516.000000 0.8774 0.8771 0.8768 0.8763 0.8759
3511.000000 0.8752 0.8745 0.8738 0.8731 0.8721
3506.000000 0.8714 0.8704 0.8695 0.8684 0.8674
3501.000000 0.8663 0.8652 0.8638 0.8625 0.8609
3496.000000 0.8594 0.8578 0.8563 0.8548 0.8533
3491.000000 0.8511 0.8489 0.8466 0.8444 0.8421
3486.000000 0.8400 0.8375 0.8350 0.8325 0.8300
3481.000000 0.8274 0.8249 0.8223 0.8198 0.8171
3476.000000 0.8145 0.8118 0.8091 0.8064 0.8038
3471.000000 0.8011 0.7985 0.7950 0.7915 0.7880
3466.000000 0.7845 0.7810 0.7775 0.7740 0.7705
3461.000000 0.7665 0.7628 0.7586 0.7545 0.7503
3456.000000 0.7461 0.7418 0.7376 0.7328 0.7278
3451.000000 0.7230 0.7182 0.7133 0.7085 0.7018
3446.000000 0.6953 0.6882 0.6811 0.6740 0.6669
3441.000000 0.6599 0.6528 0.6435 0.6342 0.6236
3436.000000 0.6131 0.6081 0.6032 0.5762 0.5493
3431.000000 0.5410 0.5330 0.5248 0.5167 0.5086
3426.000000 0.5005 0.4923 0.4842 0.4760 0.4679
3421.000000 0.4597 0.4516 0.4434 0.4353 0.4272
3416.000000 0.4191 0.4109 0.4028 0.3946 0.3864
3411.000000 0.3782 0.3702 0.3616 0.3530 0.3375
3406.000000 0.3220 0.3077 0.2934 0.2846 0.2757
3401.000000 0.2658 0.2560 0.2454 0.2348 0.2041
3396.000000 0.1734 0.1687 0.1642 0.1596 0.1550
3391.000000 0.1417 0.1285 0.1220 0.1156 0.1116
3386.000000 0.1076 0.1040 0.1005 0.0975 0.0945
3381.000000 0.0934 0.0924 0.0917 0.0911 0.0905
3376.000000 0.0899 0.0895 0.0892 0.0889 0.0889
3371.000000 0.0889 0.0892 0.0896 0.0900 0.0904
3366.000000 0.0908 0.0915 0.0922 0.0933 0.0942
3361.000000 0.0953 0.0964 0.0974 0.0984 0.0995
3356.000000 0.1007 0.1027 0.1048 0.1069 0.1090
3351.000000 0.1110 0.1131 0.1157 0.1184 0.1213
3346.000000 0.1242 0.1272 0.1301 0.1330 0.1360
3341.000000 0.1389 0.1419 0.1449 0.1479 0.1509
3336.000000 0.1539 0.1569 0.1599 0.1628 0.1658
3331.000000 0.1687 0.1718 0.1744 0.1771 0.1794
3326.000000 0.1819 0.1843 0.1868 0.1892 0.1916
3321.000000 0.1940 0.1965 0.1989 0.2013 0.2033
3316.000000 0.2053 0.2072 0.2091 0.2110 0.2129
3311.000000 0.2148 0.2167 0.2185 0.2206 0.2225
3306.000000 0.2244 0.2262 0.2280 0.2296 0.2313
3301.000000 0.2329 0.2345 0.2361 0.2378 0.2394
3296.000000 0.2411 0.2427 0.2443 0.2458 0.2474
3291.000000 0.2485 0.2498 0.2510 0.2523 0.2534
3286.000000 0.2548 0.2560 0.2572 0.2584 0.2597
3281.000000 0.2608 0.2619 0.2628 0.2637 0.2646
3276.000000 0.2656 0.2665 0.2675 0.2684 0.2694
3271.000000 0.2701 0.2708 0.2714 0.2721 0.2727
3266.000000 0.2734 0.2734 0.2734 0.2734 0.2734
3261.000000 0.2734 0.2734 0.2731 0.2727 0.2725
3256.000000 0.2722 0.2717 0.2713 0.2693 0.2674
3251.000000 0.2653 0.2633 0.2612 0.2592 0.2571
3246.000000 0.2551 0.2530 0.2510 0.2484 0.2460
3241.000000 0.2424 0.2389 0.2353 0.2318 0.2284
3236.000000 0.2250 0.2222 0.2195 0.2168 0.2141
3231.000000 0.2114 0.2087 0.2059 0.2032 0.2003
3226.000000 0.1974 0.1944 0.1914 0.1884 0.1854
3221.000000 0.1825 0.1794 0.1765 0.1735 0.1715
3216.000000 0.1694 0.1677 0.1660 0.1642 0.1625
3211.000000 0.1607 0.1589 0.1574 0.1559 0.1544
3206.000000 0.1529 0.1514 0.1499 0.1486 0.1473
3201.000000 0.1466 0.1459 0.1452 0.1445 0.1438
3196.000000 0.1431 0.1426 0.1422 0.1420 0.1419
3191.000000 0.1417 0.1416 0.1414 0.1413 0.1411
3186.000000 0.1461 0.1415 0.1421 0.1428 0.1435
3181.000000 0.1458 0.1482 0.1525 0.1568 0.1607
3176.000000 0.1645 0.1684 0.1723 0.1761 0.1800
3171.000000 0.1841 0.1882 0.1922 0.1963 0.2004
3166.000000 0.2045 0.2096 0.2146 0.2196 0.2247
3161.000000 0.2298 0.2350 0.2404 0.2458 0.2511
3156.000000 0.2565 0.2618 0.2672 0.2725 0.2779
3151.000000 0.2837 0.2895 0.2958 0.3022 0.3077
3146.000000 0.3132 0.3173 0.3214 0.3254 0.3295
3141.000000 0.3336 0.3377 0.3416 0.3458 0.3499
3136.000000 0.3540 0.3580 0.3622 0.3662 0.3703
3131.000000 0.3741 0.3779 0.3812 0.3845 0.3877
3126.000000 0.3909 0.3942 0.3975 0.4012 0.4049
3121.000000 0.4088 0.4128 0.4167 0.4206 0.4245
3116.000000 0.4285 0.4322 0.4360 0.4385 0.4410
3111.000000 0.4435 0.4460 0.4486 0.4510 0.4536
3106.000000 0.4562 0.4587 0.4612 0.4637 0.4662
3101.000000 0.4688 0.4712 0.4737 0.4762 0.4787
3096.000000 0.4812 0.4836 0.4860 0.4885 0.4910
3091.000000 0.4934 0.4959 0.4983 0.5008 0.5032
3086.000000 0.5057 0.5082 0.5107 0.5131 0.5156
3081.000000 0.5181 0.5206 0.5230 0.5255 0.5280
3076.000000 0.5305 0.5329 0.5354 0.5379 0.5404
3071.000000 0.5426 0.5449 0.5470 0.5492 0.5514
3066.000000 0.5536 0.5558 0.5580 0.5602 0.5624
3061.000000 0.5646 0.5668 0.5689 0.5710 0.5733
3056.000000 0.5755 0.5777 0.5799 0.5820 0.5842
3051.000000 0.5864 0.5886 0.5907 0.5929 0.5951
3046.000000 0.5973 0.5994 0.6016 0.6031 0.6047
3041.000000 0.6060 0.6076 0.6091 0.6106 0.6120
3036.000000 0.6135 0.6149 0.6164 0.6178 0.6193
3031.000000 0.6207 0.6222 0.6236 0.6250 0.6262
3026.000000 0.6275 0.6287 0.6300 0.6312 0.6325
3021.000000 0.6337 0.6349 0.6359 0.6370 0.6379
3016.000000 0.6389 0.6394 0.6399 0.6404 0.6410
3011.000000 0.6415 0.6408 0.6421 0.6421 0.6421
3006.000000 0.6419 0.6418 0.6415 0.6411 0.6408
3001.000000 0.6396 0.6384 0.6371 0.6359 0.6324
2996.000000 0.6290 0.6166 0.6043 0.5800 0.5558
2991.000000 0.5315 0.5072 0.4829 0.4587 0.4344
2986.000000 0.4101 0.3858 0.3616 0.3408 0.3200
2981.000000 0.3197 0.3193 0.3228 0.3169 0.3388
2976.000000 0.3512 0.3638 0.3762 0.3887 0.4012
2971.000000 0.4136 0.4260 0.4386 0.4510 0.4635
2966.000000 0.4760 0.4884 0.5009 0.5133 0.5258
2961.000000 0.5383 0.5508 0.5632 0.5757 0.5774
2956.000000 0.5799 0.5790 0.5789 0.5641 0.5493
2951.000000 0.5345 0.5197 0.5048 0.4900 0.4752
2946.000000 0.4373 0.4479 0.4354 0.4352 0.4351
2941.000000 0.4426 0.4501 0.4590 0.4679 0.4768
2936.000000 0.4857 0.4945 0.5034 0.5096 0.5159
2931.000000 0.5162 0.5165 0.5168 0.5171 0.5177
2926.000000 0.5183 0.5189 0.5195 0.5202 0.5210
2921.000000 0.5251 0.5293 0.5351 0.5409 0.5473
2916.000000 0.5538 0.5608 0.5679 0.5745 0.5812
2911.000000 0.5871 0.5930 0.5980 0.6030 0.6076
2906.000000 0.6122 0.6134 0.6146 0.6151 0.6157
2901.000000 0.6160 0.6162 0.6166 0.6169 0.6171
2896.000000 0.6172 0.6173 0.6173 0.6172 0.6171
2891.000000 0.6170 0.6170 0.6153 0.6137 0.6118
2886.000000 0.6100 0.6080 0.6060 0.6045 0.6030
2881.000000 0.6025 0.6020 0.6021 0.6023 0.6029
2876.000000 0.5962 0.6126 0.6218 0.6286 0.6354
2871.000000 0.6390 0.6426 0.6458 0.6489 0.6514
2866.000000 0.6539 0.6561 0.6583 0.6598 0.6614
2861.000000 0.6628 0.6642 0.6651 0.6660 0.6668
2856.000000 0.6678 0.6687 0.6696 0.6705 0.6714
2851.000000 0.6717 0.6721 0.6724 0.6728 0.6731
2846.000000 0.6734 0.6736 0.6738 0.6740 0.6740
2841.000000 0.6741 0.6741 0.6740 0.6740 0.6736
2836.000000 0.6733 0.6715 0.6698 0.6681 0.6664
2831.000000 0.6642 0.6621 0.6599 0.6576 0.6554
2826.000000 0.6532 0.6508 0.6487 0.6465 0.6443
2821.000000 0.6419 0.6398 0.6372 0.6347 0.6312
2816.000000 0.6280 0.6279 0.6279 0.6279 0.6279
2811.000000 0.6277 0.6195 0.6273 0.6273 0.6273
2806.000000 0.6275 0.6287 0.6299 0.6325 0.6351
2801.000000 0.6377 0.6404 0.6430 0.6456 0.6471
2796.000000 0.6488 0.6504 0.6521 0.6537 0.6554
2791.000000 0.6569 0.6587 0.6603 0.6619 0.6641
2786.000000 0.6662 0.6698 0.6734 0.6765 0.6798
2781.000000 0.6811 0.6826 0.6842 0.6857 0.6871
2776.000000 0.6886 0.6900 0.6915 0.6930 0.6945
2771.000000 0.6960 0.6975 0.6990 0.7006 0.7021
2766.000000 0.7036 0.7049 0.7062 0.7069 0.7078
2761.000000 0.7085 0.7093 0.7095 0.7097 0.7097
2756.000000 0.7098 0.7098 0.7099 0.7099 0.7100
2751.000000 0.7100 0.7101 0.7101 0.7101 0.7103
2746.000000 0.7104 0.7104 0.7105 0.7105 0.7106
2741.000000 0.7114 0.7121 0.7134 0.7146 0.7158
2736.000000 0.7169 0.7182 0.7194 0.7205 0.7217
2731.000000 0.7228 0.7241 0.7253 0.7265 0.7275
2726.000000 0.7288 0.7300 0.7311 0.7324 0.7336
2721.000000 0.7345 0.7355 0.7362 0.7371 0.7380
2716.000000 0.7389 0.7397 0.7406 0.7414 0.7422
2711.000000 0.7431 0.7439 0.7447 0.7456 0.7464
2706.000000 0.7472 0.7481 0.7490 0.7498 0.7507
2701.000000 0.7515 0.7524 0.7532 0.7541 0.7549
2696.000000 0.7558 0.7565 0.7575 0.7581 0.7588
2691.000000 0.7592 0.7597 0.7601 0.7607 0.7611
2686.000000 0.7615 0.7619 0.7625 0.7628 0.7634
2681.000000 0.7639 0.7644 0.7648 0.7653 0.7657
2676.000000 0.7661 0.7665 0.7671 0.7675 0.7681
2671.000000 0.7685 0.7690 0.7694 0.7699 0.7703
2666.000000 0.7708 0.7712 0.7718 0.7721 0.7725
2661.000000 0.7728 0.7733 0.7736 0.7740 0.7744
2656.000000 0.7748 0.7751 0.7755 0.7758 0.7761
2651.000000 0.7765 0.7768 0.7772 0.7776 0.7780
2646.000000 0.7784 0.7787 0.7791 0.7794 0.7798
2641.000000 0.7801 0.7806 0.7808 0.7812 0.7815
2636.000000 0.7819 0.7822 0.7826 0.7831 0.7835
2631.000000 0.7838 0.7842 0.7845 0.7848 0.7850
2626.000000 0.7853 0.7855 0.7857 0.7858 0.7861
2621.000000 0.7864 0.7865 0.7868 0.7871 0.7872
2616.000000 0.7875 0.7876 0.7880 0.7882 0.7884
2611.000000 0.7886 0.7889 0.7891 0.7893 0.7895
2606.000000 0.7898 0.7900 0.7903 0.7905 0.7907
2601.000000 0.7908 0.7911 0.7914 0.7915 0.7918
2596.000000 0.7921 0.7922 0.7925 0.7926 0.7930
2591.000000 0.7932 0.7934 0.7935 0.7936 0.7937
2586.000000 0.7939 0.7940 0.7941 0.7942 0.7943
2581.000000 0.7944 0.7946 0.7947 0.7948 0.7949
2576.000000 0.7950 0.7951 0.7953 0.7954 0.7955
2571.000000 0.7956 0.7958 0.7958 0.7960 0.7961
2566.000000 0.7961 0.7962 0.7965 0.7965 0.7967
2561.000000 0.7968 0.7968 0.7969 0.7971 0.7972
2556.000000 0.7974 0.7974 0.7975 0.7975 0.7975
2551.000000 0.7975 0.7976 0.7976 0.7978 0.7978
2546.000000 0.7978 0.7978 0.7980 0.7980 0.7981
2541.000000 0.7981 0.7982 0.7983 0.7984 0.7984
2536.000000 0.7985 0.7985 0.7986 0.7986 0.7987
2531.000000 0.7987 0.7988 0.7988 0.7989 0.7989
2526.000000 0.7990 0.7990 0.7990 0.7988 0.7987
2521.000000 0.7985 0.7984 0.7983 0.7982 0.7980
2516.000000 0.7978 0.7976 0.7975 0.7975 0.7974
2511.000000 0.7971 0.7971 0.7969 0.7968 0.7967
2506.000000 0.7965 0.7964 0.7962 0.7961 0.7961
2501.000000 0.7958 0.7958 0.7956 0.7955 0.7953
2496.000000 0.7951 0.7950 0.7949 0.7947 0.7946
2491.000000 0.7944 0.7943 0.7941 0.7940 0.7938
2486.000000 0.7936 0.7936 0.7936 0.7936 0.7936
2481.000000 0.7936 0.7936 0.7936 0.7936 0.7936
2476.000000 0.7936 0.7936 0.7936 0.7936 0.7936
2471.000000 0.7935 0.7935 0.7934 0.7934 0.7933
2466.000000 0.7933 0.7932 0.7932 0.7931 0.7931
2461.000000 0.7930 0.7930 0.7928 0.7928 0.7925
2456.000000 0.7924 0.7918 0.7912 0.7908 0.7903
2451.000000 0.7900 0.7897 0.7894 0.7892 0.7889
2446.000000 0.7887 0.7884 0.7882 0.7878 0.7876
2441.000000 0.7874 0.7871 0.7869 0.7868 0.7868
2436.000000 0.7869 0.7871 0.7875 0.7878 0.7881
2431.000000 0.7883 0.7886 0.7889 0.7892 0.7893
2426.000000 0.7894 0.7895 0.7897 0.7898 0.7900
2421.000000 0.7901 0.7903 0.7904 0.7905 0.7907
2416.000000 0.7910 0.7911 0.7915 0.7918 0.7921
2411.000000 0.7922 0.7925 0.7928 0.7932 0.7934
2406.000000 0.7937 0.7939 0.7942 0.7945 0.7948
2401.000000 0.7950 0.7951 0.7954 0.7956 0.7957
2396.000000 0.7958 0.7961 0.7962 0.7965 0.7968
2391.000000 0.7971 0.7974 0.7976 0.7980 0.7983
2386.000000 0.7986 0.7993 0.8000 0.8007 0.8014
2381.000000 0.8021 0.8028 0.8040 0.8051 0.8065
2376.000000 0.8078 0.8088 0.8099 0.8097 0.8096
2371.000000 0.8095 0.8094 0.8092 0.8065 0.8084
2366.000000 0.8078 0.8071 0.8065 0.8058 0.8051
2361.000000 0.8047 0.8042 0.8039 0.8037 0.8034
2356.000000 0.8031 0.8028 0.8025 0.8021 0.8019
2351.000000 0.8017 0.8014 0.8011 0.8008 0.8005
2346.000000 0.8001 0.7997 0.7993 0.7989 0.7985
2341.000000 0.7981 0.7976 0.7972 0.7968 0.7965
2336.000000 0.7961 0.7958 0.7954 0.7949 0.7945
2331.000000 0.7941 0.7937 0.7933 0.7928 0.7925
2326.000000 0.7921 0.7917 0.7914 0.7910 0.7907
2321.000000 0.7903 0.7900 0.7896 0.7893 0.7889
2316.000000 0.7886 0.7882 0.7878 0.7875 0.7871
2311.000000 0.7868 0.7865 0.7861 0.7858 0.7855
2306.000000 0.7851 0.7848 0.7845 0.7844 0.7844
2301.000000 0.7845 0.7846 0.7846 0.7847 0.7847
2296.000000 0.7847 0.7848 0.7849 0.7850 0.7851
2291.000000 0.7851 0.7851 0.7851 0.7853 0.7854
2286.000000 0.7856 0.7860 0.7865 0.7868 0.7874
2281.000000 0.7878 0.7883 0.7887 0.7892 0.7897
2276.000000 0.7901 0.7906 0.7911 0.7915 0.7919
2271.000000 0.7925 0.7933 0.7939 0.7946 0.7951
2266.000000 0.7958 0.7965 0.7971 0.7976 0.7984
2261.000000 0.7990 0.7997 0.8003 0.8010 0.8015
2256.000000 0.8021 0.8028 0.8035 0.8041 0.8047
2251.000000 0.8051 0.8058 0.8062 0.8068 0.8074
2246.000000 0.8080 0.8085 0.8091 0.8097 0.8103
2241.000000 0.8108 0.8114 0.8118 0.8125 0.8130
2236.000000 0.8136 0.8141 0.8147 0.8151 0.8158
2231.000000 0.8162 0.8168 0.8174 0.8180 0.8185
2226.000000 0.8191 0.8196 0.8201 0.8205 0.8210
2221.000000 0.8214 0.8218 0.8221 0.8225 0.8230
2216.000000 0.8234 0.8238 0.8243 0.8247 0.8251
2211.000000 0.8255 0.8259 0.8263 0.8267 0.8271
2206.000000 0.8275 0.8278 0.8282 0.8283 0.8285
2201.000000 0.8287 0.8289 0.8290 0.8306 0.8294
2196.000000 0.8296 0.8298 0.8300 0.8301 0.8303
2191.000000 0.8305 0.8307 0.8308 0.8310 0.8311
2186.000000 0.8313 0.8314 0.8315 0.8315 0.8316
2181.000000 0.8317 0.8318 0.8318 0.8318 0.8320
2176.000000 0.8321 0.8321 0.8321 0.8323 0.8324
2171.000000 0.8324 0.8324 0.8324 0.8325 0.8325
2166.000000 0.8325 0.8325 0.8325 0.8325 0.8327
2161.000000 0.8327 0.8327 0.8331 0.8335 0.8339
2156.000000 0.8343 0.8347 0.8352 0.8356 0.8361
2151.000000 0.8365 0.8368 0.8373 0.8378 0.8382
2146.000000 0.8387 0.8391 0.8396 0.8400 0.8405
2141.000000 0.8409 0.8413 0.8417 0.8421 0.8425
2136.000000 0.8431 0.8435 0.8439 0.8443 0.8447
2131.000000 0.8451 0.8455 0.8458 0.8462 0.8466
2126.000000 0.8470 0.8474 0.8478 0.8482 0.8486
2121.000000 0.8489 0.8493 0.8497 0.8501 0.8505
2116.000000 0.8509 0.8513 0.8517 0.8520 0.8524
2111.000000 0.8528 0.8532 0.8535 0.8539 0.8542
2106.000000 0.8545 0.8548 0.8551 0.8553 0.8556
2101.000000 0.8559 0.8562 0.8565 0.8568 0.8571
2096.000000 0.8574 0.8577 0.8580 0.8583 0.8586
2091.000000 0.8589 0.8592 0.8595 0.8598 0.8601
2086.000000 0.8605 0.8608 0.8611 0.8614 0.8617
2081.000000 0.8620 0.8623 0.8625 0.8630 0.8633
2076.000000 0.8636 0.8638 0.8640 0.8642 0.8644
2071.000000 0.8646 0.8648 0.8650 0.8652 0.8654
2066.000000 0.8656 0.8658 0.8660 0.8662 0.8664
2061.000000 0.8666 0.8668 0.8670 0.8671 0.8674
2056.000000 0.8675 0.8678 0.8680 0.8681 0.8682
2051.000000 0.8683 0.8685 0.8686 0.8687 0.8688
2046.000000 0.8690 0.8691 0.8692 0.8693 0.8695
2041.000000 0.8696 0.8697 0.8698 0.8699 0.8699
2036.000000 0.8700 0.8700 0.8701 0.8701 0.8702
2031.000000 0.8702 0.8703 0.8704 0.8705 0.8705
2026.000000 0.8706 0.8707 0.8709 0.8710 0.8712
2021.000000 0.8713 0.8715 0.8716 0.8718 0.8718
2016.000000 0.8718 0.8713 0.8708 0.8703 0.8699
2011.000000 0.8693 0.8688 0.8678 0.8668 0.8657
2006.000000 0.8646 0.8625 0.8604 0.8582 0.8561
2001.000000 0.8516 0.8471 0.8421 0.8368 0.8399
1996.000000 0.8478 0.8581 0.8623 0.8664 0.8685
1991.000000 0.8698 0.8710 0.8717 0.8718 0.8720
1986.000000 0.8721 0.8723 0.8725 0.8728 0.8733
1981.000000 0.8736 0.8739 0.8743 0.8746 0.8749
1976.000000 0.8752 0.8756 0.8759 0.8762 0.8765
1971.000000 0.8766 0.8768 0.8770 0.8771 0.8774
1966.000000 0.8775 0.8777 0.8778 0.8781 0.8783
1961.000000 0.8785 0.8786 0.8786 0.8786 0.8783
1956.000000 0.8781 0.8778 0.8775 0.8774 0.8771
1951.000000 0.8771 0.8771 0.8771 0.8771 0.8771
1946.000000 0.8771 0.8773 0.8773 0.8774 0.8774
1941.000000 0.8775 0.8775 0.8775 0.8775 0.8775
1936.000000 0.8777 0.8777 0.8778 0.8782 0.8784
1931.000000 0.8786 0.8789 0.8791 0.8793 0.8795
1926.000000 0.8798 0.8799 0.8799 0.8799 0.8800
1921.000000 0.8800 0.8800 0.8800 0.8800 0.8800
1916.000000 0.8801 0.8801 0.8801 0.8801 0.8801
1911.000000 0.8802 0.8802 0.8802 0.8801 0.8797
1906.000000 0.8793 0.8790 0.8786 0.8782 0.8778
1901.000000 0.8775 0.8773 0.8770 0.8767 0.8765
1896.000000 0.8762 0.8759 0.8756 0.8753 0.8750
1891.000000 0.8746 0.8741 0.8735 0.8728 0.8724
1886.000000 0.8718 0.8713 0.8707 0.8703 0.8701
1881.000000 0.8699 0.8698 0.8696 0.8694 0.8693
1876.000000 0.8692 0.8692 0.8692 0.8692 0.8692
1871.000000 0.8692 0.8692 0.8692 0.8692 0.8692
1866.000000 0.8692 0.8692 0.8692 0.8692 0.8691
1861.000000 0.8689 0.8687 0.8685 0.8684 0.8682
1856.000000 0.8680 0.8678 0.8677 0.8677 0.8675
1851.000000 0.8675 0.8675 0.8675 0.8675 0.8674
1846.000000 0.8674 0.8671 0.8667 0.8662 0.8656
1841.000000 0.8651 0.8646 0.8641 0.8630 0.8620
1836.000000 0.8610 0.8600 0.8590 0.8578 0.8568
1831.000000 0.8560 0.8557 0.8554 0.8550 0.8547
1826.000000 0.8544 0.8541 0.8538 0.8535 0.8532
1821.000000 0.8528 0.8525 0.8521 0.8518 0.8512
1816.000000 0.8506 0.8500 0.8494 0.8488 0.8482
1811.000000 0.8475 0.8468 0.8460 0.8452 0.8443
1806.000000 0.8435 0.8425 0.8418 0.8409 0.8401
1801.000000 0.8392 0.8380 0.8368 0.8356 0.8344
1796.000000 0.8332 0.8320 0.8307 0.8295 0.8283
1791.000000 0.8271 0.8259 0.8247 0.8227 0.8207
