##TITLE=Alpha-CHLORO ACETAMIDE
$$ E.K. (W.L.)
##JCAMP-DX=4.24
##DATA TYPE=INFRARED SPECTRUM
##CLASS=COBLENTZ
##ORIGIN=WYANDOTTE CHEMICALS CORP., WYANDOTTE, MICHIGAN, USA
##OWNER=COBLENTZ SOCIETY
Collection (C) 2018 copyright by the U.S. Secretary of Commerce
on behalf of the United States of America. All rights reserved.
##DATE=Not specified, most likely prior to 1970
##NAMES=2-chloroacetamide
##CAS REGISTRY NO=79-07-2
##MOLFORM=C2 H4 Cl N O
##MP=118-120 C
##SOURCE REFERENCE=COBLENTZ NO. 287
##$NIST SOURCE=COBLENTZ
##$NIST IMAGE=cob287
##SPECTROMETER/DATA SYSTEM=Not specified, most likely a prism, grating, or hybrid spectrometer.
##STATE=SOLID (MULL)
##SAMPLING PROCEDURE=TRANSMISSION
##RESOLUTION=4
##DATA PROCESSING=DIGITIZED BY NIST FROM HARD COPY
##XUNITS=MICROMETERS
##YUNITS=TRANSMITTANCE
##XFACTOR=1.000000
##YFACTOR=1
##DELTAX=000.006667
##FIRSTX=2.027
##LASTX=15.9933
##FIRSTY=0.58
##MAXX=15.9933
##MINX=2.027
##MAXY=0.956
##MINY=0.029
##NPOINTS=2096
##XYDATA=(X++(Y..Y))
2.027000 0.5800 0.5800 0.5840 0.5870 0.5940
2.060349 0.6030 0.6070 0.6080 0.6080 0.6080
2.093000 0.6100 0.6120 0.6120 0.6130 0.6130
2.126349 0.6130 0.6070 0.6030 0.5990 0.5920
2.160000 0.5890 0.5870 0.5870 0.5850 0.5850
2.193349 0.5820 0.5800 0.5750 0.5750 0.5770
2.227000 0.5770 0.5790 0.5820 0.5840 0.5840
2.260349 0.5840 0.5850 0.5900 0.5940 0.5990
2.293000 0.5990 0.6020 0.6020 0.6030 0.6080
2.326349 0.6100 0.6120 0.6150 0.6150 0.6130
2.360000 0.6150 0.6170 0.6180 0.6220 0.6230
2.393349 0.6250 0.6270 0.6330 0.6330 0.6350
2.427000 0.6380 0.6420 0.6400 0.6380 0.6400
2.460349 0.6400 0.6420 0.6500 0.6520 0.6530
2.493000 0.6580 0.6620 0.6620 0.6620 0.6630
2.526349 0.6650 0.6670 0.6700 0.6720 0.6730
2.560000 0.6730 0.6770 0.6800 0.6820 0.6830
2.593349 0.6850 0.6850 0.6880 0.6920 0.6980
2.627000 0.7030 0.7100 0.7120 0.7150 0.7150
2.660349 0.7150 0.7150 0.7180 0.7200 0.7230
2.693000 0.7250 0.7270 0.7280 0.7300 0.7320
2.726349 0.7350 0.7450 0.7520 0.7580 0.7630
2.760000 0.7670 0.7700 0.7730 0.7800 0.7820
2.793349 0.7850 0.7900 0.7980 0.8000 0.8000
2.827000 0.8000 0.8000 0.7980 0.7980 0.7970
2.860349 0.7870 0.7800 0.7580 0.7250 0.6870
2.893000 0.6630 0.6300 0.6080 0.5870 0.5100
2.926349 0.4390 0.3910 0.3410 0.2420 0.2140
2.960000 0.1860 0.1010 0.0840 0.0840 0.1080
2.993349 0.1390 0.1640 0.1860 0.2290 0.2510
3.027000 0.2710 0.2540 0.2540 0.2540 0.2590
3.060349 0.2640 0.2670 0.2710 0.2690 0.2590
3.093000 0.2470 0.2220 0.2110 0.1990 0.1810
3.126349 0.1530 0.1330 0.1230 0.1230 0.1260
3.160000 0.1330 0.1410 0.1610 0.1730 0.1810
3.193349 0.1890 0.2260 0.2440 0.2510 0.2610
3.227000 0.2720 0.2770 0.2820 0.2840 0.2860
3.260349 0.2910 0.2920 0.2890 0.2810 0.2670
3.293000 0.2520 0.2410 0.2090 0.2010 0.1930
3.326349 0.1430 0.0910 0.0580 0.0340 0.0340
3.360000 0.0330 0.0310 0.0290 0.0290 0.0290
3.393349 0.0310 0.0330 0.0330 0.0340 0.0340
3.427000 0.0340 0.0340 0.0340 0.0340 0.0340
3.460349 0.0360 0.0340 0.0340 0.0360 0.0410
3.493000 0.0460 0.0540 0.0710 0.0960 0.1340
3.526349 0.1880 0.2910 0.3360 0.3810 0.4190
3.560000 0.4420 0.4550 0.4620 0.4650 0.4670
3.593349 0.4670 0.4690 0.4690 0.4720 0.4800
3.627000 0.4950 0.5040 0.5150 0.5240 0.5340
3.660349 0.5350 0.5400 0.5420 0.5470 0.5520
3.693000 0.5620 0.5700 0.5750 0.5790 0.5800
3.726349 0.5820 0.5870 0.5900 0.5920 0.5940
3.760000 0.5970 0.6120 0.6170 0.6180 0.6200
3.793349 0.6220 0.6250 0.6270 0.6300 0.6330
3.827000 0.6350 0.6370 0.6380 0.6400 0.6400
3.860349 0.6420 0.6450 0.6480 0.6520 0.6530
3.893000 0.6550 0.6570 0.6570 0.6600 0.6620
3.926349 0.6670 0.6700 0.6730 0.6730 0.6730
3.960000 0.6750 0.6780 0.6780 0.6800 0.6850
3.993349 0.6850 0.6900 0.6950 0.6970 0.6980
4.027000 0.7020 0.7070 0.7080 0.7100 0.7100
4.060349 0.7120 0.7120 0.7130 0.7130 0.7150
4.093000 0.7150 0.7170 0.7170 0.7180 0.7200
4.126349 0.7200 0.7220 0.7220 0.7220 0.7250
4.160000 0.7270 0.7320 0.7330 0.7330 0.7330
4.193349 0.7350 0.7370 0.7420 0.7420 0.7380
4.227000 0.7370 0.7350 0.7330 0.7320 0.7320
4.260349 0.7320 0.7320 0.7320 0.7320 0.7320
4.293000 0.7350 0.7350 0.7370 0.7370 0.7400
4.326349 0.7470 0.7500 0.7520 0.7520 0.7520
4.360000 0.7530 0.7570 0.7600 0.7650 0.7670
4.393349 0.7780 0.7800 0.7780 0.7750 0.7720
4.427000 0.7700 0.7680 0.7680 0.7680 0.7700
4.460349 0.7700 0.7720 0.7750 0.7770 0.7770
4.493000 0.7780 0.7800 0.7830 0.7850 0.7880
4.526349 0.7920 0.7980 0.8030 0.8050 0.8050
4.560000 0.8050 0.8050 0.8030 0.8010 0.8010
4.593349 0.8000 0.8000 0.8000 0.7980 0.8000
4.627000 0.8010 0.8030 0.8080 0.8130 0.8200
4.660349 0.8250 0.8280 0.8280 0.8280 0.8280
4.693000 0.8310 0.8310 0.8350 0.8410 0.8450
4.726349 0.8510 0.8510 0.8530 0.8530 0.8550
4.760000 0.8550 0.8560 0.8580 0.8600 0.8610
4.793349 0.8610 0.8630 0.8650 0.8660 0.8700
4.827000 0.8730 0.8750 0.8780 0.8810 0.8810
4.860349 0.8810 0.8830 0.8830 0.8850 0.8880
4.893000 0.8900 0.8910 0.8910 0.8910 0.8910
4.926349 0.8910 0.8910 0.8910 0.8910 0.8910
4.960000 0.8910 0.8880 0.8880 0.8900 0.8930
4.993349 0.8950 0.8980 0.8980 0.9000 0.8980
5.027000 0.9050 0.9050 0.9000 0.8900 0.8810
5.060349 0.8800 0.8810 0.8850 0.8880 0.8980
5.093000 0.9010 0.9030 0.9010 0.9010 0.9010
5.126349 0.9130 0.9150 0.9160 0.9200 0.9210
5.160000 0.9260 0.9260 0.9280 0.9300 0.9300
5.193349 0.9300 0.9310 0.9310 0.9330 0.9350
5.227000 0.9350 0.9350 0.9360 0.9360 0.9380
5.260349 0.9400 0.9450 0.9500 0.9510 0.9550
5.293000 0.9560 0.9560 0.9560 0.9560 0.9550
5.326349 0.9560 0.9550 0.9530 0.9550 0.9530
5.360000 0.9500 0.9430 0.9410 0.9400 0.9380
5.393349 0.9360 0.9330 0.9310 0.9300 0.9260
5.427000 0.9260 0.9250 0.9250 0.9250 0.9230
5.460349 0.9210 0.9200 0.9100 0.9030 0.9030
5.493000 0.9010 0.8980 0.8960 0.8850 0.8780
5.526349 0.8730 0.8700 0.8610 0.8550 0.8460
5.560000 0.8430 0.8360 0.8210 0.8130 0.8060
5.593349 0.7980 0.7820 0.7630 0.7470 0.7280
5.627000 0.7200 0.6950 0.6770 0.6770 0.6800
5.660349 0.6920 0.6920 0.6930 0.6920 0.6870
5.693000 0.6750 0.6630 0.6520 0.6430 0.6320
5.726349 0.6200 0.6030 0.5970 0.5900 0.5750
5.760000 0.5470 0.5100 0.4770 0.4490 0.4470
5.793349 0.4400 0.4190 0.4000 0.3940 0.3870
5.827000 0.3760 0.3690 0.3640 0.3560 0.3520
5.860349 0.3510 0.3490 0.3420 0.3210 0.3040
5.893000 0.2970 0.2870 0.2790 0.2710 0.2520
5.926349 0.2320 0.2110 0.1990 0.1880 0.1660
5.960000 0.1460 0.1280 0.1090 0.0960 0.0860
5.993349 0.0790 0.0780 0.0760 0.0760 0.0760
6.027000 0.0730 0.0690 0.0690 0.0630 0.0510
6.060349 0.0510 0.0530 0.0630 0.0710 0.0810
6.093000 0.0890 0.0910 0.0890 0.0880 0.0830
6.126349 0.0780 0.0730 0.0730 0.0780 0.0810
6.160000 0.0840 0.0930 0.1030 0.1110 0.1230
6.193349 0.1330 0.1440 0.1560 0.1690 0.1830
6.227000 0.1960 0.2210 0.2270 0.2370 0.2460
6.260349 0.2510 0.2610 0.2720 0.2770 0.2810
6.293000 0.2870 0.2960 0.3010 0.3020 0.3110
6.326349 0.3190 0.3240 0.3290 0.3310 0.3340
6.360000 0.3370 0.3420 0.3470 0.3560 0.3640
6.393349 0.3670 0.3710 0.3740 0.3790 0.3810
6.427000 0.3820 0.3870 0.3920 0.3990 0.4050
6.460349 0.4090 0.4090 0.4100 0.4140 0.4150
6.493000 0.4150 0.4220 0.4250 0.4300 0.4340
6.526349 0.4350 0.4370 0.4390 0.4400 0.4440
6.560000 0.4500 0.4540 0.4540 0.4490 0.4450
6.593349 0.4450 0.4440 0.4420 0.4390 0.4370
6.627000 0.4350 0.4350 0.4340 0.4320 0.4290
6.660349 0.4220 0.4140 0.4070 0.4020 0.3970
6.693000 0.3870 0.3740 0.3610 0.3460 0.3340
6.726349 0.3170 0.2970 0.2710 0.2370 0.2170
6.760000 0.1960 0.1130 0.0980 0.0790 0.0710
6.793349 0.0660 0.0640 0.0680 0.0730 0.0760
6.827000 0.0790 0.0810 0.0830 0.0860 0.0890
6.860349 0.0940 0.0990 0.1060 0.1140 0.1190
6.893000 0.1210 0.1310 0.1330 0.1390 0.1410
6.926349 0.1430 0.1430 0.1430 0.1440 0.1440
6.960000 0.1440 0.1440 0.1460 0.1590 0.1690
6.993349 0.1780 0.1860 0.1980 0.2170 0.2290
7.027000 0.2320 0.2290 0.2070 0.1980 0.1860
7.060349 0.1590 0.1430 0.1290 0.1190 0.1140
7.093000 0.1030 0.1010 0.1010 0.1090 0.1210
7.126349 0.1290 0.1430 0.1730 0.1880 0.2070
7.160000 0.2210 0.2240 0.2240 0.2140 0.2010
7.193349 0.1930 0.1840 0.1680 0.1510 0.1390
7.227000 0.1290 0.1230 0.1160 0.1130 0.1180
7.260349 0.1390 0.1560 0.1810 0.2170 0.2260
7.293000 0.2270 0.2410 0.2510 0.2610 0.2860
7.326349 0.3110 0.3290 0.3410 0.3520 0.3590
7.360000 0.3640 0.3710 0.3770 0.3810 0.3820
7.393349 0.3870 0.3890 0.3920 0.3970 0.4020
7.427000 0.4050 0.4070 0.4120 0.4170 0.4200
7.460349 0.4220 0.4250 0.4250 0.4220 0.4220
7.493000 0.4200 0.4150 0.4090 0.4090 0.4100
7.526349 0.4120 0.4120 0.4140 0.4140 0.4100
7.560000 0.4090 0.4040 0.3990 0.3920 0.3840
7.593349 0.3810 0.3810 0.3820 0.3840 0.3860
7.627000 0.3860 0.3890 0.3910 0.3910 0.3910
7.660349 0.3890 0.3890 0.3990 0.4100 0.4140
7.693000 0.4140 0.4190 0.4240 0.4270 0.4320
7.726349 0.4400 0.4420 0.4490 0.4520 0.4590
7.760000 0.4640 0.4700 0.4770 0.4850 0.4940
7.793349 0.5040 0.5100 0.5140 0.5190 0.5250
7.827000 0.5250 0.5190 0.4990 0.4620 0.4170
7.860349 0.3710 0.2840 0.2110 0.1690 0.1280
7.893000 0.1190 0.1190 0.1260 0.1540 0.1690
7.926349 0.1960 0.2590 0.2820 0.3040 0.3260
7.960000 0.3440 0.3590 0.3740 0.3840 0.3920
7.993349 0.4100 0.4190 0.4250 0.4340 0.4420
8.027000 0.4490 0.4500 0.4540 0.4600 0.4620
8.060349 0.4650 0.4700 0.4720 0.4750 0.4820
8.093000 0.4850 0.4890 0.4920 0.4920 0.4920
8.126349 0.4940 0.4950 0.4990 0.5000 0.5000
8.160000 0.5020 0.5040 0.5040 0.5040 0.5050
8.193349 0.5050 0.5050 0.5050 0.5050 0.5050
8.227000 0.5070 0.5090 0.5090 0.5100 0.5120
8.260349 0.5190 0.5200 0.5220 0.5220 0.5220
8.293000 0.5220 0.5240 0.5290 0.5300 0.5320
8.326349 0.5390 0.5420 0.5440 0.5490 0.5500
8.360000 0.5550 0.5590 0.5600 0.5620 0.5620
8.393349 0.5640 0.5670 0.5670 0.5670 0.5500
8.427000 0.5470 0.5270 0.4970 0.4750 0.4420
8.460349 0.4170 0.3920 0.3410 0.3210 0.3220
8.493000 0.3290 0.3560 0.3770 0.3960 0.4300
8.526349 0.4470 0.4590 0.4640 0.4690 0.4790
8.560000 0.4920 0.4970 0.4990 0.5000 0.5040
8.593349 0.5090 0.5120 0.5140 0.5140 0.5190
8.627000 0.5220 0.5270 0.5340 0.5390 0.5390
8.660349 0.5400 0.5520 0.5550 0.5600 0.5640
8.693000 0.5690 0.5740 0.5800 0.5870 0.5940
8.726349 0.6050 0.6100 0.6120 0.6150 0.6220
8.760000 0.6270 0.6300 0.6370 0.6400 0.6400
8.793349 0.6400 0.6400 0.6400 0.6400 0.6400
8.827000 0.6400 0.6400 0.6400 0.6350 0.6320
8.860349 0.6300 0.6280 0.6250 0.6220 0.6180
8.893000 0.6170 0.6130 0.6070 0.6020 0.5990
8.926349 0.5940 0.5840 0.5720 0.5600 0.5450
8.960000 0.5290 0.5120 0.4920 0.4690 0.4220
8.993349 0.4050 0.3870 0.3470 0.3020 0.2760
9.027000 0.2590 0.2210 0.2060 0.1910 0.1830
9.060349 0.1810 0.1810 0.1910 0.2310 0.2510
9.093000 0.2640 0.2760 0.2910 0.3090 0.3220
9.126349 0.3310 0.3410 0.3520 0.3590 0.3740
9.160000 0.3890 0.3970 0.4120 0.4140 0.4240
9.193349 0.4300 0.4400 0.4490 0.4490 0.4520
9.227000 0.4550 0.4590 0.4620 0.4650 0.4690
9.260349 0.4740 0.4790 0.4800 0.4840 0.4870
9.293000 0.4870 0.4890 0.4900 0.4900 0.4920
9.326349 0.4920 0.4920 0.4920 0.4950 0.4970
9.360000 0.4990 0.5000 0.5020 0.5040 0.5050
9.393349 0.5100 0.5140 0.5190 0.5220 0.5300
9.427000 0.5350 0.5370 0.5370 0.5390 0.5400
9.460349 0.5440 0.5470 0.5500 0.5500 0.5520
9.493000 0.5540 0.5540 0.5550 0.5550 0.5570
9.526349 0.5590 0.5590 0.5600 0.5600 0.5620
9.560000 0.5640 0.5640 0.5650 0.5650 0.5670
9.593349 0.5670 0.5670 0.5690 0.5690 0.5700
9.627000 0.5700 0.5700 0.5720 0.5740 0.5740
9.660349 0.5750 0.5750 0.5750 0.5750 0.5750
9.693000 0.5770 0.5790 0.5850 0.5870 0.5870
9.726349 0.5890 0.5890 0.5900 0.5900 0.5900
9.760000 0.5920 0.5920 0.5920 0.5920 0.5940
9.793349 0.5940 0.5950 0.5970 0.6030 0.6030
9.827000 0.6050 0.6050 0.6070 0.6070 0.6080
9.860349 0.6080 0.6100 0.6100 0.6100 0.6120
9.893000 0.6130 0.6130 0.6120 0.6120 0.6120
9.926349 0.6120 0.6130 0.6150 0.6150 0.6170
9.960000 0.6170 0.6170 0.6170 0.6180 0.6200
9.993349 0.6200 0.6200 0.6230 0.6230 0.6250
10.027000 0.6250 0.6250 0.6270 0.6270 0.6270
10.060349 0.6280 0.6280 0.6280 0.6280 0.6280
10.093000 0.6280 0.6280 0.6280 0.6280 0.6270
10.126349 0.6270 0.6250 0.6250 0.6230 0.6230
10.160000 0.6220 0.6220 0.6200 0.6200 0.6180
10.193349 0.6170 0.6150 0.6150 0.6130 0.6120
10.227000 0.6100 0.6080 0.6080 0.6080 0.6080
10.260349 0.6080 0.6100 0.6100 0.6080 0.6100
10.293000 0.6120 0.6120 0.6150 0.6150 0.6150
10.326349 0.6150 0.6170 0.6180 0.6180 0.6200
10.360000 0.6200 0.6180 0.6170 0.6150 0.6150
10.393349 0.6130 0.6130 0.6150 0.6150 0.6150
10.427000 0.6170 0.6180 0.6200 0.6220 0.6230
10.460349 0.6230 0.6230 0.6250 0.6250 0.6220
10.493000 0.6220 0.6220 0.6220 0.6220 0.6230
10.526349 0.6270 0.6280 0.6300 0.6300 0.6300
10.560000 0.6280 0.6280 0.6300 0.6300 0.6320
10.593349 0.6320 0.6320 0.6320 0.6320 0.6330
10.627000 0.6330 0.6320 0.6320 0.6300 0.6270
10.660349 0.6250 0.6230 0.6220 0.6200 0.6180
10.693000 0.6170 0.6100 0.6020 0.6000 0.5990
10.726349 0.5900 0.5750 0.5650 0.5550 0.5490
10.760000 0.5440 0.5440 0.5420 0.5470 0.5650
10.793349 0.5790 0.5920 0.6100 0.6120 0.6130
10.827000 0.6170 0.6230 0.6280 0.6330 0.6380
10.860349 0.6430 0.6430 0.6430 0.6430 0.6450
10.893000 0.6470 0.6470 0.6480 0.6480 0.6500
10.926349 0.6500 0.6500 0.6530 0.6530 0.6550
10.960000 0.6550 0.6570 0.6580 0.6580 0.6600
10.993349 0.6600 0.6600 0.6620 0.6620 0.6620
11.027000 0.6630 0.6630 0.6630 0.6650 0.6650
11.060349 0.6650 0.6650 0.6650 0.6650 0.6650
11.093000 0.6650 0.6630 0.6630 0.6600 0.6580
11.126349 0.6570 0.6550 0.6530 0.6480 0.6470
11.160000 0.6470 0.6430 0.6420 0.6380 0.6330
11.193349 0.6280 0.6230 0.6220 0.6180 0.6150
11.227000 0.6120 0.6120 0.6150 0.6230 0.6280
11.260349 0.6380 0.6430 0.6480 0.6570 0.6600
11.293000 0.6620 0.6650 0.6700 0.6720 0.6730
11.326349 0.6750 0.6770 0.6780 0.6800 0.6820
11.360000 0.6820 0.6830 0.6850 0.6850 0.6850
11.393349 0.6870 0.6880 0.6880 0.6880 0.6880
11.427000 0.6880 0.6880 0.6850 0.6830 0.6820
11.460349 0.6800 0.6800 0.6830 0.6830 0.6830
11.493000 0.6830 0.6830 0.6800 0.6800 0.6800
11.526349 0.6800 0.6800 0.6800 0.6780 0.6780
11.560000 0.6770 0.6750 0.6750 0.6750 0.6730
11.593349 0.6700 0.6670 0.6630 0.6620 0.6620
11.627000 0.6620 0.6630 0.6630 0.6650 0.6650
11.660349 0.6670 0.6670 0.6670 0.6670 0.6670
11.693000 0.6670 0.6670 0.6670 0.6670 0.6670
11.726349 0.6670 0.6670 0.6670 0.6670 0.6650
11.760000 0.6650 0.6650 0.6650 0.6630 0.6630
11.793349 0.6630 0.6630 0.6630 0.6630 0.6620
11.827000 0.6620 0.6570 0.6570 0.6570 0.6570
11.860349 0.6570 0.6570 0.6570 0.6570 0.6570
11.893000 0.6570 0.6570 0.6580 0.6570 0.6570
11.926349 0.6570 0.6550 0.6530 0.6530 0.6530
11.960000 0.6530 0.6520 0.6520 0.6500 0.6500
11.993349 0.6470 0.6430 0.6420 0.6420 0.6370
12.027000 0.6350 0.6350 0.6330 0.6320 0.6320
12.060349 0.6280 0.6250 0.6230 0.6180 0.6180
12.093000 0.6150 0.6130 0.6120 0.6080 0.6030
12.126349 0.6000 0.6000 0.5990 0.5990 0.5920
12.160000 0.5890 0.5820 0.5800 0.5750 0.5690
12.193349 0.5620 0.5520 0.5490 0.5450 0.5400
12.227000 0.5300 0.5220 0.5190 0.5150 0.5090
12.260349 0.5000 0.4970 0.4920 0.4850 0.4820
12.293000 0.4700 0.4640 0.4600 0.4590 0.4570
12.326349 0.4520 0.4490 0.4420 0.4400 0.4400
12.360000 0.4400 0.4400 0.4400 0.4420 0.4420
12.393349 0.4450 0.4500 0.4540 0.4570 0.4600
12.427000 0.4600 0.4790 0.4840 0.4890 0.4900
12.460349 0.4970 0.5020 0.5100 0.5140 0.5190
12.493000 0.5250 0.5300 0.5340 0.5390 0.5440
12.526349 0.5500 0.5540 0.5600 0.5620 0.5670
12.560000 0.5690 0.5690 0.5720 0.5750 0.5790
12.593349 0.5840 0.5900 0.5920 0.5950 0.5970
12.627000 0.5970 0.6020 0.6030 0.6050 0.6070
12.660349 0.6070 0.6070 0.6050 0.6030 0.6020
12.693000 0.5990 0.5950 0.5920 0.5900 0.5890
12.726349 0.5840 0.5750 0.5670 0.5600 0.5520
12.760000 0.5500 0.5400 0.5290 0.5140 0.5000
12.793349 0.4950 0.4800 0.4650 0.4550 0.4340
12.827000 0.4220 0.4090 0.3990 0.3890 0.3640
12.860349 0.3270 0.3220 0.2970 0.2840 0.2620
12.893000 0.2470 0.2090 0.2040 0.1990 0.1760
12.926349 0.1610 0.1360 0.1210 0.1160 0.1080
12.960000 0.1010 0.0890 0.0810 0.0810 0.0790
12.993349 0.0790 0.0780 0.0780 0.0760 0.0780
13.027000 0.0780 0.0790 0.0810 0.0810 0.0830
13.060349 0.0860 0.0910 0.0940 0.0990 0.1040
13.093000 0.1130 0.1190 0.1280 0.1340 0.1430
13.126349 0.1490 0.1580 0.1710 0.1790 0.1790
13.160000 0.1910 0.1990 0.2220 0.2310 0.2390
13.193349 0.2470 0.2540 0.2620 0.2670 0.2740
13.227000 0.2810 0.2910 0.2970 0.2990 0.3010
13.260349 0.3090 0.3110 0.3160 0.3240 0.3290
13.293000 0.3340 0.3340 0.3390 0.3440 0.3470
13.326349 0.3470 0.3490 0.3510 0.3540 0.3560
13.360000 0.3590 0.3640 0.3670 0.3690 0.3720
13.393349 0.3760 0.3790 0.3840 0.3870 0.3920
13.427000 0.3940 0.3940 0.3960 0.3960 0.3990
13.460349 0.4020 0.4040 0.4070 0.4070 0.4090
13.493000 0.4100 0.4120 0.4140 0.4140 0.4150
13.526349 0.4150 0.4170 0.4170 0.4170 0.4190
13.560000 0.4190 0.4190 0.4190 0.4200 0.4200
13.593349 0.4220 0.4220 0.4220 0.4220 0.4220
13.627000 0.4220 0.4240 0.4250 0.4250 0.4290
13.660349 0.4300 0.4300 0.4290 0.4290 0.4290
13.693000 0.4300 0.4350 0.4350 0.4350 0.4350
13.726349 0.4340 0.4320 0.4340 0.4340 0.4340
13.760000 0.4340 0.4320 0.4320 0.4300 0.4300
13.793349 0.4300 0.4320 0.4300 0.4290 0.4250
13.827000 0.4250 0.4250 0.4270 0.4320 0.4340
13.860349 0.4340 0.4290 0.4250 0.4220 0.4200
13.893000 0.4220 0.4240 0.4290 0.4300 0.4320
13.926349 0.4340 0.4370 0.4420 0.4470 0.4490
13.960000 0.4500 0.4520 0.4540 0.4550 0.4570
13.993349 0.4570 0.4570 0.4590 0.4590 0.4600
14.027000 0.4600 0.4620 0.4620 0.4640 0.4650
14.060349 0.4690 0.4690 0.4690 0.4690 0.4700
14.093000 0.4700 0.4700 0.4720 0.4720 0.4720
14.126349 0.4720 0.4720 0.4720 0.4720 0.4720
14.160000 0.4720 0.4720 0.4720 0.4720 0.4720
14.193349 0.4720 0.4720 0.4720 0.4700 0.4700
14.227000 0.4700 0.4700 0.4700 0.4690 0.4690
14.260349 0.4670 0.4650 0.4650 0.4620 0.4600
14.293000 0.4600 0.4590 0.4590 0.4590 0.4590
14.326349 0.4570 0.4570 0.4570 0.4570 0.4550
14.360000 0.4540 0.4520 0.4470 0.4420 0.4420
14.393349 0.4400 0.4390 0.4390 0.4390 0.4390
14.427000 0.4370 0.4350 0.4340 0.4320 0.4300
14.460349 0.4300 0.4290 0.4240 0.4190 0.4170
14.493000 0.4170 0.4170 0.4150 0.4150 0.4120
14.526349 0.4100 0.4070 0.4020 0.4000 0.4000
14.560000 0.3990 0.3970 0.3910 0.3910 0.3890
14.593349 0.3890 0.3870 0.3840 0.3790 0.3740
14.627000 0.3710 0.3690 0.3690 0.3690 0.3710
14.660349 0.3690 0.3690 0.3690 0.3620 0.3590
14.693000 0.3570 0.3540 0.3540 0.3520 0.3520
14.726349 0.3510 0.3490 0.3460 0.3460 0.3440
14.760000 0.3420 0.3410 0.3420 0.3420 0.3390
14.793349 0.3370 0.3370 0.3340 0.3320 0.3310
14.827000 0.3270 0.3270 0.3260 0.3240 0.3240
14.860349 0.3220 0.3170 0.3160 0.3140 0.3140
14.893000 0.3120 0.3120 0.3110 0.3090 0.3070
14.926349 0.3060 0.3040 0.3040 0.3040 0.3040
14.960000 0.3020 0.3020 0.3040 0.3060 0.3060
14.993349 0.3060 0.3090 0.3090 0.3110 0.3110
15.027000 0.3120 0.3140 0.3140 0.3140 0.3140
15.060349 0.3170 0.3170 0.3190 0.3190 0.3190
15.093000 0.3170 0.3110 0.3090 0.3090 0.3070
15.126349 0.3040 0.3040 0.3020 0.2990 0.2920
15.160000 0.2890 0.2870 0.2860 0.2860 0.2860
15.193349 0.2860 0.2840 0.2840 0.2820 0.2820
15.227000 0.2840 0.2840 0.2840 0.2860 0.2890
15.260349 0.2910 0.2920 0.2940 0.2960 0.2970
15.293000 0.2970 0.2970 0.2970 0.2970 0.2990
15.326349 0.2990 0.3010 0.3010 0.3010 0.3010
15.360000 0.3020 0.3040 0.3040 0.3040 0.3070
15.393349 0.3070 0.3070 0.3070 0.3070 0.3090
15.427000 0.3110 0.3140 0.3160 0.3170 0.3190
15.460349 0.3240 0.3240 0.3240 0.3240 0.3270
15.493000 0.3260 0.3270 0.3270 0.3290 0.3310
15.526349 0.3310 0.3320 0.3310 0.3310 0.3310
15.560000 0.3320 0.3360 0.3360 0.3370 0.3410
15.593349 0.3420 0.3470 0.3510 0.3540 0.3560
15.627000 0.3570 0.3590 0.3590 0.3610 0.3640
15.660349 0.3670 0.3670 0.3690 0.3710 0.3720
15.693000 0.3720 0.3740 0.3760 0.3760 0.3770
15.726349 0.3790 0.3790 0.3810 0.3820 0.3860
15.760000 0.3870 0.3910 0.3940 0.3990 0.4040
15.793349 0.4050 0.4070 0.4090 0.4090 0.4100
15.827000 0.4100 0.4120 0.4120 0.4150 0.4190
15.860349 0.4220 0.4240 0.4270 0.4300 0.4320
15.893000 0.4320 0.4320 0.4350 0.4350 0.4350
15.926349 0.4350 0.4350 0.4350 0.4370 0.4390
15.960000 0.4390 0.4400 0.4400 0.4420 0.4400
15.993349 0.4400
##END=
