##TITLE=CHLOROACETIC ACID
##JCAMP-DX=4.24
##DATA TYPE=INFRARED SPECTRUM
##CLASS=COBLENTZ III
##ORIGIN=DOW CORNING CORP.
##OWNER=COBLENTZ SOCIETY
Collection (C) 2018 copyright by the U.S. Secretary of Commerce
on behalf of the United States of America. All rights reserved.
##DATE=1966/01/06
##CAS REGISTRY NO=79-11-8
##MOLFORM=C2 H3 Cl O2
##SOURCE REFERENCE=COBLENTZ NO. 5567
##$NIST SOURCE=COBLENTZ
##$NIST IMAGE=cob5567
##SPECTROMETER/DATA SYSTEM=PERKIN-ELMER 521 (GRATING)
##INSTRUMENT PARAMETERS=FILTERS AT 3150, 2500, 2000, 1150, 700, 410. GRATING CHANGES: 2000, 630 CM^-^1
##STATE=SOLUTION (11% IN CCl4 FOR 3800-1300, 4% IN CS2 FOR 1300-645, AND 11% IN CCl4 FOR 645-250 CM^-^1)
##PATH LENGTH=0.012 CM, 0.011 CM, AND 0.011 CM
##SAMPLING PROCEDURE=TRANSMISSION
##RESOLUTION=2
##DATA PROCESSING=DIGITIZED BY NIST FROM HARD COPY (FROM TWO SEGMENTS)
##XUNITS=1/CM
##YUNITS=TRANSMITTANCE
##XFACTOR=1.000000
##YFACTOR=1
##DELTAX=0.922724
##FIRSTX=248.674
##LASTX=3807.62
##FIRSTY=0.744
##MAXX=3807.62
##MINX=248.674
##MAXY=1.002
##MINY=0
##NPOINTS=3858
##XYDATA=(X++(Y..Y))
248.674000 0.7440 0.7460 0.7460 0.7480 0.7490
253.287619 0.7530 0.7550 0.7560 0.7580 0.7580
257.901237 0.7590 0.7600 0.7610 0.7630 0.7640
262.514856 0.7640 0.7640 0.7640 0.7640 0.7630
267.128475 0.7630 0.7610 0.7610 0.7630 0.7680
271.742094 0.7700 0.7700 0.7710 0.7710 0.7710
276.355712 0.7710 0.7710 0.7710 0.7730 0.7800
280.969331 0.7910 0.7940 0.7950 0.8050 0.8110
285.582950 0.8160 0.8190 0.8200 0.8210 0.8250
290.196569 0.8290 0.8350 0.8450 0.8500 0.8510
294.810187 0.8540 0.8590 0.8600 0.8610 0.8620
299.423806 0.8660 0.8700 0.8720 0.8720 0.8740
304.037425 0.8750 0.8760 0.8800 0.8820 0.8870
308.651043 0.8910 0.8950 0.8960 0.8970 0.9000
313.264662 0.9000 0.9020 0.9070 0.9110 0.9110
317.878281 0.9120 0.9130 0.9150 0.9150 0.9150
322.491900 0.9160 0.9160 0.9160 0.9170 0.9180
327.105518 0.9210 0.9230 0.9250 0.9260 0.9280
331.719137 0.9280 0.9300 0.9300 0.9300 0.9300
336.332756 0.9300 0.9300 0.9300 0.9300 0.9300
340.946374 0.9310 0.9330 0.9330 0.9330 0.9330
345.559993 0.9330 0.9330 0.9330 0.9350 0.9350
350.173612 0.9360 0.9360 0.9370 0.9370 0.9400
354.787231 0.9420 0.9470 0.9510 0.9520 0.9520
359.400849 0.9530 0.9530 0.9530 0.9550 0.9550
364.014468 0.9560 0.9560 0.9560 0.9570 0.9580
368.628087 0.9580 0.9600 0.9600 0.9600 0.9600
373.241706 0.9580 0.9570 0.9560 0.9550 0.9550
377.855324 0.9550 0.9560 0.9560 0.9570 0.9580
382.468943 0.9580 0.9600 0.9610 0.9610 0.9620
387.082562 0.9620 0.9630 0.9650 0.9650 0.9620
391.696180 0.9610 0.9600 0.9560 0.9520 0.9480
396.309799 0.9480 0.9480 0.9470 0.9450 0.9420
400.923418 0.9400 0.9370 0.9360 0.9360 0.9330
405.537037 0.9320 0.9300 0.9260 0.9200 0.9180
410.150655 0.9150 0.9110 0.9100 0.9070 0.9060
414.764274 0.9050 0.9020 0.9010 0.8990 0.8940
419.377893 0.8920 0.8890 0.8850 0.8820 0.8800
423.991512 0.8790 0.8770 0.8760 0.8740 0.8720
428.605130 0.8710 0.8700 0.8620 0.8560 0.8500
433.218749 0.8450 0.8400 0.8340 0.8270 0.8190
437.832368 0.8090 0.7960 0.7890 0.7731 0.7561
442.445986 0.7480 0.7380 0.7190 0.7080 0.7000
447.059605 0.6900 0.6800 0.6720 0.6640 0.6580
451.673224 0.6490 0.6420 0.6390 0.6380 0.6380
456.286843 0.6390 0.6420 0.6530 0.6680 0.6839
460.900461 0.7060 0.7230 0.7400 0.7790 0.8000
465.514080 0.8200 0.8290 0.8390 0.8500 0.8600
470.127699 0.8700 0.8770 0.8900 0.8920 0.9000
474.741317 0.9030 0.9110 0.9170 0.9210 0.9230
479.354936 0.9260 0.9280 0.9310 0.9330 0.9370
483.968555 0.9380 0.9420 0.9450 0.9500 0.9510
488.582174 0.9520 0.9530 0.9550 0.9560 0.9570
493.195792 0.9580 0.9580 0.9600 0.9610 0.9610
497.809411 0.9620 0.9620 0.9620 0.9630 0.9630
502.423030 0.9630 0.9650 0.9650 0.9650 0.9650
507.036649 0.9660 0.9660 0.9670 0.9670 0.9670
511.650267 0.9680 0.9680 0.9680 0.9680 0.9680
516.263886 0.9700 0.9700 0.9700 0.9700 0.9700
520.877505 0.9700 0.9700 0.9700 0.9680 0.9680
525.491123 0.9680 0.9680 0.9680 0.9670 0.9670
530.104742 0.9670 0.9660 0.9660 0.9660 0.9660
534.718361 0.9660 0.9660 0.9660 0.9660 0.9660
539.331980 0.9650 0.9650 0.9620 0.9620 0.9610
543.945598 0.9600 0.9580 0.9550 0.9520 0.9510
548.559217 0.9500 0.9480 0.9460 0.9450 0.9430
553.172836 0.9410 0.9400 0.9380 0.9380 0.9370
557.786454 0.9360 0.9330 0.9330 0.9320 0.9280
562.400073 0.9250 0.9200 0.9180 0.9170 0.9130
567.013692 0.9110 0.9100 0.9100 0.9070 0.9020
571.627311 0.9000 0.9000 0.8990 0.8970 0.8940
576.240929 0.8910 0.8890 0.8870 0.8850 0.8820
580.854548 0.8800 0.8790 0.8760 0.8750 0.8750
585.468167 0.8760 0.8770 0.8800 0.8820 0.8840
590.081786 0.8860 0.8890 0.8890 0.8920 0.8920
594.695404 0.8940 0.8940 0.8940 0.8920 0.8900
599.309023 0.8870 0.8840 0.8810 0.8790 0.8760
603.922642 0.8720 0.8700 0.8690 0.8640 0.8570
608.536260 0.8490 0.8490 0.8450 0.8420 0.8390
613.149879 0.8390 0.8370 0.8360 0.8350 0.8340
617.763498 0.8320 0.8310 0.8300 0.8300 0.8290
622.377117 0.8290 0.8260 0.8250 0.8240 0.8220
626.990735 0.8210 0.8200 0.8190 0.8170 0.8160
631.604354 0.8150 0.8150 0.8140 0.8140 0.8120
636.217973 0.8120 0.8110 0.8110 0.8100 0.8100
640.831592 0.8090 0.8090 0.8070 0.8070 0.8060
645.445210 0.8060 0.8050 0.8050 0.8020 0.8010
650.058829 0.8010 0.8000 0.8000 0.8000 0.8000
654.672448 0.7990 0.7990 0.7990 0.7990 0.8000
659.286066 0.8000 0.8010 0.8020 0.8050 0.8070
663.899685 0.8100 0.8120 0.8150 0.8170 0.8170
668.513304 0.8190 0.8220 0.8220 0.8240 0.8240
673.126923 0.8250 0.8310 0.8340 0.8360 0.8410
677.740541 0.8450 0.8490 0.8520 0.8590 0.8660
682.354160 0.8690 0.8700 0.8740 0.8850 0.8920
686.967779 0.8990 0.9020 0.9050 0.9070 0.9150
691.581397 0.9210 0.9220 0.9250 0.9260 0.9260
696.195016 0.9270 0.9270 0.9310 0.9320 0.9320
700.808635 0.9330 0.9330 0.9350 0.9360 0.9370
705.422254 0.9380 0.9400 0.9410 0.9410 0.9420
710.035872 0.9420 0.9420 0.9400 0.9410 0.9410
714.649491 0.9430 0.9450 0.9460 0.9460 0.9460
719.263110 0.9450 0.9430 0.9430 0.9420 0.9420
723.876729 0.9420 0.9430 0.9450 0.9460 0.9460
728.490347 0.9460 0.9460 0.9450 0.9450 0.9450
733.103966 0.9430 0.9420 0.9420 0.9420 0.9420
737.717585 0.9420 0.9420 0.9370 0.9360 0.9310
742.331203 0.9300 0.9280 0.9280 0.9260 0.9200
746.944822 0.9170 0.9150 0.9120 0.9100 0.9070
751.558441 0.9050 0.9030 0.9020 0.9000 0.8970
756.172060 0.8950 0.8940 0.8920 0.8910 0.8900
760.785678 0.8890 0.8860 0.8840 0.8820 0.8800
765.399297 0.8770 0.8740 0.8700 0.8660 0.8640
770.012916 0.8610 0.8550 0.8500 0.8460 0.8400
774.626535 0.8340 0.8300 0.8220 0.8140 0.8050
779.240153 0.7950 0.7840 0.7790 0.7750 0.7700
783.853772 0.7540 0.7410 0.7150 0.6870 0.6830
788.467391 0.6800 0.6780 0.6530 0.6390 0.6270
793.081009 0.6140 0.6020 0.5890 0.5770 0.5640
797.694628 0.5520 0.5470 0.5410 0.5380 0.5629
802.308247 0.5870 0.6090 0.6330 0.6530 0.6630
806.921866 0.7039 0.7329 0.7490 0.7590 0.7929
811.535484 0.8060 0.8150 0.8200 0.8240 0.8270
816.149103 0.8300 0.8310 0.8350 0.8360 0.8360
820.762722 0.8390 0.8390 0.8400 0.8400 0.8400
825.376340 0.8400 0.8400 0.8390 0.8390 0.8390
829.989959 0.8370 0.8370 0.8370 0.8350 0.8340
834.603578 0.8340 0.8340 0.8340 0.8320 0.8320
839.217197 0.8320 0.8310 0.8270 0.8250 0.8240
843.830815 0.8240 0.8220 0.8220 0.8210 0.8210
848.444434 0.8210 0.8200 0.8170 0.8160 0.8150
853.058053 0.8120 0.8110 0.8090 0.8050 0.8050
857.671672 0.8040 0.8010 0.8000 0.7980 0.7960
862.285290 0.7950 0.7930 0.7910 0.7890 0.7880
866.898909 0.7860 0.7840 0.7790 0.7780 0.7760
871.512528 0.7740 0.7700 0.7660 0.7630 0.7590
876.126146 0.7560 0.7540 0.7510 0.7490 0.7460
880.739765 0.7440 0.7410 0.7390 0.7360 0.7340
885.353384 0.7310 0.7160 0.7090 0.7080 0.7090
889.967003 0.7050 0.6990 0.6970 0.6970 0.6940
894.580621 0.6890 0.6780 0.6770 0.6750 0.6740
899.194240 0.6700 0.6650 0.6580 0.6520 0.6490
903.807859 0.6470 0.6430 0.6420 0.6430 0.6430
908.421477 0.6440 0.6450 0.6450 0.6440 0.6440
913.035096 0.6430 0.6420 0.6420 0.6420 0.6420
917.648715 0.6420 0.6420 0.6400 0.6380 0.6290
922.262334 0.6200 0.6100 0.5990 0.5890 0.5780
926.875952 0.5720 0.5660 0.5660 0.5820 0.6278
931.489571 0.6530 0.6640 0.6820 0.6920 0.7050
936.103190 0.7160 0.7280 0.7390 0.7450 0.7560
940.716809 0.7760 0.7830 0.7900 0.7960 0.8010
945.330427 0.8040 0.8120 0.8220 0.8270 0.8310
949.944046 0.8360 0.8450 0.8500 0.8550 0.8620
954.557665 0.8660 0.8700 0.8700 0.8720 0.8740
959.171283 0.8770 0.8820 0.8890 0.8900 0.8910
963.784902 0.8940 0.8960 0.8970 0.8990 0.9000
968.398521 0.9010 0.9030 0.9050 0.9060 0.9070
973.012140 0.9080 0.9100 0.9120 0.9130 0.9150
977.625758 0.9160 0.9170 0.9200 0.9200 0.9210
982.239377 0.9220 0.9230 0.9230 0.9250 0.9260
986.852996 0.9270 0.9300 0.9300 0.9300 0.9310
991.466615 0.9280 0.9280 0.9280 0.9270 0.9270
996.080233 0.9260 0.9260 0.9260 0.9260 0.9260
1000.693852 0.9270 0.9280 0.9300 0.9300 0.9300
1005.307471 0.9310 0.9310 0.9310 0.9300 0.9300
1009.921089 0.9300 0.9300 0.9300 0.9300 0.9280
1014.534708 0.9280 0.9270 0.9270 0.9260 0.9260
1019.148327 0.9260 0.9250 0.9250 0.9230 0.9230
1023.761946 0.9220 0.9210 0.9210 0.9210 0.9200
1028.375564 0.9200 0.9200 0.9180 0.9170 0.9170
1032.989183 0.9170 0.9170 0.9170 0.9170 0.9160
1037.602802 0.9160 0.9160 0.9160 0.9160 0.9160
1042.216420 0.9160 0.9160 0.9160 0.9160 0.9160
1046.830039 0.9160 0.9160 0.9160 0.9160 0.9150
1051.443658 0.9150 0.9150 0.9150 0.9150 0.9150
1056.057277 0.9150 0.9150 0.9150 0.9150 0.9160
1060.670895 0.9170 0.9170 0.9170 0.9170 0.9170
1065.284514 0.9170 0.9170 0.9160 0.9160 0.9160
1069.898133 0.9170 0.9170 0.9170 0.9170 0.9160
1074.511752 0.9160 0.9170 0.9160 0.9160 0.9160
1079.125370 0.9160 0.9160 0.9150 0.9150 0.9150
1083.738989 0.9130 0.9120 0.9120 0.9110 0.9100
1088.352608 0.9070 0.9050 0.9010 0.8970 0.8960
1092.966226 0.8950 0.8920 0.8910 0.8890 0.8860
1097.579845 0.8850 0.8820 0.8800 0.8790 0.8760
1102.193464 0.8710 0.8660 0.8610 0.8600 0.8570
1106.807083 0.8560 0.8550 0.8550 0.8540 0.8540
1111.420701 0.8550 0.8570 0.8600 0.8600 0.8600
1116.034320 0.8600 0.8590 0.8590 0.8570 0.8520
1120.647939 0.8470 0.8440 0.8410 0.8400 0.8400
1125.261558 0.8350 0.8340 0.8310 0.8290 0.8260
1129.875176 0.8210 0.8160 0.8120 0.8110 0.8110
1134.488795 0.8060 0.8010 0.7980 0.7890 0.7880
1139.102414 0.7860 0.7860 0.7850 0.7840 0.7840
1143.716032 0.7840 0.7830 0.7830 0.7830 0.7810
1148.329651 0.7810 0.7800 0.7800 0.7790 0.7790
1152.943270 0.7760 0.7760 0.7760 0.7750 0.7750
1157.556889 0.7740 0.7700 0.7660 0.7610 0.7590
1162.170507 0.7560 0.7560 0.7550 0.7540 0.7540
1166.784126 0.7530 0.7510 0.7500 0.7490 0.7480
1171.397745 0.7480 0.7460 0.7460 0.7450 0.7440
1176.011363 0.7430 0.7410 0.7400 0.7360 0.7290
1180.624982 0.7180 0.7110 0.7090 0.7080 0.7060
1185.238601 0.7030 0.6920 0.6830 0.6780 0.6750
1189.852220 0.6650 0.6550 0.6470 0.6370 0.6250
1194.465838 0.6090 0.5940 0.5820 0.5640 0.5520
1199.079457 0.5389 0.5089 0.4779 0.4450 0.4120
1203.693076 0.3820 0.3560 0.3350 0.3240 0.3120
1208.306695 0.3100 0.3100 0.3290 0.3460 0.3640
1212.920313 0.3810 0.3960 0.4220 0.4469 0.4769
1217.533932 0.5091 0.5640 0.5880 0.6080 0.6250
1222.147551 0.6390 0.6500 0.6590 0.6640 0.6800
1226.761169 0.6880 0.6930 0.6950 0.7010 0.7130
1231.374788 0.7180 0.7210 0.7230 0.7240 0.7250
1235.988407 0.7250 0.7260 0.7260 0.7260 0.7260
1240.602026 0.7260 0.7260 0.7250 0.7250 0.7240
1245.215644 0.7230 0.7210 0.7200 0.7190 0.7130
1249.829263 0.7100 0.7060 0.7010 0.6950 0.6890
1254.442882 0.6800 0.6720 0.6600 0.6440 0.6380
1259.056501 0.6250 0.6250 0.6430 0.6450 0.6520
1263.670119 0.6590 0.6600 0.6600 0.6580 0.6570
1268.283738 0.6530 0.6450 0.6380 0.6290 0.6180
1272.897357 0.6080 0.6039 0.5780 0.5560 0.5520
1277.510975 0.5510 0.5490 0.5470 0.5370 0.5270
1282.124594 0.5180 0.5110 0.5090 0.5080 0.5080
1286.738213 0.5080 0.5080 0.5090 0.5120 0.5160
1291.351832 0.5210 0.5240 0.5370 0.5380 0.5390
1295.965450 0.5420 0.5460 0.5520 0.5540 0.5570
1300.579069 0.5630 0.5630 0.5680 0.5720 0.5760
1305.192688 0.5790 0.5840 0.5880 0.5920 0.5960
1309.806306 0.6000 0.6040 0.6080 0.6120 0.6170
1314.419925 0.6200 0.6240 0.6280 0.6330 0.6370
1319.033544 0.6400 0.6440 0.6450 0.6600 0.6740
1323.647163 0.6850 0.6950 0.7030 0.7100 0.7180
1328.260781 0.7240 0.7300 0.7380 0.7450 0.7540
1332.874400 0.7640 0.7790 0.7840 0.7940 0.7950
1337.488019 0.7980 0.7990 0.8010 0.8010 0.8000
1342.101638 0.7980 0.7980 0.7990 0.7990 0.8000
1346.715256 0.8000 0.7990 0.7960 0.7960 0.7950
1351.328875 0.7960 0.7960 0.7980 0.7980 0.7980
1355.942494 0.7980 0.7980 0.7980 0.7980 0.7980
1360.556112 0.7960 0.7960 0.7950 0.7940 0.7910
1365.169731 0.7850 0.7790 0.7780 0.7780 0.7760
1369.783350 0.7750 0.7750 0.7740 0.7730 0.7700
1374.396969 0.7660 0.7630 0.7580 0.7540 0.7490
1379.010587 0.7460 0.7460 0.7400 0.7180 0.7130
1383.624206 0.7100 0.7040 0.6940 0.6840 0.6750
1388.237825 0.6630 0.6550 0.6380 0.6120 0.5871
1392.851443 0.5630 0.5530 0.5420 0.5210 0.5010
1397.465062 0.4800 0.4580 0.4360 0.4110 0.4100
1402.078681 0.4080 0.4080 0.4060 0.4050 0.4020
1406.692300 0.3970 0.3850 0.3670 0.3640 0.3550
1411.305918 0.3209 0.2879 0.2540 0.2430 0.2240
1415.919537 0.2050 0.1880 0.1690 0.1500 0.1320
1420.533156 0.1300 0.1320 0.1390 0.1480 0.1570
1425.146775 0.1650 0.1740 0.1800 0.1970 0.2100
1429.760393 0.2201 0.2500 0.2710 0.2860 0.2990
1434.374012 0.3070 0.3310 0.3470 0.3710 0.3900
1438.987631 0.4031 0.4251 0.4470 0.4700 0.4930
1443.601249 0.5160 0.5560 0.5710 0.5830 0.6000
1448.214868 0.6170 0.6320 0.6470 0.6590 0.6720
1452.828487 0.6840 0.6950 0.7050 0.7130 0.7230
1457.442106 0.7240 0.7260 0.7340 0.7430 0.7550
1462.055724 0.7600 0.7630 0.7630 0.7640 0.7660
1466.669343 0.7750 0.7790 0.7810 0.7840 0.7860
1471.282962 0.7880 0.7890 0.7910 0.7910 0.7930
1475.896581 0.7940 0.7940 0.7940 0.7940 0.7950
1480.510199 0.7950 0.7950 0.7980 0.7980 0.8000
1485.123818 0.8020 0.8040 0.8050 0.8050 0.8070
1489.737437 0.8090 0.8090 0.8100 0.8100 0.8100
1494.351055 0.8100 0.8100 0.8110 0.8110 0.8120
1498.964674 0.8150 0.8210 0.8290 0.8340 0.8370
1503.578293 0.8410 0.8440 0.8450 0.8460 0.8470
1508.191912 0.8470 0.8460 0.8450 0.8410 0.8400
1512.805530 0.8390 0.8390 0.8390 0.8390 0.8390
1517.419149 0.8390 0.8390 0.8390 0.8370 0.8370
1522.032768 0.8360 0.8360 0.8350 0.8340 0.8320
1526.646386 0.8310 0.8300 0.8290 0.8290 0.8260
1531.260005 0.8240 0.8210 0.8170 0.8150 0.8120
1535.873624 0.8100 0.8090 0.8070 0.8060 0.8050
1540.487243 0.8050 0.8040 0.8040 0.8020 0.8020
1545.100861 0.8010 0.8000 0.8000 0.7990 0.7990
1549.714480 0.7990 0.7990 0.8000 0.8000 0.8000
1554.328099 0.8010 0.8040 0.8060 0.8090 0.8140
1558.941718 0.8150 0.8160 0.8200 0.8210 0.8220
1563.555336 0.8240 0.8240 0.8240 0.8240 0.8240
1568.168955 0.8240 0.8240 0.8240 0.8240 0.8250
1572.782574 0.8250 0.8250 0.8250 0.8260 0.8260
1577.396192 0.8260 0.8260 0.8260 0.8260 0.8260
1582.009811 0.8250 0.8250 0.8260 0.8260 0.8260
1586.623430 0.8260 0.8270 0.8270 0.8270 0.8270
1591.237049 0.8270 0.8270 0.8270 0.8270 0.8270
1595.850667 0.8270 0.8270 0.8270 0.8270 0.8270
1600.464286 0.8270 0.8270 0.8270 0.8270 0.8270
1605.077905 0.8270 0.8270 0.8290 0.8290 0.8290
1609.691524 0.8290 0.8290 0.8290 0.8290 0.8270
1614.305142 0.8270 0.8260 0.8250 0.8250 0.8240
1618.918761 0.8220 0.8220 0.8210 0.8190 0.8160
1623.532380 0.8140 0.8140 0.8120 0.8110 0.8110
1628.145998 0.8070 0.8060 0.8040 0.8040 0.8020
1632.759617 0.8010 0.8000 0.7990 0.7900 0.7880
1637.373236 0.7850 0.7810 0.7790 0.7780 0.7760
1641.986855 0.7760 0.7750 0.7740 0.7730 0.7700
1646.600473 0.7680 0.7610 0.7550 0.7510 0.7460
1651.214092 0.7430 0.7360 0.7290 0.7200 0.7130
1655.827711 0.7060 0.7000 0.6950 0.6900 0.6840
1660.441329 0.6770 0.6700 0.6640 0.6590 0.6530
1665.054948 0.6480 0.6440 0.6340 0.6330 0.6320
1669.668567 0.6280 0.6240 0.6190 0.6150 0.6100
1674.282186 0.6080 0.6050 0.6030 0.5920 0.5840
1678.895804 0.5790 0.5760 0.5720 0.5660 0.5560
1683.509423 0.5530 0.5470 0.5410 0.5360 0.5280
1688.123042 0.5190 0.5080 0.5000 0.4860 0.4750
1692.736661 0.4630 0.4520 0.4470 0.4370 0.4170
1697.350279 0.4049 0.3900 0.3740 0.3550 0.3360
1701.963898 0.3270 0.3190 0.3000 0.2830 0.2660
1706.577517 0.2529 0.2329 0.2099 0.1849 0.1600
1711.191135 0.1350 0.1150 0.1070 0.0980 0.0870
1715.804754 0.0589 0.0310 0.0280 0.0220 0.0160
1720.418373 0.0090 0.0040 0.0030 0.0030 0.0020
1725.031992 0.0020 0.0010 0.0010 0.0010 0.0000
1729.645610 0.0000 0.0000 0.0000 0.0000 0.0000
1734.259229 0.0000 0.0000 0.0000 0.0000 0.0000
1738.872848 0.0000 0.0000 0.0000 0.0010 0.0010
1743.486467 0.0020 0.0030 0.0040 0.0110 0.0170
1748.100085 0.0240 0.0360 0.0510 0.0660 0.1100
1752.713704 0.1341 0.1551 0.1770 0.1970 0.2140
1757.327323 0.2330 0.2530 0.2730 0.2940 0.3389
1761.940941 0.3510 0.3620 0.3750 0.3870 0.4010
1766.554560 0.4150 0.4270 0.4410 0.4550 0.4680
1771.168179 0.4820 0.4960 0.5080 0.5220 0.5330
1775.781798 0.5570 0.5670 0.5770 0.5860 0.5930
1780.395416 0.5990 0.6000 0.6020 0.6020 0.6030
1785.009035 0.6030 0.6020 0.6000 0.5990 0.5960
1789.622654 0.5920 0.5910 0.5920 0.5960 0.5980
1794.236272 0.6030 0.6070 0.6090 0.6120 0.6200
1798.849891 0.6301 0.6490 0.6520 0.6570 0.6630
1803.463510 0.6690 0.6740 0.6800 0.6870 0.6890
1808.077129 0.6920 0.6930 0.6940 0.6940 0.6940
1812.690747 0.6950 0.6970 0.6980 0.6990 0.7000
1817.304366 0.7010 0.7030 0.7060 0.7090 0.7110
1821.917985 0.7160 0.7360 0.7540 0.7590 0.7610
1826.531604 0.7760 0.7840 0.7910 0.7980 0.8040
1831.145222 0.8100 0.8150 0.8190 0.8240 0.8260
1835.758841 0.8300 0.8310 0.8340 0.8340 0.8350
1840.372460 0.8370 0.8400 0.8410 0.8410 0.8420
1844.986078 0.8440 0.8460 0.8500 0.8520 0.8520
1849.599697 0.8540 0.8560 0.8570 0.8600 0.8600
1854.213316 0.8610 0.8610 0.8620 0.8640 0.8640
1858.826935 0.8650 0.8660 0.8670 0.8700 0.8700
1863.440553 0.8710 0.8710 0.8710 0.8710 0.8720
1868.054172 0.8720 0.8740 0.8720 0.8720 0.8720
1872.667791 0.8740 0.8750 0.8750 0.8750 0.8750
1877.281409 0.8740 0.8740 0.8740 0.8750 0.8750
1881.895028 0.8770 0.8790 0.8790 0.8800 0.8800
1886.508647 0.8800 0.8800 0.8800 0.8810 0.8840
1891.122266 0.8860 0.8870 0.8870 0.8870 0.8890
1895.735884 0.8890 0.8890 0.8890 0.8900 0.8900
1900.349503 0.8900 0.8900 0.8910 0.8910 0.8910
1904.963122 0.8920 0.8920 0.8920 0.8920 0.8940
1909.576741 0.8950 0.8950 0.8950 0.8950 0.8950
1914.190359 0.8950 0.8950 0.8950 0.8950 0.8950
1918.803978 0.8950 0.8950 0.8960 0.8960 0.8970
1923.417597 0.8970 0.8970 0.8970 0.8970 0.8970
1928.031215 0.8970 0.8970 0.8970 0.8970 0.8960
1932.644834 0.8970 0.8990 0.9000 0.9000 0.9000
1937.258453 0.9000 0.9000 0.9000 0.9000 0.9000
1941.872072 0.9000 0.9000 0.9000 0.9000 0.9010
1946.485690 0.9010 0.9000 0.9000 0.8990 0.8990
1951.099309 0.8990 0.8990 0.8990 0.8990 0.8990
1955.712928 0.8990 0.9000 0.8990 0.8990 0.8990
1960.326547 0.9010 0.9010 0.9010 0.9010 0.9010
1964.940165 0.9010 0.9010 0.9010 0.9010 0.9020
1969.553784 0.9020 0.9020 0.9030 0.9050 0.9050
1974.167403 0.9050 0.9050 0.9050 0.9050 0.9050
1978.781021 0.9050 0.9030 0.9030 0.9030 0.9030
1983.394640 0.9050 0.9060 0.9060 0.9060 0.9060
1988.008259 0.9060 0.9060 0.9060 0.9060 0.9060
1992.621878 0.9060 0.9060 0.9070 0.9070 0.9100
1997.235496 0.9110 0.9120 0.9130 0.9150 0.9155
2001.849115 0.9160 0.9165 0.9170 0.9175 0.9180
2006.462734 0.9190 0.9200 0.9205 0.9210 0.9215
2011.076352 0.9220 0.9220 0.9220 0.9225 0.9231
2015.689971 0.9241 0.9250 0.9250 0.9250 0.9250
2020.303590 0.9250 0.9255 0.9263 0.9293 0.9320
2024.917209 0.9320 0.9321 0.9326 0.9330 0.9330
2029.530827 0.9331 0.9341 0.9350 0.9350 0.9350
2034.144446 0.9350 0.9349 0.9338 0.9330 0.9330
2038.758065 0.9330 0.9330 0.9330 0.9330 0.9329
2043.371684 0.9324 0.9320 0.9320 0.9320 0.9320
2047.985302 0.9319 0.9314 0.9310 0.9310 0.9310
2052.598921 0.9310 0.9309 0.9304 0.9300 0.9300
2057.212540 0.9297 0.9287 0.9280 0.9280 0.9277
2061.826158 0.9267 0.9260 0.9260 0.9259 0.9254
2066.439777 0.9250 0.9250 0.9250 0.9250 0.9250
2071.053396 0.9250 0.9250 0.9250 0.9247 0.9237
2075.667015 0.9230 0.9230 0.9228 0.9223 0.9220
2080.280633 0.9220 0.9220 0.9220 0.9220 0.9220
2084.894252 0.9218 0.9213 0.9210 0.9210 0.9208
2089.507871 0.9203 0.9196 0.9186 0.9180 0.9180
2094.121490 0.9178 0.9173 0.9166 0.9156 0.9146
2098.735108 0.9136 0.9128 0.9123 0.9115 0.9105
2103.348727 0.9093 0.9078 0.9068 0.9063 0.9053
2107.962346 0.9038 0.9028 0.9022 0.9017 0.9012
2112.575964 0.9007 0.9002 0.8997 0.8992 0.8990
2117.189583 0.8990 0.8990 0.8990 0.8990 0.8990
