##TITLE=Ethylene, 1,2-dichloro-1,2-difluoro-
##JCAMP-DX=4.24
##DATA TYPE=INFRARED SPECTRUM
##CLASS=COBLENTZ
##ORIGIN=DOW CHEMICAL COMPANY
##OWNER=Copyright (C) 1987 by the Coblentz Society
Collection (C) 2018 copyright by the U.S. Secretary of Commerce
on behalf of the United States of America. All rights reserved.
##DATE=1964
##NAMES=1,1-dichloro-2,2-difluoroethylene
##CAS REGISTRY NO=79-35-6
##MOLFORM=C2 Cl2 F2
##SOURCE REFERENCE=COBLENTZ NO. 8831
##$NIST SOURCE=COBLENTZ
##$NIST IMAGE=cob8831
##SPECTROMETER/DATA SYSTEM=DOW KBr FOREPRISM-GRATING
##INSTRUMENT PARAMETERS=GRATING CHANGED AT 5.0, 7.5, 15.0 MICRON
##STATE=GAS (60 mmHg, N2 ADDED, TOTAL PRESSURE 600 mmHg)
##PATH LENGTH=5 CM
$$ SPECTRAL CONTAMINATION DUE TO 1,1-dichloro-2,2-difluoro-Ethylene AROUND 1740 CM^-^1
##SAMPLING PROCEDURE=TRANSMISSION
##RESOLUTION=2
##DATA PROCESSING=DIGITIZED BY COBLENTZ SOCIETY (BATCH II) FROM HARD COPY
##XUNITS=1/CM
##YUNITS=TRANSMITTANCE
##XFACTOR=1.0
##YFACTOR=1
##FIRSTX=468
##LASTX=3796
##FIRSTY=0.8602
##MAXX=3796
##MINX=468
##MAXY=0.895
##MINY=0.0022
##NPOINTS=3329
##XYDATA=(X++(Y..Y))
468.000000 0.8602 0.8603 0.8599 0.8595 0.8591
473.000000 0.8587 0.8583 0.8581 0.8581 0.8581
478.000000 0.8581 0.8581 0.8581 0.8581 0.8581
483.000000 0.8581 0.8581 0.8581 0.8579 0.8577
488.000000 0.8575 0.8573 0.8571 0.8569 0.8567
493.000000 0.8565 0.8563 0.8561 0.8559 0.8557
498.000000 0.8554 0.8551 0.8547 0.8544 0.8541
503.000000 0.8537 0.8534 0.8530 0.8527 0.8524
508.000000 0.8520 0.8517 0.8514 0.8511 0.8508
513.000000 0.8506 0.8503 0.8500 0.8497 0.8494
518.000000 0.8491 0.8488 0.8485 0.8483 0.8480
523.000000 0.8477 0.8474 0.8471 0.8470 0.8469
528.000000 0.8467 0.8466 0.8465 0.8463 0.8462
533.000000 0.8461 0.8459 0.8458 0.8457 0.8455
538.000000 0.8453 0.8451 0.8450 0.8448 0.8446
543.000000 0.8444 0.8442 0.8440 0.8438 0.8436
548.000000 0.8434 0.8432 0.8430 0.8429 0.8424
553.000000 0.8420 0.8415 0.8411 0.8407 0.8402
558.000000 0.8398 0.8393 0.8389 0.8385 0.8381
563.000000 0.8380 0.8378 0.8387 0.8374 0.8414
568.000000 0.8429 0.8443 0.8455 0.8466 0.8474
573.000000 0.8483 0.8491 0.8498 0.8503 0.8508
578.000000 0.8514 0.8519 0.8524 0.8528 0.8532
583.000000 0.8536 0.8539 0.8543 0.8543 0.8537
588.000000 0.8530 0.8524 0.8519 0.8515 0.8511
593.000000 0.8510 0.8510 0.8510 0.8510 0.8510
598.000000 0.8510 0.8510 0.8511 0.8511 0.8512
603.000000 0.8512 0.8513 0.8513 0.8514 0.8514
608.000000 0.8514 0.8514 0.8514 0.8514 0.8514
613.000000 0.8514 0.8514 0.8516 0.8520 0.8524
618.000000 0.8528 0.8536 0.8545 0.8569 0.8575
623.000000 0.8575 0.8572 0.8569 0.8566 0.8562
628.000000 0.8557 0.8552 0.8547 0.8542 0.8537
633.000000 0.8532 0.8525 0.8516 0.8507 0.8498
638.000000 0.8486 0.8473 0.8459 0.8445 0.8431
643.000000 0.8416 0.8396 0.8396 0.8395 0.8394
648.000000 0.8393 0.8392 0.8391 0.8390 0.8389
653.000000 0.8387 0.8384 0.8381 0.8379 0.8376
658.000000 0.8373 0.8376 0.8378 0.8381 0.8383
663.000000 0.8373 0.8316 0.8211 0.8145 0.8151
668.000000 0.8139 0.8236 0.8302 0.8367 0.8408
673.000000 0.8408 0.8408 0.8408 0.8408 0.8408
678.000000 0.8413 0.8419 0.8427 0.8435 0.8444
683.000000 0.8454 0.8464 0.8474 0.8483 0.8492
688.000000 0.8500 0.8509 0.8518 0.8527 0.8536
693.000000 0.8546 0.8556 0.8566 0.8576 0.8586
698.000000 0.8596 0.8604 0.8611 0.8619 0.8626
703.000000 0.8633 0.8640 0.8647 0.8654 0.8659
708.000000 0.8663 0.8668 0.8672 0.8669 0.8664
713.000000 0.8657 0.8647 0.8636 0.8626 0.8615
718.000000 0.8607 0.8608 0.8620 0.8637 0.8654
723.000000 0.8657 0.8654 0.8650 0.8647 0.8644
728.000000 0.8640 0.8661 0.8634 0.8630 0.8626
733.000000 0.8622 0.8618 0.8614 0.8610 0.8607
738.000000 0.8604 0.8601 0.8598 0.8594 0.8591
743.000000 0.8588 0.8586 0.8585 0.8584 0.8583
748.000000 0.8582 0.8581 0.8580 0.8579 0.8585
753.000000 0.8591 0.8596 0.8602 0.8606 0.8610
758.000000 0.8614 0.8618 0.8619 0.8619 0.8620
763.000000 0.8621 0.8622 0.8625 0.8629 0.8632
768.000000 0.8635 0.8638 0.8641 0.8643 0.8646
773.000000 0.8649 0.8660 0.8672 0.8684 0.8688
778.000000 0.8691 0.8694 0.8696 0.8696 0.8696
783.000000 0.8696 0.8696 0.8695 0.8691 0.8688
788.000000 0.8684 0.8681 0.8677 0.8674 0.8664
793.000000 0.8648 0.8632 0.8616 0.8600 0.8585
798.000000 0.8567 0.8546 0.8526 0.8514 0.8511
803.000000 0.8507 0.8503 0.8500 0.8496 0.8495
808.000000 0.8494 0.8492 0.8491 0.8489 0.8488
813.000000 0.8487 0.8485 0.8487 0.8491 0.8494
818.000000 0.8497 0.8501 0.8504 0.8507 0.8511
823.000000 0.8509 0.8505 0.8499 0.8467 0.8434
828.000000 0.8390 0.8345 0.8297 0.8236 0.8175
833.000000 0.8112 0.8038 0.7965 0.7898 0.7843
838.000000 0.7787 0.7585 0.7270 0.6956 0.6687
843.000000 0.6678 0.6702 0.6687 0.6764 0.6765
848.000000 0.6714 0.6656 0.6711 0.6860 0.6894
853.000000 0.6701 0.6637 0.6644 0.6719 0.6797
858.000000 0.6875 0.6948 0.6941 0.6921 0.6910
863.000000 0.6778 0.6334 0.5806 0.5002 0.4174
868.000000 0.3346 0.2355 0.2240 0.2193 0.2162
873.000000 0.2133 0.2108 0.2053 0.1825 0.1378
878.000000 0.0861 0.0566 0.0383 0.0224 0.0155
883.000000 0.0115 0.0094 0.0086 0.0083 0.0083
888.000000 0.0083 0.0085 0.0087 0.0094 0.0092
893.000000 0.0095 0.0098 0.0106 0.0115 0.0124
898.000000 0.0152 0.0364 0.1595 0.2826 0.4094
903.000000 0.5075 0.6056 0.7036 0.7581 0.7709
908.000000 0.7848 0.7934 0.7967 0.7991 0.8001
913.000000 0.8012 0.8011 0.8001 0.7990 0.7959
918.000000 0.7916 0.7883 0.7842 0.7792 0.7734
923.000000 0.7644 0.7563 0.7497 0.7462 0.7428
928.000000 0.7393 0.7338 0.7277 0.7186 0.6782
933.000000 0.6426 0.6191 0.5813 0.5612 0.5239
938.000000 0.4442 0.3617 0.2793 0.1982 0.1595
943.000000 0.1315 0.1091 0.0893 0.0718 0.0551
948.000000 0.0442 0.0381 0.0375 0.0369 0.0368
953.000000 0.0351 0.0379 0.0395 0.0420 0.0445
958.000000 0.0487 0.0545 0.0598 0.0638 0.1066
963.000000 0.1761 0.2456 0.3150 0.3845 0.4540
968.000000 0.5235 0.5635 0.5657 0.5655 0.5669
973.000000 0.5378 0.5026 0.4675 0.4323 0.4140
978.000000 0.4084 0.3033 0.3014 0.3187 0.3355
983.000000 0.3357 0.3357 0.2802 0.2542 0.2524
988.000000 0.2550 0.2526 0.2540 0.2570 0.2616
993.000000 0.2725 0.2861 0.2989 0.3118 0.3329
998.000000 0.3514 0.3664 0.3889 0.4149 0.4409
1003.000000 0.4670 0.4927 0.5892 0.6397 0.6913
1008.000000 0.7429 0.7902 0.7962 0.7987 0.7984
1013.000000 0.7988 0.7946 0.7856 0.7692 0.7527
1018.000000 0.7362 0.7197 0.7033 0.6945 0.6842
1023.000000 0.6798 0.6787 0.6787 0.6803 0.6792
1028.000000 0.6796 0.6837 0.6972 0.6965 0.6948
1033.000000 0.6931 0.6929 0.6939 0.6990 0.7128
1038.000000 0.7314 0.7526 0.7738 0.7948 0.8003
1043.000000 0.8034 0.8045 0.8043 0.8042 0.8035
1048.000000 0.8025 0.8015 0.8005 0.7985 0.7963
1053.000000 0.7932 0.7899 0.7865 0.7833 0.7803
1058.000000 0.7773 0.7743 0.7713 0.7682 0.7642
1063.000000 0.7603 0.7563 0.7495 0.7418 0.7219
1068.000000 0.7176 0.7173 0.7130 0.7355 0.7418
1073.000000 0.7453 0.7473 0.7461 0.7373 0.7106
1078.000000 0.7013 0.7013 0.6997 0.7054 0.7120
1083.000000 0.7186 0.7253 0.7375 0.7563 0.7685
1088.000000 0.7766 0.7808 0.7766 0.7715 0.7721
1093.000000 0.7872 0.8037 0.8104 0.8081 0.7976
1098.000000 0.7892 0.7808 0.7725 0.7697 0.7687
1103.000000 0.7696 0.7706 0.7718 0.7734 0.7754
1108.000000 0.7774 0.7785 0.7784 0.7772 0.7727
1113.000000 0.7618 0.7531 0.7451 0.7358 0.7256
1118.000000 0.7156 0.7087 0.7031 0.6976 0.6929
1123.000000 0.6882 0.6838 0.6813 0.6792 0.6782
1128.000000 0.6778 0.6775 0.6747 0.6711 0.6660
1133.000000 0.6607 0.6526 0.6443 0.6364 0.6213
1138.000000 0.6017 0.5878 0.5722 0.5557 0.5339
1143.000000 0.5104 0.4692 0.4270 0.3849 0.3427
1148.000000 0.3005 0.2757 0.2193 0.1475 0.0985
1153.000000 0.0290 0.0158 0.0100 0.0072 0.0062
1158.000000 0.0052 0.0042 0.0038 0.0035 0.0034
1163.000000 0.0034 0.0022 0.0034 0.0035 0.0036
1168.000000 0.0037 0.0040 0.0043 0.0047 0.0061
1173.000000 0.0075 0.0098 0.0141 0.0206 0.0283
1178.000000 0.0431 0.0600 0.0891 0.1400 0.1909
1183.000000 0.2418 0.2927 0.3435 0.3944 0.4294
1188.000000 0.4322 0.4341 0.4262 0.3905 0.3547
1193.000000 0.3190 0.2832 0.2475 0.2117 0.1760
1198.000000 0.1402 0.1045 0.0462 0.0386 0.0310
1203.000000 0.0216 0.0123 0.0083 0.0072 0.0061
1208.000000 0.0061 0.0061 0.0061 0.0061 0.0064
1213.000000 0.0067 0.0070 0.0064 0.0076 0.0078
1218.000000 0.0080 0.0082 0.0084 0.0088 0.0092
1223.000000 0.0097 0.0106 0.0121 0.0225 0.0353
1228.000000 0.0449 0.0551 0.0662 0.1295 0.1938
1233.000000 0.2558 0.2836 0.3651 0.4507 0.5363
1238.000000 0.6219 0.6581 0.6777 0.7164 0.8006
1243.000000 0.8138 0.8218 0.8275 0.8314 0.8346
1248.000000 0.8376 0.8394 0.8400 0.8406 0.8412
1253.000000 0.8415 0.8418 0.8421 0.8423 0.8423
1258.000000 0.8423 0.8423 0.8423 0.8423 0.8422
1263.000000 0.8421 0.8420 0.8419 0.8418 0.8413
1268.000000 0.8409 0.8404 0.8400 0.8395 0.8390
1273.000000 0.8384 0.8379 0.8374 0.8368 0.8362
1278.000000 0.8353 0.8344 0.8335 0.8326 0.8316
1283.000000 0.8307 0.8295 0.8278 0.8262 0.8246
1288.000000 0.8229 0.8213 0.8194 0.8168 0.8141
1293.000000 0.8115 0.8088 0.8062 0.8032 0.7994
1298.000000 0.7956 0.7918 0.7877 0.7811 0.7744
1303.000000 0.7676 0.7603 0.7531 0.7460 0.7391
1308.000000 0.7321 0.7217 0.7061 0.6939 0.6829
1313.000000 0.6721 0.6647 0.6591 0.6571 0.6572
1318.000000 0.6573 0.6574 0.6576 0.6578 0.6559
1323.000000 0.6583 0.6588 0.6632 0.6697 0.6778
1328.000000 0.6836 0.6913 0.6994 0.7102 0.7240
1333.000000 0.7421 0.7702 0.7957 0.8062 0.8145
1338.000000 0.8214 0.8277 0.8354 0.8401 0.8407
1343.000000 0.8398 0.8422 0.8371 0.8353 0.8335
1348.000000 0.8312 0.8277 0.8239 0.8193 0.8148
1353.000000 0.8129 0.8110 0.8103 0.8088 0.8072
1358.000000 0.8055 0.8035 0.8010 0.7977 0.7963
1363.000000 0.7935 0.7944 0.7948 0.7958 0.7976
1368.000000 0.7991 0.8006 0.8017 0.8025 0.8032
1373.000000 0.8045 0.8057 0.8074 0.8095 0.8117
1378.000000 0.8160 0.8202 0.8267 0.8341 0.8410
1383.000000 0.8461 0.8461 0.8460 0.8451 0.8443
1388.000000 0.8434 0.8426 0.8418 0.8421 0.8448
1393.000000 0.8482 0.8511 0.8540 0.8566 0.8578
1398.000000 0.8579 0.8581 0.8581 0.8578 0.8576
1403.000000 0.8570 0.8570 0.8566 0.8562 0.8558
1408.000000 0.8558 0.8558 0.8558 0.8559 0.8562
1413.000000 0.8565 0.8569 0.8572 0.8576 0.8577
1418.000000 0.8577 0.8574 0.8562 0.8551 0.8540
1423.000000 0.8529 0.8531 0.8539 0.8548 0.8555
1428.000000 0.8563 0.8570 0.8576 0.8582 0.8588
1433.000000 0.8589 0.8589 0.8589 0.8589 0.8588
1438.000000 0.8587 0.8585 0.8584 0.8583 0.8582
1443.000000 0.8581 0.8580 0.8579 0.8579 0.8578
1448.000000 0.8577 0.8575 0.8572 0.8570 0.8568
1453.000000 0.8566 0.8563 0.8561 0.8557 0.8554
1458.000000 0.8551 0.8547 0.8544 0.8541 0.8537
1463.000000 0.8534 0.8530 0.8530 0.8530 0.8530
1468.000000 0.8530 0.8530 0.8530 0.8530 0.8530
1473.000000 0.8527 0.8522 0.8517 0.8511 0.8506
1478.000000 0.8501 0.8495 0.8489 0.8481 0.8473
1483.000000 0.8465 0.8457 0.8449 0.8440 0.8430
1488.000000 0.8421 0.8412 0.8403 0.8395 0.8386
1493.000000 0.8364 0.8334 0.8324 0.8316 0.8317
1498.000000 0.8318 0.8304 0.8334 0.8348 0.8362
1503.000000 0.8375 0.8397 0.8442 0.8481 0.8504
1508.000000 0.8521 0.8537 0.8553 0.8567 0.8579
1513.000000 0.8591 0.8603 0.8614 0.8622 0.8630
1518.000000 0.8638 0.8645 0.8653 0.8659 0.8660
1523.000000 0.8662 0.8663 0.8665 0.8666 0.8667
1528.000000 0.8667 0.8668 0.8668 0.8668 0.8669
1533.000000 0.8669 0.8670 0.8675 0.8681 0.8686
1538.000000 0.8699 0.8721 0.8742 0.8751 0.8739
1543.000000 0.8729 0.8721 0.8721 0.8721 0.8721
1548.000000 0.8721 0.8724 0.8728 0.8731 0.8709
1553.000000 0.8744 0.8753 0.8765 0.8777 0.8789
1558.000000 0.8801 0.8812 0.8809 0.8774 0.8733
1563.000000 0.8720 0.8722 0.8723 0.8726 0.8728
1568.000000 0.8725 0.8722 0.8719 0.8716 0.8712
1573.000000 0.8709 0.8703 0.8698 0.8693 0.8688
1578.000000 0.8682 0.8675 0.8668 0.8661 0.8654
1583.000000 0.8648 0.8642 0.8636 0.8630 0.8625
1588.000000 0.8622 0.8619 0.8616 0.8612 0.8609
1593.000000 0.8607 0.8608 0.8609 0.8609 0.8610
1598.000000 0.8611 0.8617 0.8622 0.8628 0.8634
1603.000000 0.8640 0.8646 0.8651 0.8655 0.8660
1608.000000 0.8664 0.8669 0.8671 0.8672 0.8673
1613.000000 0.8674 0.8676 0.8677 0.8673 0.8668
1618.000000 0.8663 0.8658 0.8653 0.8648 0.8644
1623.000000 0.8640 0.8636 0.8632 0.8628 0.8624
1628.000000 0.8620 0.8622 0.8628 0.8634 0.8639
1633.000000 0.8649 0.8660 0.8658 0.8654 0.8642
1638.000000 0.8630 0.8617 0.8609 0.8601 0.8596
1643.000000 0.8598 0.8601 0.8607 0.8613 0.8618
1648.000000 0.8623 0.8629 0.8634 0.8649 0.8687
1653.000000 0.8691 0.8689 0.8679 0.8671 0.8663
1658.000000 0.8655 0.8649 0.8642 0.8635 0.8630
1663.000000 0.8624 0.8619 0.8613 0.8608 0.8603
1668.000000 0.8598 0.8593 0.8588 0.8575 0.8561
1673.000000 0.8552 0.8543 0.8522 0.8493 0.8461
1678.000000 0.8426 0.8390 0.8353 0.8311 0.8264
1683.000000 0.8216 0.8145 0.8073 0.7979 0.7875
1688.000000 0.7771 0.7657 0.7542 0.7426 0.7208
1693.000000 0.7012 0.6893 0.6740 0.6445 0.6196
1698.000000 0.5948 0.5699 0.5451 0.5346 0.5339
1703.000000 0.5342 0.5393 0.5452 0.5511 0.5570
1708.000000 0.5585 0.5604 0.5519 0.5395 0.5276
1713.000000 0.5269 0.5397 0.5725 0.6054 0.6383
1718.000000 0.6711 0.7040 0.7369 0.7698 0.7909
1723.000000 0.7957 0.7966 0.7963 0.7964 0.7954
1728.000000 0.7930 0.7890 0.7828 0.7742 0.7643
1733.000000 0.7538 0.7419 0.7338 0.7276 0.7243
1738.000000 0.7229 0.7222 0.7218 0.7214 0.7227
1743.000000 0.7238 0.7261 0.7344 0.7380 0.7398
1748.000000 0.7406 0.7413 0.7417 0.7726 0.8150
1753.000000 0.8545 0.8645 0.8694 0.8721 0.8731
1758.000000 0.8740 0.8745 0.8750 0.8754 0.8759
1763.000000 0.8763 0.8765 0.8767 0.8769 0.8771
1768.000000 0.8773 0.8774 0.8774 0.8775 0.8775
1773.000000 0.8776 0.8776 0.8777 0.8778 0.8780
1778.000000 0.8782 0.8777 0.8786 0.8788 0.8790
1783.000000 0.8791 0.8793 0.8793 0.8794 0.8794
1788.000000 0.8795 0.8795 0.8796 0.8796 0.8797
1793.000000 0.8797 0.8796 0.8796 0.8796 0.8796
1798.000000 0.8796 0.8796 0.8796 0.8795 0.8793
1803.000000 0.8792 0.8790 0.8789 0.8788 0.8786
1808.000000 0.8785 0.8783 0.8782 0.8780 0.8776
1813.000000 0.8772 0.8768 0.8764 0.8760 0.8756
1818.000000 0.8752 0.8748 0.8742 0.8731 0.8721
1823.000000 0.8711 0.8700 0.8685 0.8668 0.8652
1828.000000 0.8625 0.8595 0.8566 0.8534 0.8488
1833.000000 0.8444 0.8404 0.8373 0.8350 0.8331
1838.000000 0.8322 0.8314 0.8307 0.8303 0.8299
1843.000000 0.8293 0.8285 0.8268 0.8247 0.8225
1848.000000 0.8203 0.8181 0.8159 0.8134 0.8141
1853.000000 0.8156 0.8172 0.8190 0.8211 0.8232
1858.000000 0.8253 0.8273 0.8288 0.8302 0.8317
1863.000000 0.8332 0.8344 0.8352 0.8360 0.8364
1868.000000 0.8365 0.8366 0.8367 0.8391 0.8422
1873.000000 0.8443 0.8457 0.8454 0.8402 0.8306
1878.000000 0.8217 0.8213 0.8214 0.8223 0.8238
1883.000000 0.8254 0.8280 0.8316 0.8364 0.8420
1888.000000 0.8476 0.8526 0.8554 0.8581 0.8609
1893.000000 0.8636 0.8661 0.8682 0.8702 0.8722
1898.000000 0.8742 0.8752 0.8762 0.8772 0.8781
1903.000000 0.8786 0.8790 0.8795 0.8800 0.8805
1908.000000 0.8809 0.8812 0.8812 0.8823 0.8813
1913.000000 0.8814 0.8814 0.8815 0.8815 0.8815
1918.000000 0.8815 0.8815 0.8815 0.8815 0.8815
1923.000000 0.8815 0.8815 0.8815 0.8814 0.8813
1928.000000 0.8813 0.8812 0.8811 0.8812 0.8813
1933.000000 0.8814 0.8818 0.8827 0.8836 0.8853
1938.000000 0.8871 0.8888 0.8890 0.8891 0.8892
1943.000000 0.8894 0.8895 0.8896 0.8897 0.8897
1948.000000 0.8897 0.8897 0.8897 0.8915 0.8932
1953.000000 0.8948 0.8950 0.8941 0.8920 0.8902
1958.000000 0.8884 0.8865 0.8866 0.8867 0.8868
1963.000000 0.8869 0.8869 0.8870 0.8871 0.8872
1968.000000 0.8873 0.8872 0.8870 0.8869 0.8868
1973.000000 0.8867 0.8866 0.8865 0.8864 0.8863
1978.000000 0.8862 0.8861 0.8860 0.8859 0.8858
1983.000000 0.8857 0.8858 0.8858 0.8858 0.8859
1988.000000 0.8859 0.8859 0.8860 0.8860 0.8860
1993.000000 0.8861 0.8861 0.8861 0.8861 0.8861
1998.000000 0.8861 0.8861 0.8861 0.8860 0.8859
2003.000000 0.8858 0.8857 0.8856 0.8855 0.8853
2008.000000 0.8852 0.8851 0.8850 0.8849 0.8848
2013.000000 0.8846 0.8845 0.8844 0.8843 0.8841
2018.000000 0.8840 0.8838 0.8836 0.8834 0.8832
2023.000000 0.8830 0.8828 0.8826 0.8824 0.8821
2028.000000 0.8819 0.8817 0.8815 0.8813 0.8811
2033.000000 0.8809 0.8807 0.8805 0.8803 0.8801
2038.000000 0.8799 0.8796 0.8794 0.8791 0.8789
2043.000000 0.8787 0.8785 0.8782 0.8780 0.8777
2048.000000 0.8775 0.8772 0.8770 0.8767 0.8765
2053.000000 0.8763 0.8761 0.8759 0.8757 0.8755
2058.000000 0.8754 0.8752 0.8751 0.8749 0.8748
2063.000000 0.8746 0.8745 0.8743 0.8742 0.8741
2068.000000 0.8740 0.8739 0.8739 0.8739 0.8739
2073.000000 0.8738 0.8738 0.8738 0.8738 0.8738
2078.000000 0.8738 0.8737 0.8737 0.8737 0.8737
2083.000000 0.8736 0.8736 0.8736 0.8737 0.8740
2088.000000 0.8743 0.8746 0.8749 0.8752 0.8755
2093.000000 0.8758 0.8761 0.8764 0.8767 0.8770
2098.000000 0.8773 0.8776 0.8779 0.8782 0.8785
2103.000000 0.8788 0.8791 0.8794 0.8797 0.8800
2108.000000 0.8803 0.8806 0.8809 0.8810 0.8811
2113.000000 0.8812 0.8813 0.8811 0.8810 0.8805
2118.000000 0.8800 0.8795 0.8790 0.8785 0.8780
2123.000000 0.8774 0.8769 0.8761 0.8753 0.8745
2128.000000 0.8738 0.8730 0.8722 0.8714 0.8706
2133.000000 0.8693 0.8681 0.8668 0.8655 0.8647
2138.000000 0.8640 0.8635 0.8631 0.8631 0.8632
2143.000000 0.8637 0.8643 0.8648 0.8654 0.8660
2148.000000 0.8666 0.8675 0.8684 0.8693 0.8702
2153.000000 0.8711 0.8720 0.8728 0.8736 0.8742
2158.000000 0.8748 0.8753 0.8759 0.8760 0.8762
2163.000000 0.8763 0.8765 0.8767 0.8770 0.8773
2168.000000 0.8776 0.8778 0.8781 0.8783 0.8786
2173.000000 0.8788 0.8791 0.8793 0.8796 0.8798
2178.000000 0.8801 0.8803 0.8806 0.8807 0.8808
2183.000000 0.8809 0.8810 0.8811 0.8813 0.8814
2188.000000 0.8815 0.8816 0.8818 0.8819 0.8820
2193.000000 0.8821 0.8822 0.8823 0.8825 0.8826
2198.000000 0.8827 0.8828 0.8830 0.8831 0.8832
2203.000000 0.8833 0.8835 0.8836 0.8837 0.8838
2208.000000 0.8840 0.8841 0.8842 0.8842 0.8843
2213.000000 0.8844 0.8845 0.8846 0.8847 0.8848
2218.000000 0.8849 0.8849 0.8850 0.8851 0.8852
2223.000000 0.8852 0.8852 0.8851 0.8851 0.8850
2228.000000 0.8850 0.8849 0.8849 0.8848 0.8848
2233.000000 0.8847 0.8847 0.8846 0.8846 0.8845
2238.000000 0.8845 0.8843 0.8842 0.8839 0.8837
2243.000000 0.8835 0.8833 0.8830 0.8828 0.8826
2248.000000 0.8824 0.8821 0.8819 0.8815 0.8812
2253.000000 0.8809 0.8806 0.8803 0.8800 0.8797
2258.000000 0.8795 0.8793 0.8791 0.8789 0.8787
2263.000000 0.8785 0.8783 0.8781 0.8780 0.8779
2268.000000 0.8779 0.8779 0.8779 0.8779 0.8780
2273.000000 0.8780 0.8781 0.8781 0.8782 0.8783
2278.000000 0.8784 0.8786 0.8789 0.8791 0.8794
2283.000000 0.8796 0.8798 0.8800 0.8803 0.8805
2288.000000 0.8807 0.8809 0.8812 0.8814 0.8816
2293.000000 0.8818 0.8820 0.8822 0.8825 0.8827
2298.000000 0.8829 0.8831 0.8833 0.8833 0.8833
2303.000000 0.8833 0.8833 0.8832 0.8832 0.8832
2308.000000 0.8832 0.8832 0.8832 0.8832 0.8832
2313.000000 0.8831 0.8831 0.8830 0.8829 0.8828
2318.000000 0.8827 0.8826 0.8825 0.8824 0.8823
2323.000000 0.8822 0.8822 0.8820 0.8819 0.8818
2328.000000 0.8818 0.8816 0.8814 0.8811 0.8809
2333.000000 0.8807 0.8805 0.8802 0.8800 0.8798
2338.000000 0.8796 0.8793 0.8791 0.8789 0.8787
2343.000000 0.8784 0.8782 0.8780 0.8778 0.8775
2348.000000 0.8773 0.8770 0.8768 0.8764 0.8760
2353.000000 0.8755 0.8751 0.8747 0.8743 0.8739
2358.000000 0.8735 0.8731 0.8727 0.8722 0.8718
2363.000000 0.8713 0.8708 0.8698 0.8688 0.8678
2368.000000 0.8668 0.8658 0.8649 0.8639 0.8629
2373.000000 0.8619 0.8609 0.8599 0.8590 0.8577
2378.000000 0.8565 0.8549 0.8533 0.8517 0.8501
2383.000000 0.8485 0.8469 0.8448 0.8427 0.8405
2388.000000 0.8383 0.8360 0.8338 0.8316 0.8294
2393.000000 0.8264 0.8234 0.8197 0.8161 0.8096
2398.000000 0.8031 0.7978 0.7926 0.7912 0.7898
2403.000000 0.7893 0.7889 0.7885 0.7882 0.7885
2408.000000 0.7904 0.7894 0.7901 0.7927 0.7954
2413.000000 0.8022 0.8090 0.8158 0.8227 0.8295
2418.000000 0.8363 0.8431 0.8499 0.8567 0.8635
2423.000000 0.8691 0.8747 0.8778 0.8809 0.8819
2428.000000 0.8830 0.8838 0.8846 0.8852 0.8858
2433.000000 0.8862 0.8867 0.8870 0.8873 0.8876
2438.000000 0.8879 0.8879 0.8879 0.8879 0.8880
2443.000000 0.8880 0.8881 0.8881 0.8882 0.8882
2448.000000 0.8883 0.8883 0.8883 0.8883 0.8884
2453.000000 0.8884 0.8884 0.8884 0.8885 0.8885
2458.000000 0.8886 0.8886 0.8886 0.8886 0.8886
2463.000000 0.8886 0.8886 0.8886 0.8886 0.8886
2468.000000 0.8886 0.8886 0.8886 0.8886 0.8886
2473.000000 0.8886 0.8886 0.8886 0.8886 0.8886
2478.000000 0.8886 0.8886 0.8886 0.8885 0.8885
2483.000000 0.8884 0.8884 0.8883 0.8883 0.8883
