##TITLE=2-PROPENAMIDE, 2-METHYL-
##JCAMP-DX=4.24
##DATA TYPE=INFRARED SPECTRUM
##CLASS=COBLENTZ III
##ORIGIN=DOW CORNING CORP.
##OWNER=COBLENTZ SOCIETY
Collection (C) 2018 copyright by the U.S. Secretary of Commerce
on behalf of the United States of America. All rights reserved.
##DATE=1965/10/08
##NAMES=2-methylacrylamide
METHACRYLAMIDE
##CAS REGISTRY NO=79-39-0
##MOLFORM=C4 H7 N O
##SOURCE REFERENCE=COBLENTZ NO. 4286
##$NIST SOURCE=COBLENTZ
##$NIST IMAGE=cob4286
##SPECTROMETER/DATA SYSTEM=PERKIN-ELMER 521 (GRATING)
##INSTRUMENT PARAMETERS=FILTERS AT 3150, 2500, 2000, 1150, 700, 410; GRATING CHANGES AT 2000, 630 CM^-^1
##STATE=SOLID (SPLIT MULL, FLUOROLUBE FOR 3800-1300 AND NUJOL FOR 1300-250 CM ^-^1)
##SAMPLING PROCEDURE=TRANSMISSION
##RESOLUTION=4
##DATA PROCESSING=DIGITIZED BY NIST FROM HARD COPY (FROM TWO SEGMENTS)
##XUNITS=1/CM
##YUNITS=TRANSMITTANCE
##XFACTOR=1.000000
##YFACTOR=1
##DELTAX=1.025644
##FIRSTX=247.179
##LASTX=3798.99
##FIRSTY=0.682
##MAXX=3798.99
##MINX=247.179
##MAXY=0.968
##MINY=0.026
##NPOINTS=3464
##XYDATA=(X++(Y..Y))
247.179000 0.6820 0.6890 0.6910 0.6920 0.6960
252.307222 0.7100 0.7200 0.7240 0.7240 0.7399
257.435443 0.7470 0.7580 0.7610 0.7660 0.7760
262.563665 0.7939 0.7970 0.8010 0.8109 0.8130
267.691887 0.8170 0.8220 0.8310 0.8330 0.8350
272.820108 0.8420 0.8440 0.8460 0.8490 0.8510
277.948330 0.8520 0.8550 0.8560 0.8560 0.8570
283.076552 0.8570 0.8590 0.8590 0.8590 0.8600
288.204774 0.8600 0.8600 0.8590 0.8570 0.8530
293.332995 0.8510 0.8490 0.8410 0.8370 0.8310
298.461217 0.8230 0.8040 0.7870 0.7830 0.7750
303.589439 0.7511 0.7331 0.7221 0.6971 0.6602
308.717660 0.6400 0.6270 0.6110 0.6000 0.5900
313.845882 0.5880 0.5900 0.5930 0.6010 0.6080
318.974104 0.6240 0.6340 0.6620 0.6920 0.7070
324.102325 0.7240 0.7459 0.7609 0.7939 0.8129
329.230547 0.8280 0.8410 0.8520 0.8700 0.8750
334.358769 0.8800 0.8890 0.8930 0.9000 0.9060
339.486990 0.9110 0.9130 0.9140 0.9140 0.9140
344.615212 0.9140 0.9140 0.9130 0.9130 0.9110
349.743434 0.9110 0.9110 0.9130 0.9170 0.9180
354.871655 0.9200 0.9240 0.9260 0.9290 0.9350
359.999877 0.9420 0.9470 0.9540 0.9570 0.9610
365.128099 0.9620 0.9640 0.9650 0.9650 0.9660
370.256321 0.9660 0.9680 0.9680 0.9680 0.9660
375.384542 0.9660 0.9660 0.9660 0.9650 0.9650
380.512764 0.9650 0.9660 0.9650 0.9650 0.9640
385.640986 0.9610 0.9610 0.9580 0.9580 0.9570
390.769207 0.9570 0.9570 0.9550 0.9540 0.9500
395.897429 0.9480 0.9470 0.9440 0.9420 0.9370
401.025651 0.9290 0.9220 0.9200 0.9170 0.9150
406.153872 0.9140 0.9140 0.9150 0.9170 0.9200
411.282094 0.9220 0.9290 0.9310 0.9320 0.9350
416.410316 0.9370 0.9400 0.9440 0.9510 0.9530
421.538537 0.9550 0.9570 0.9580 0.9600 0.9610
426.666759 0.9620 0.9620 0.9640 0.9650 0.9650
431.794981 0.9660 0.9660 0.9660 0.9660 0.9660
436.923203 0.9660 0.9660 0.9660 0.9660 0.9660
442.051424 0.9660 0.9660 0.9650 0.9650 0.9640
447.179646 0.9640 0.9640 0.9640 0.9620 0.9620
452.307868 0.9620 0.9620 0.9610 0.9600 0.9600
457.436089 0.9580 0.9570 0.9570 0.9550 0.9540
462.564311 0.9530 0.9530 0.9530 0.9510 0.9510
467.692533 0.9500 0.9480 0.9470 0.9470 0.9470
472.820754 0.9460 0.9460 0.9440 0.9440 0.9440
477.948976 0.9430 0.9430 0.9420 0.9420 0.9420
483.077198 0.9420 0.9420 0.9400 0.9400 0.9400
488.205419 0.9390 0.9370 0.9350 0.9320 0.9310
493.333641 0.9310 0.9290 0.9260 0.9250 0.9240
498.461863 0.9220 0.9210 0.9170 0.9110 0.9080
503.590085 0.9060 0.8970 0.8910 0.8890 0.8750
508.718306 0.8700 0.8570 0.8381 0.8310 0.8041
513.846528 0.7830 0.7640 0.7320 0.7080 0.6910
518.974750 0.6740 0.6620 0.6620 0.6670 0.6740
524.102971 0.6810 0.6890 0.7070 0.7220 0.7439
529.231193 0.7610 0.7759 0.7939 0.8129 0.8200
534.359415 0.8280 0.8340 0.8370 0.8380 0.8380
539.487636 0.8380 0.8370 0.8350 0.8340 0.8330
544.615858 0.8310 0.8280 0.8270 0.8270 0.8230
549.744080 0.8230 0.8150 0.8110 0.8050 0.7970
554.872301 0.7930 0.7860 0.7830 0.7760 0.7650
560.000523 0.7600 0.7441 0.7171 0.7080 0.6772
565.128745 0.6440 0.6010 0.5730 0.5680 0.5680
570.256966 0.5870 0.5930 0.5930 0.5731 0.5501
575.385188 0.5250 0.5140 0.5040 0.4950 0.4950
580.513410 0.5070 0.5180 0.5290 0.5429 0.5430
585.641632 0.5370 0.5350 0.5330 0.5240 0.5150
590.769853 0.5130 0.5000 0.4950 0.4860 0.4770
595.898075 0.4670 0.4640 0.4490 0.4440 0.4350
601.026297 0.4260 0.4150 0.4040 0.3970 0.3950
606.154518 0.3820 0.3800 0.3770 0.3710 0.3610
611.282740 0.3540 0.3460 0.3420 0.3370 0.3290
616.410962 0.3210 0.3200 0.3140 0.3100 0.3080
621.539183 0.3060 0.3030 0.2990 0.2950 0.2920
626.667405 0.2910 0.2880 0.2860 0.2880 0.2890
631.795627 0.2920 0.2950 0.2970 0.2990 0.3000
636.923848 0.3060 0.3070 0.3080 0.3080 0.3100
642.052070 0.3100 0.3110 0.3130 0.3140 0.3150
647.180292 0.3180 0.3200 0.3240 0.3320 0.3430
652.308514 0.3550 0.3650 0.3690 0.3790 0.3840
657.436735 0.3860 0.3880 0.3930 0.3950 0.3980
662.564957 0.4050 0.4080 0.4110 0.4130 0.4150
667.693179 0.4170 0.4190 0.4190 0.4200 0.4230
672.821400 0.4280 0.4340 0.4350 0.4370 0.4460
677.949622 0.4530 0.4560 0.4570 0.4590 0.4640
683.077844 0.4670 0.4710 0.4750 0.4780 0.4880
688.206065 0.4910 0.4990 0.5000 0.5100 0.5130
693.334287 0.5220 0.5250 0.5290 0.5350 0.5370
698.462509 0.5500 0.5570 0.5610 0.5650 0.5690
703.590730 0.5730 0.5760 0.5790 0.5870 0.5910
708.718952 0.5930 0.5980 0.6020 0.6050 0.6080
713.847174 0.6080 0.6090 0.6090 0.6090 0.6090
718.975396 0.6090 0.6090 0.6110 0.6160 0.6160
724.103617 0.6190 0.6260 0.6270 0.6300 0.6310
729.231839 0.6370 0.6400 0.6420 0.6440 0.6440
734.360061 0.6450 0.6450 0.6460 0.6480 0.6490
739.488282 0.6510 0.6520 0.6530 0.6550 0.6560
744.616504 0.6560 0.6570 0.6570 0.6600 0.6600
749.744726 0.6620 0.6630 0.6640 0.6700 0.6730
754.872947 0.6740 0.6750 0.6770 0.6770 0.6800
760.001169 0.6800 0.6780 0.6770 0.6770 0.6750
765.129391 0.6680 0.6630 0.6600 0.6460 0.6380
770.257612 0.6300 0.6040 0.5720 0.5620 0.5510
775.385834 0.5390 0.5180 0.5130 0.5000 0.4910
780.514056 0.4780 0.4750 0.4800 0.4990 0.5170
785.642277 0.5759 0.6159 0.6369 0.6619 0.6799
790.770499 0.6990 0.7180 0.7420 0.7600 0.7660
795.898721 0.7800 0.7930 0.7950 0.8109 0.8150
801.026943 0.8220 0.8230 0.8190 0.8160 0.8120
806.155164 0.8080 0.8000 0.7940 0.7761 0.7571
811.283386 0.7100 0.6820 0.6280 0.5900 0.5820
816.411608 0.5750 0.5620 0.5440 0.5261 0.5031
821.539829 0.4880 0.4710 0.4560 0.4560 0.4640
826.668051 0.4730 0.4770 0.5129 0.5718 0.6078
831.796273 0.6450 0.6840 0.6970 0.7150 0.7370
836.924494 0.7480 0.7640 0.7750 0.7820 0.7870
842.052716 0.7940 0.8040 0.8170 0.8220 0.8240
847.180938 0.8300 0.8330 0.8340 0.8370 0.8380
852.309159 0.8420 0.8460 0.8490 0.8520 0.8530
857.437381 0.8550 0.8560 0.8570 0.8570 0.8590
862.565603 0.8590 0.8560 0.8560 0.8560 0.8570
867.693825 0.8570 0.8590 0.8590 0.8590 0.8590
872.822046 0.8570 0.8560 0.8560 0.8560 0.8570
877.950268 0.8570 0.8590 0.8590 0.8590 0.8590
883.078490 0.8590 0.8590 0.8570 0.8560 0.8530
888.206711 0.8510 0.8490 0.8480 0.8480 0.8480
893.334933 0.8480 0.8460 0.8460 0.8460 0.8460
898.463155 0.8460 0.8460 0.8460 0.8460 0.8460
903.591376 0.8450 0.8440 0.8420 0.8420 0.8410
908.719598 0.8410 0.8400 0.8370 0.8340 0.8280
913.847820 0.8230 0.8170 0.8130 0.8110 0.8050
918.976041 0.7940 0.7860 0.7770 0.7610 0.7461
924.104263 0.7059 0.6350 0.6040 0.5650 0.5260
929.232485 0.4132 0.3082 0.2083 0.2050 0.2050
934.360706 0.2060 0.2090 0.2160 0.2270 0.2440
939.488928 0.2680 0.3109 0.3768 0.4368 0.4988
944.617150 0.5142 0.5881 0.6330 0.6840 0.7070
949.745372 0.7100 0.7080 0.6990 0.6850 0.6700
954.873593 0.6700 0.6780 0.6840 0.6970 0.7420
960.001815 0.7570 0.7750 0.7830 0.7940 0.7950
965.130037 0.7980 0.8010 0.8020 0.8050 0.8060
970.258258 0.8060 0.8080 0.8090 0.8110 0.8110
975.386480 0.8130 0.8170 0.8200 0.8220 0.8230
980.514702 0.8230 0.8240 0.8260 0.8260 0.8260
985.642923 0.8260 0.8260 0.8240 0.8220 0.8170
990.771145 0.8150 0.8120 0.8110 0.8040 0.8010
995.899367 0.8000 0.7980 0.7950 0.7930 0.7910
1001.027588 0.7800 0.7650 0.7540 0.7360 0.7081
1006.155810 0.6929 0.6620 0.6300 0.6300 0.6330
1011.284032 0.6330 0.6310 0.6300 0.6240 0.6240
1016.412254 0.6330 0.6480 0.6770 0.7250 0.7510
1021.540475 0.7800 0.8020 0.8170 0.8200 0.8260
1026.668697 0.8300 0.8310 0.8310 0.8310 0.8310
1031.796919 0.8300 0.8300 0.8300 0.8280 0.8280
1036.925140 0.8270 0.8270 0.8260 0.8240 0.8230
1042.053362 0.8230 0.8230 0.8240 0.8240 0.8240
1047.181584 0.8240 0.8230 0.8230 0.8200 0.8170
1052.309805 0.8160 0.8160 0.8130 0.8120 0.8110
1057.438027 0.8090 0.8050 0.8020 0.8020 0.8000
1062.566249 0.7980 0.7950 0.7940 0.7930 0.7830
1067.694470 0.7820 0.7800 0.7790 0.7770 0.7710
1072.822692 0.7600 0.7570 0.7550 0.7500 0.7420
1077.950914 0.7360 0.7320 0.7240 0.7140 0.7070
1083.079136 0.6950 0.6850 0.6730 0.6570 0.6530
1088.207357 0.6450 0.6330 0.6129 0.5600 0.5470
1093.335579 0.5330 0.5070 0.4820 0.4561 0.4311
1098.463801 0.4050 0.3948 0.1950 0.1820 0.1750
1103.592022 0.1420 0.1320 0.1320 0.1350 0.1460
1108.720244 0.1610 0.1801 0.2200 0.2330 0.2670
1113.848466 0.2990 0.3280 0.3619 0.4039 0.4269
1118.976687 0.4621 0.5062 0.6020 0.6090 0.6310
1124.104909 0.6530 0.6590 0.6750 0.6890 0.6930
1129.233131 0.7070 0.7150 0.7170 0.7180 0.7180
1134.361352 0.7180 0.7180 0.7200 0.7200 0.7200
1139.489574 0.7210 0.7210 0.7200 0.7200 0.7180
1144.617796 0.7170 0.7140 0.7100 0.7070 0.7040
1149.746017 0.7040 0.7020 0.7020 0.7000 0.6990
1154.874239 0.6970 0.6950 0.6910 0.6850 0.6820
1160.002461 0.6770 0.6730 0.6680 0.6660 0.6640
1165.130683 0.6620 0.6590 0.6570 0.6560 0.6550
1170.258904 0.6530 0.6530 0.6520 0.6510 0.6490
1175.387126 0.6460 0.6450 0.6440 0.6440 0.6410
1180.515348 0.6400 0.6400 0.6400 0.6400 0.6380
1185.643569 0.6350 0.6310 0.6300 0.6280 0.6170
1190.771791 0.6160 0.6150 0.6130 0.6060 0.6040
1195.900013 0.6010 0.5970 0.5950 0.5930 0.5900
1201.028234 0.5870 0.5860 0.5840 0.5820 0.5790
1206.156456 0.5730 0.5690 0.5660 0.5610 0.5600
1211.284678 0.5540 0.5480 0.5420 0.5390 0.5330
1216.412899 0.5250 0.5130 0.5060 0.4990 0.4860
1221.541121 0.4729 0.4550 0.4380 0.4130 0.3870
1226.669343 0.3550 0.3280 0.2771 0.2121 0.1641
1231.797565 0.1500 0.1480 0.1500 0.1620 0.1870
1236.925786 0.2060 0.2270 0.2729 0.3069 0.3569
1242.054008 0.3861 0.4130 0.4340 0.4560 0.4880
1247.182230 0.5000 0.5130 0.5220 0.5350 0.5370
1252.310451 0.5430 0.5510 0.5540 0.5550 0.5580
1257.438673 0.5600 0.5600 0.5600 0.5600 0.5600
1262.566895 0.5580 0.5580 0.5550 0.5540 0.5530
1267.695116 0.5530 0.5510 0.5510 0.5500 0.5500
1272.823338 0.5500 0.5500 0.5480 0.5480 0.5480
1277.951560 0.5460 0.5460 0.5440 0.5430 0.5430
1283.079781 0.5420 0.5420 0.5420 0.5420 0.5420
1288.208003 0.5420 0.5400 0.5400 0.5400 0.5400
1293.336225 0.5420 0.5430 0.5460 0.5510 0.5550
1298.464447 0.5640 0.5690 0.5720 0.5730 0.5750
1303.592668 0.5770 0.5800 0.5820 0.5830 0.5840
1308.720890 0.5840 0.5860 0.5860 0.5860 0.5860
1313.849112 0.5860 0.5860 0.5860 0.5860 0.5860
1318.977333 0.5840 0.5830 0.5830 0.5820 0.5820
1324.105555 0.5800 0.5790 0.5770 0.5760 0.5750
1329.233777 0.5730 0.5710 0.5680 0.5650 0.5620
1334.361998 0.5610 0.5510 0.5500 0.5470 0.5430
1339.490220 0.5390 0.5350 0.5260 0.5240 0.5240
1344.618442 0.5220 0.5220 0.5240 0.5240 0.5250
1349.746663 0.5260 0.5260 0.5250 0.5240 0.5220
1354.874885 0.5180 0.5140 0.5100 0.5060 0.5020
1360.003107 0.4810 0.4750 0.4560 0.4460 0.4131
1365.131328 0.3709 0.3258 0.2590 0.2410 0.2410
1370.259550 0.2660 0.2930 0.3220 0.3470 0.3710
1375.387772 0.3710 0.3710 0.3690 0.3580 0.3430
1380.515994 0.3100 0.2810 0.2460 0.2450 0.2460
1385.644215 0.2550 0.2661 0.2890 0.3140 0.3280
1390.772437 0.3530 0.3530 0.3510 0.3440 0.3370
1395.900659 0.3220 0.3139 0.2909 0.2619 0.2200
1401.028880 0.1950 0.1730 0.1620 0.1530 0.1510
1406.157102 0.1530 0.1550 0.1580 0.1660 0.1820
1411.285324 0.1880 0.1970 0.2040 0.2090 0.2160
1416.413545 0.2170 0.2190 0.2200 0.2270 0.2530
1421.541767 0.2800 0.2930 0.3140 0.3200 0.3260
1426.669989 0.3290 0.3320 0.3390 0.3510 0.3600
1431.798210 0.3710 0.3770 0.3870 0.4000 0.4160
1436.926432 0.4280 0.4380 0.4490 0.4520 0.4520
1442.054654 0.4490 0.4460 0.4450 0.4350 0.4051
1447.182876 0.3970 0.3869 0.3469 0.3060 0.2800
1452.311097 0.2460 0.2460 0.2590 0.2660 0.2780
1457.439319 0.2850 0.2971 0.3221 0.3540 0.3830
1462.567541 0.4040 0.4230 0.4350 0.4450 0.4640
1467.695762 0.4851 0.4990 0.5080 0.5210 0.5290
1472.823984 0.5510 0.5650 0.5720 0.5760 0.5870
1477.952206 0.6050 0.6090 0.6130 0.6170 0.6230
1483.080427 0.6300 0.6370 0.6380 0.6410 0.6420
1488.208649 0.6440 0.6440 0.6450 0.6450 0.6460
1493.336871 0.6460 0.6460 0.6460 0.6460 0.6450
1498.465092 0.6450 0.6440 0.6410 0.6400 0.6400
1503.593314 0.6380 0.6370 0.6350 0.6310 0.6300
1508.721536 0.6270 0.6230 0.6190 0.6190 0.6170
1513.849757 0.6170 0.6170 0.6170 0.6160 0.6160
1518.977979 0.6150 0.6130 0.6090 0.6040 0.6010
1524.106201 0.5980 0.5970 0.5950 0.5930 0.5900
1529.234423 0.5870 0.5860 0.5800 0.5750 0.5730
1534.362644 0.5720 0.5660 0.5610 0.5500 0.5480
1539.490866 0.5470 0.5470 0.5430 0.5360 0.5350
1544.619088 0.5290 0.5260 0.5220 0.5150 0.5100
1549.747309 0.5080 0.5060 0.5020 0.5000 0.4990
1554.875531 0.4950 0.4890 0.4820 0.4780 0.4750
1560.003753 0.4750 0.4700 0.4670 0.4620 0.4590
1565.131974 0.4550 0.4450 0.4440 0.4340 0.4270
1570.260196 0.4240 0.4119 0.3970 0.3870 0.3840
1575.388418 0.3760 0.3680 0.3620 0.3600 0.3550
1580.516639 0.3390 0.3330 0.3240 0.3140 0.2970
1585.644861 0.2800 0.2550 0.2310 0.2170 0.1871
1590.773083 0.1679 0.1419 0.1070 0.1000 0.0920
1595.901305 0.0740 0.0590 0.0450 0.0370 0.0330
1601.029526 0.0270 0.0260 0.0260 0.0270 0.0280
1606.157748 0.0330 0.0380 0.0460 0.0600 0.1019
1611.285970 0.1421 0.1571 0.1881 0.2081 0.2381
1616.414191 0.2770 0.2920 0.3020 0.3110 0.3110
1621.542413 0.3100 0.3070 0.3060 0.3000 0.2930
1626.670635 0.2860 0.2820 0.2800 0.2740 0.2630
1631.798856 0.2600 0.2560 0.2490 0.2480 0.2400
1636.927078 0.2270 0.2160 0.2090 0.1820 0.1710
1642.055300 0.1570 0.1550 0.1550 0.1570 0.1580
1647.183521 0.1600 0.1570 0.1500 0.1470 0.1360
1652.311743 0.1209 0.1070 0.1030 0.0970 0.0850
1657.439965 0.0770 0.0600 0.0520 0.0460 0.0440
1662.568187 0.0440 0.0450 0.0460 0.0490 0.0510
1667.696408 0.0550 0.0600 0.0620 0.0680 0.0810
1672.824630 0.0991 0.1240 0.1280 0.1430 0.1550
1677.952852 0.1660 0.1830 0.2010 0.2110 0.2260
1683.081073 0.2371 0.2551 0.2770 0.2920 0.2990
1688.209295 0.3150 0.3260 0.3510 0.3580 0.3820
1693.337517 0.3881 0.4000 0.4090 0.4240 0.4350
1698.465738 0.4420 0.4660 0.4910 0.5020 0.5130
1703.593960 0.5251 0.5610 0.5730 0.5770 0.5900
1708.722182 0.6020 0.6160 0.6280 0.6310 0.6440
1713.850403 0.6490 0.6600 0.6630 0.6670 0.6780
1718.978625 0.6890 0.6910 0.6930 0.7080 0.7110
1724.106847 0.7130 0.7150 0.7240 0.7310 0.7390
1729.235068 0.7430 0.7460 0.7480 0.7580 0.7620
1734.363290 0.7650 0.7680 0.7730 0.7750 0.7770
1739.491512 0.7800 0.7820 0.7840 0.7880 0.7930
1744.619734 0.7930 0.7940 0.7950 0.7950 0.7950
1749.747955 0.7970 0.7980 0.8040 0.8080 0.8120
1754.876177 0.8120 0.8150 0.8160 0.8170 0.8190
1760.004399 0.8190 0.8200 0.8240 0.8300 0.8310
1765.132620 0.8310 0.8330 0.8340 0.8400 0.8420
1770.260842 0.8420 0.8450 0.8460 0.8480 0.8490
1775.389064 0.8490 0.8510 0.8510 0.8520 0.8530
1780.517285 0.8530 0.8530 0.8550 0.8550 0.8550
1785.645507 0.8550 0.8560 0.8560 0.8560 0.8560
1790.773729 0.8570 0.8590 0.8590 0.8600 0.8620
1795.901950 0.8630 0.8630 0.8630 0.8640 0.8640
1801.030172 0.8670 0.8670 0.8670 0.8670 0.8670
1806.158394 0.8680 0.8680 0.8680 0.8680 0.8680
1811.286616 0.8680 0.8680 0.8680 0.8680 0.8700
1816.414837 0.8710 0.8710 0.8710 0.8710 0.8710
1821.543059 0.8710 0.8710 0.8710 0.8700 0.8700
1826.671281 0.8700 0.8700 0.8700 0.8680 0.8680
1831.799502 0.8680 0.8700 0.8700 0.8700 0.8700
1836.927724 0.8700 0.8700 0.8700 0.8700 0.8680
1842.055946 0.8660 0.8660 0.8640 0.8630 0.8620
1847.184167 0.8620 0.8600 0.8600 0.8590 0.8570
1852.312389 0.8560 0.8550 0.8520 0.8490 0.8420
1857.440611 0.8380 0.8370 0.8340 0.8310 0.8200
1862.568832 0.8150 0.8120 0.8060 0.8050 0.8040
1867.697054 0.8040 0.8050 0.8080 0.8110 0.8230
1872.825276 0.8260 0.8280 0.8330 0.8340 0.8370
1877.953498 0.8380 0.8380 0.8380 0.8400 0.8400
1883.081719 0.8410 0.8410 0.8420 0.8450 0.8490
1888.209941 0.8510 0.8510 0.8520 0.8520 0.8550
1893.338163 0.8560 0.8560 0.8560 0.8560 0.8570
1898.466384 0.8590 0.8600 0.8620 0.8630 0.8630
1903.594606 0.8630 0.8640 0.8640 0.8640 0.8660
1908.722828 0.8660 0.8660 0.8660 0.8660 0.8660
1913.851049 0.8660 0.8660 0.8660 0.8660 0.8660
1918.979271 0.8660 0.8660 0.8660 0.8660 0.8660
1924.107493 0.8660 0.8640 0.8640 0.8640 0.8640
1929.235714 0.8640 0.8640 0.8640 0.8630 0.8630
1934.363936 0.8630 0.8630 0.8620 0.8620 0.8620
1939.492158 0.8620 0.8620 0.8620 0.8620 0.8600
1944.620379 0.8600 0.8600 0.8600 0.8600 0.8600
1949.748601 0.8600 0.8590 0.8590 0.8590 0.8590
1954.876823 0.8590 0.8590 0.8570 0.8570 0.8570
1960.005045 0.8570 0.8570 0.8570 0.8570 0.8570
1965.133266 0.8570 0.8570 0.8570 0.8570 0.8560
1970.261488 0.8560 0.8560 0.8550 0.8550 0.8550
1975.389710 0.8550 0.8550 0.8550 0.8560 0.8560
1980.517931 0.8560 0.8560 0.8560 0.8560 0.8550
1985.646153 0.8550 0.8550 0.8550 0.8550 0.8550
1990.774375 0.8550 0.8550 0.8530 0.8530 0.8520
1995.902596 0.8520 0.8520 0.8520 0.8520 0.8520
2001.030818 0.8525 0.8530 0.8545 0.8560 0.8576
2006.159040 0.8591 0.8611 0.8630 0.8635 0.8640
2011.287261 0.8640 0.8640 0.8640 0.8640 0.8640
2016.415483 0.8640 0.8640 0.8640 0.8640 0.8640
2021.543705 0.8640 0.8640 0.8640 0.8640 0.8640
2026.671927 0.8640 0.8640 0.8640 0.8640 0.8640
2031.800148 0.8640 0.8640 0.8640 0.8640 0.8640
2036.928370 0.8639 0.8634 0.8630 0.8630 0.8630
2042.056592 0.8630 0.8630 0.8630 0.8628 0.8623
2047.184813 0.8616 0.8606 0.8600 0.8600 0.8600
2052.313035 0.8600 0.8598 0.8593 0.8590 0.8590
2057.441257 0.8590 0.8590 0.8590 0.8590 0.8590
2062.569478 0.8590 0.8590 0.8590 0.8585 0.8575
2067.697700 0.8570 0.8570 0.8570 0.8570 0.8567
2072.825922 0.8562 0.8560 0.8560 0.8557 0.8552
2077.954143 0.8550 0.8550 0.8544 0.8534 0.8530
2083.082365 0.8530 0.8530 0.8530 0.8530 0.8530
2088.210587 0.8527 0.8522 0.8520 0.8520 0.8520
2093.338808 0.8520 0.8520 0.8520 0.8520 0.8520
2098.467030 0.8520 0.8520 0.8520 0.8520 0.8516
2103.595252 0.8511 0.8502 0.8492 0.8486 0.8481
2108.723474 0.8472 0.8462 0.8460 0.8460 0.8460
2113.851695 0.8460 0.8460 0.8460 0.8456 0.8451
2118.979917 0.8450 0.8450 0.8450 0.8450 0.8445
2124.108139 0.8440 0.8440 0.8440 0.8445 0.8450
2129.236360 0.8450 0.8450 0.8450 0.8450 0.8450
2134.364582 0.8450 0.8450 0.8450 0.8445 0.8440
2139.492804 0.8430 0.8420 0.8415 0.8410 0.8410
2144.621025 0.8410 0.8405 0.8400 0.8400 0.8398
2149.749247 0.8383 0.8368 0.8353 0.8339 0.8334
2154.877469 0.8330 0.8330 0.8328 0.8318 0.8309
2160.005690 0.8304 0.8300 0.8300 0.8297 0.8281
2165.133912 0.8269 0.8264 0.8257 0.8247 0.8239
2170.262134 0.8234 0.8230 0.8230 0.8230 0.8230
2175.390356 0.8230 0.8230 0.8228 0.8223 0.8217
2180.518577 0.8207 0.8195 0.8179 0.8170 0.8170
2185.646799 0.8166 0.8156 0.8146 0.8136 0.8130
2190.775021 0.8130 0.8128 0.8123 0.8118 0.8113
2195.903242 0.8110 0.8110 0.8110 0.8110 0.8105
2201.031464 0.8095 0.8090 0.8090 0.8087 0.8082
2206.159686 0.8080 0.8080 0.8080 0.8080 0.8080
2211.287907 0.8080 0.8080 0.8080 0.8080 0.8080
2216.416129 0.8074 0.8064 0.8060 0.8060 0.8066
2221.544351 0.8076 0.8083 0.8088 0.8090 0.8090
2226.672572 0.8090 0.8090 0.8086 0.8081 0.8080
2231.800794 0.8080 0.8080 0.8080 0.8080 0.8080
2236.929016 0.8080 0.8080 0.8080 0.8080 0.8080
2242.057238 0.8080 0.8072 0.8062 0.8060 0.8060
2247.185459 0.8060 0.8060 0.8060 0.8060 0.8060
2252.313681 0.8060 0.8060 0.8060 0.8060 0.8060
2257.441903 0.8060 0.8060 0.8060 0.8060 0.8060
2262.570124 0.8060 0.8060 0.8060 0.8060 0.8060
2267.698346 0.8055 0.8050 0.8050 0.8050 0.8045
2272.826568 0.8040 0.8040 0.8040 0.8040 0.8040
2277.954789 0.8040 0.8040 0.8040 0.8040 0.8040
2283.083011 0.8040 0.8040 0.8039 0.8028 0.8020
2288.211233 0.8020 0.8020 0.8020 0.8019 0.8014
2293.339454 0.8010 0.8010 0.8010 0.8010 0.8010
2298.467676 0.8010 0.8009 0.8004 0.8000 0.8000
2303.595898 0.8000 0.8000 0.8000 0.8000 0.7997
2308.724119 0.7987 0.7980 0.7980 0.7980 0.7980
2313.852341 0.7980 0.7980 0.7978 0.7973 0.7970
2318.980563 0.7970 0.7970 0.7970 0.7966 0.7956
2324.108785 0.7950 0.7950 0.7950 0.7950 0.7950
