##TITLE=Dithioxamide
##JCAMP-DX=4.24
##DATA TYPE=INFRARED SPECTRUM
##ORIGIN=EPA-IR VAPOR PHASE LIBRARY
##OWNER=SRD/NIST
Collection (C) 2018 copyright by the U.S. Secretary of Commerce
on behalf of the United States of America. All rights reserved.
##CAS REGISTRY NO=79-40-3
##MOLFORM=C 2 H 4 N 2 S 2
##$NIST SOURCE=MSDC-IR
##STATE=gas
##XUNITS=1/CM
##YUNITS=ABSORBANCE
##XFACTOR=1.
##YFACTOR=0.001
##DELTAX=3.85796
##FIRSTX=551.7
##LASTX=4000.7
##FIRSTY=7.2
##MAXX=4000.7
##MINX=551.688
##MAXY=0.02283
##MINY=0.0006058
##NPOINTS=895
##XYDATA=(X++(Y..Y))
551.688 7.2 6.35 5.52 4.75 4.15 3.6 3.15 2.85 2.62 2.59
590.268 2.55 2.35 2.24 2.19 2.11 2.05 1.99 1.87 1.84 1.89
628.847 1.87 1.83 1.75 1.71 1.74 1.7 1.68 1.69 1.63 1.61
667.427 1.65 1.69 1.71 1.66 1.64 1.68 1.67 1.62 1.63 1.6
706.006 1.55 1.57 1.63 1.61 1.56 1.62 1.66 1.58 1.54 1.52
744.586 1.5 1.48 1.48 1.49 1.47 1.47 1.5 1.5 1.49 1.51
783.165 1.52 1.51 1.52 1.49 1.46 1.49 1.49 1.54 1.61 1.6
821.745 1.68 1.84 1.91 2 2.17 2.42 2.8 3.25 3.74 4.23
860.324 4.52 4.51 4.45 4.41 4.11 3.47 2.83 2.41 2.19 2.06
898.904 2.01 2 1.95 1.98 1.97 1.92 1.92 1.96 1.97 1.93
937.484 1.92 2 2.06 2.06 2.05 2.03 2.06 2.08 2.07 2.07
976.063 2.06 2.11 2.17 2.19 2.23 2.32 2.38 2.44 2.54 2.62
1014.643 2.68 2.86 3.12 3.32 3.52 3.86 4.26 4.56 4.79 5.12
1053.222 5.39 5.54 5.62 5.63 5.52 5.32 5.24 5.15 5.11 5.07
1091.802 4.99 4.95 4.92 4.9 4.81 4.7 4.55 4.41 4.21 3.93
1130.381 3.68 3.45 3.25 3.07 2.87 2.66 2.56 2.55 2.48 2.27
1168.961 2.15 2.11 2.05 2.02 2.01 2 2.02 2.07 2.13 2.27
1207.540 2.52 2.88 3.27 3.6 4.03 4.53 5.03 5.33 5.3 5.14
1246.120 4.8 4.29 3.7 3.08 2.56 2.15 1.88 1.73 1.62 1.58
1284.699 1.54 1.57 1.63 1.7 1.8 1.92 2.05 2.21 2.4 2.63
1323.279 2.87 3.11 3.34 3.64 3.99 4.35 4.9 5.75 6.99 8.75
1361.859 11.13 14.09 17.24 20.08 22 22.74 22.17 20.29 17.35 13.74
1400.438 10.25 7.14 4.78 3.45 2.79 2.46 2.27 2.2 2.17 2.15
1439.018 2.14 2.15 2.12 2.05 1.98 1.92 1.85 1.8 1.77 1.74
1477.597 1.75 1.76 1.77 1.79 1.83 1.88 1.95 2.05 2.18 2.34
1516.177 2.57 2.91 3.42 4.22 5.42 7.12 9.51 12.73 16.24 18.89
1554.756 20.2 21.61 22.83 22.34 20.34 17.6 14.5 11.52 8.88 6.75
1593.336 5.13 3.98 3.23 2.71 2.34 2.11 1.98 1.88 1.81 1.78
1631.915 1.77 1.78 1.79 1.78 1.71 1.63 1.55 1.5 1.43 1.37
1670.495 1.32 1.29 1.28 1.26 1.24 1.24 1.23 1.22 1.24 1.27
1709.075 1.28 1.28 1.28 1.29 1.29 1.29 1.3 1.29 1.31 1.32
1747.654 1.31 1.31 1.3 1.29 1.32 1.35 1.37 1.39 1.42 1.44
1786.234 1.45 1.46 1.46 1.45 1.43 1.43 1.42 1.38 1.36 1.33
1824.813 1.3 1.27 1.26 1.28 1.28 1.27 1.26 1.25 1.25 1.24
1863.393 1.24 1.24 1.23 1.22 1.21 1.2 1.2 1.2 1.19 1.19
1901.972 1.19 1.18 1.16 1.17 1.17 1.17 1.15 1.12 1.13 1.14
1940.552 1.15 1.16 1.14 1.14 1.16 1.16 1.16 1.15 1.15 1.14
1979.131 1.13 1.14 1.13 1.12 1.1 1.09 1.08 1.06 1.02 0.9985
2017.711 0.9905 0.959 0.9318 0.9065 0.8514 0.7986 0.7619 0.7143 0.6634 0.6284
2056.291 0.6072 0.6058 0.6096 0.618 0.6487 0.69 0.7186 0.7344 0.7443 0.7617
2094.870 0.7818 0.7902 0.7888 0.7917 0.7963 0.7873 0.7698 0.7737 0.7914 0.7875
2133.450 0.7759 0.7767 0.7747 0.7761 0.7794 0.797 0.8201 0.8169 0.8183 0.836
2172.029 0.8228 0.8137 0.8362 0.8366 0.8288 0.8275 0.8172 0.8225 0.8188 0.8055
2210.609 0.8003 0.7924 0.8025 0.8158 0.8228 0.816 0.8019 0.8089 0.8071 0.8003
2249.188 0.8275 0.8358 0.8025 0.7913 0.8133 0.8115 0.7967 0.7998 0.799 0.787
2287.768 0.7857 0.8033 0.8146 0.803 0.7938 0.7942 0.7948 0.8215 0.8276 0.7927
2326.347 0.7888 0.7882 0.772 0.7728 0.7742 0.7684 0.7614 0.7752 0.7762 0.7522
2364.927 0.7388 0.7426 0.7479 0.7554 0.773 0.7624 0.7595 0.7902 0.8061 0.8027
2403.507 0.7951 0.7873 0.7967 0.8172 0.8124 0.805 0.8083 0.81 0.8213 0.8143
2442.086 0.8202 0.8177 0.8162 0.8268 0.8241 0.8271 0.8082 0.794 0.7916 0.7874
2480.666 0.7805 0.7815 0.7861 0.7894 0.7872 0.7741 0.7726 0.7785 0.7756 0.7605
2519.245 0.7592 0.7699 0.7817 0.7892 0.7901 0.795 0.8106 0.8117 0.7952 0.7913
2557.825 0.7955 0.7989 0.7848 0.7701 0.7731 0.7752 0.7788 0.789 0.8039 0.8091
2596.404 0.8083 0.8139 0.8132 0.7893 0.7749 0.8035 0.8063 0.783 0.7799 0.7811
2634.984 0.8015 0.8147 0.8101 0.8128 0.7978 0.7982 0.7994 0.7959 0.8033 0.8189
2673.563 0.8411 0.8434 0.831 0.8262 0.8503 0.8563 0.8547 0.8384 0.8516 0.8927
2712.143 0.8951 0.8825 0.8709 0.8707 0.8849 0.9052 0.8942 0.8938 0.877 0.8326
2750.722 0.8386 0.88 0.9046 0.907 0.9038 0.9033 0.9079 0.8967 0.8818 0.904
2789.302 0.9128 0.8936 0.8828 0.8922 0.9197 0.9348 0.9449 0.9736 0.9817 0.9703
2827.882 0.9729 0.9884 1 1.01 1.01 0.9914 1 1.01 1.01 1
2866.461 0.9807 0.9895 1 1.02 1.08 1.1 1.09 1.09 1.08 1.08
2905.041 1.07 1.07 1.09 1.08 1.05 1.05 1.02 1 0.9893 0.9741
2943.620 1 1 0.9954 1.03 1.02 1.01 0.9906 0.9642 0.9367 0.9624
2982.200 0.9846 0.9773 0.9866 0.9926 1 1.03 1.06 1.08 1.09 1.09
3020.779 1.11 1.1 1.1 1.13 1.15 1.14 1.13 1.12 1.12 1.11
3059.359 1.1 1.09 1.1 1.1 1.08 1.07 1.08 1.09 1.06 1.03
3097.938 1.02 1.03 1.05 1.04 1.03 1.04 1.04 1.01 1.02 1.04
3136.518 1.05 1.03 0.9887 0.9665 0.979 0.966 0.9481 0.9636 0.9666 0.9308
3175.098 0.9413 0.9653 0.95 0.9786 0.9976 0.9894 1.02 1.04 1.09 1.14
3213.677 1.14 1.18 1.2 1.19 1.18 1.23 1.27 1.27 1.31 1.38
3252.257 1.42 1.48 1.65 1.91 2.22 2.71 3.43 4.49 5.9 7.39
3290.836 8.77 9.97 10.92 11.36 11.19 10.51 9.41 8.14 6.87 5.73
3329.416 4.75 3.91 3.25 2.7 2.27 1.95 1.71 1.52 1.34 1.25
3367.995 1.24 1.22 1.15 1.12 1.14 1.18 1.17 1.15 1.14 1.14
3406.575 1.16 1.16 1.15 1.2 1.26 1.26 1.27 1.3 1.33 1.38
3445.154 1.42 1.46 1.57 1.73 1.88 2.16 2.56 3.08 3.84 4.82
3483.734 6.13 7.7 9.28 10.53 10.98 10.61 9.93 9.05 7.59 5.59
3522.314 3.79 2.64 2 1.6 1.35 1.21 1.13 1.09 1.07 1.04
3560.893 1.03 0.9932 0.9369 0.9368 0.9759 0.9719 0.8979 0.8821 0.9029 0.936
3599.473 0.9259 0.93 0.9522 0.8907 0.8438 0.87 0.9009 0.8985 0.922 0.9188
3638.052 0.9403 0.9548 0.9052 0.8917 0.88 0.8352 0.8655 0.9274 0.9291 0.9317
3676.632 0.9143 0.9167 0.9246 0.8834 0.8919 0.9098 0.8937 0.8732 0.8619 0.8574
3715.211 0.8542 0.8525 0.844 0.8184 0.8175 0.8894 0.8711 0.8346 0.8529 0.8402
3753.791 0.8892 0.8813 0.8348 0.8259 0.8169 0.8223 0.8496 0.867 0.8745 0.854
3792.370 0.8086 0.8306 0.8515 0.8454 0.8291 0.8256 0.8092 0.8106 0.8246 0.8268
3830.950 0.8141 0.7915 0.8592 0.9309 0.9011 0.8515 0.8367 0.819 0.8391 0.8206
3869.530 0.7857 0.8015 0.8159 0.8329 0.8386 0.8526 0.8376 0.8259 0.8387 0.8333
3908.109 0.8092 0.8332 0.85 0.8411 0.867 0.8319 0.8491 0.9108 0.8831 0.845
3946.689 0.8486 0.8608 0.8657 0.8601 0.8738 0.9015 0.9163 0.8785 0.8601 0.9143
3985.268 0.8916 0.8478 0.8462 0.8382 0.8655
##END=
