##TITLE=2-Methyl-1,2-propanediamine
##JCAMP-DX=4.24
$$ By DXEDIT 1.05 (RS McDonald)
##DATA TYPE=INFRARED SPECTRUM
##CLASS=COBLENTZ III
##ORIGIN=DOW CHEMICAL COMPANY
##OWNER=COPYRIGHT (C) 1988 by COBLENTZ SOCIETY INC.
Collection (C) 2018 copyright by the U.S. Secretary of Commerce
on behalf of the United States of America. All rights reserved.
##DATE=1964/11/13
##CAS REGISTRY NO=811-93-8
##MOLFORM=C4 H12 N2
##SOURCE REFERENCE=COBLENTZ NO. 06442
##$NIST SOURCE=COBLENTZ
##$NIST IMAGE=cob6442
##SPECTROMETER/DATA SYSTEM=DOW KBr FOREPRISM-GRATING
##INSTRUMENT PARAMETERS=BLAZED AT 3.5, 12.0, 20.0 MICRON AND CHANGED AT 5.0, 7.5, 14.9 MICRON
##STATE=LIQUID (NEAT)
##PATH LENGTH=CAPILLARY
##SAMPLING PROCEDURE=TRANSMISSION
##RESOLUTION=2
##DATA PROCESSING=DIGITIZED BY COBLENTZ SOCIETY (BATCH I) FROM HARD COPY
##XUNITS=1/CM
##YUNITS=TRANSMITTANCE
##XFACTOR=1
##YFACTOR=1
##DELTAX=1
##FIRSTX=3792
##LASTX=381
##FIRSTY=0.8925
##MAXX=3792
##MINX=381
##MAXY=0.9178
##MINY=0.0282
##NPOINTS=3412
##XYDATA=(X++(Y..Y))
3792.000000 0.8925 0.8925 0.8925 0.8925 0.8925
3787.000000 0.8925 0.8925 0.8925 0.8927 0.8927
3782.000000 0.8928 0.8928 0.8928 0.8928 0.8928
3777.000000 0.8928 0.8928 0.8928 0.8928 0.8927
3772.000000 0.8927 0.8927 0.8927 0.8925 0.8925
3767.000000 0.8925 0.8925 0.8925 0.8925 0.8924
3762.000000 0.8924 0.8924 0.8924 0.8923 0.8923
3757.000000 0.8923 0.8923 0.8921 0.8921 0.8921
3752.000000 0.8921 0.8921 0.8921 0.8920 0.8920
3747.000000 0.8920 0.8920 0.8918 0.8918 0.8918
3742.000000 0.8918 0.8918 0.8918 0.8917 0.8917
3737.000000 0.8917 0.8917 0.8916 0.8916 0.8916
3732.000000 0.8916 0.8915 0.8915 0.8915 0.8915
3727.000000 0.8914 0.8914 0.8913 0.8913 0.8913
3722.000000 0.8913 0.8912 0.8912 0.8911 0.8910
3717.000000 0.8909 0.8908 0.8906 0.8905 0.8904
3712.000000 0.8903 0.8902 0.8901 0.8900 0.8899
3707.000000 0.8898 0.8897 0.8895 0.8894 0.8890
3702.000000 0.8887 0.8883 0.8878 0.8875 0.8871
3697.000000 0.8868 0.8864 0.8860 0.8856 0.8852
3692.000000 0.8849 0.8845 0.8841 0.8835 0.8830
3687.000000 0.8824 0.8818 0.8813 0.8808 0.8802
3682.000000 0.8796 0.8790 0.8785 0.8778 0.8774
3677.000000 0.8770 0.8767 0.8763 0.8760 0.8756
3672.000000 0.8753 0.8749 0.8746 0.8742 0.8739
3667.000000 0.8735 0.8732 0.8730 0.8728 0.8727
3662.000000 0.8725 0.8725 0.8724 0.8721 0.8721
3657.000000 0.8720 0.8718 0.8718 0.8717 0.8715
3652.000000 0.8714 0.8713 0.8712 0.8711 0.8710
3647.000000 0.8708 0.8707 0.8704 0.8702 0.8700
3642.000000 0.8698 0.8696 0.8694 0.8692 0.8690
3637.000000 0.8687 0.8685 0.8683 0.8681 0.8678
3632.000000 0.8677 0.8674 0.8671 0.8668 0.8667
3627.000000 0.8664 0.8662 0.8659 0.8657 0.8654
3622.000000 0.8652 0.8649 0.8647 0.8644 0.8642
3617.000000 0.8639 0.8637 0.8634 0.8631 0.8625
3612.000000 0.8621 0.8617 0.8612 0.8607 0.8603
3607.000000 0.8598 0.8593 0.8588 0.8584 0.8578
3602.000000 0.8574 0.8568 0.8564 0.8559 0.8555
3597.000000 0.8550 0.8545 0.8540 0.8536 0.8531
3592.000000 0.8525 0.8521 0.8517 0.8512 0.8507
3587.000000 0.8501 0.8496 0.8489 0.8482 0.8475
3582.000000 0.8468 0.8461 0.8455 0.8448 0.8441
3577.000000 0.8434 0.8427 0.8420 0.8413 0.8406
3572.000000 0.8399 0.8392 0.8385 0.8378 0.8371
3567.000000 0.8364 0.8357 0.8349 0.8341 0.8333
3562.000000 0.8325 0.8317 0.8310 0.8302 0.8294
3557.000000 0.8286 0.8278 0.8270 0.8262 0.8254
3552.000000 0.8247 0.8238 0.8230 0.8221 0.8213
3547.000000 0.8204 0.8196 0.8187 0.8178 0.8169
3542.000000 0.8161 0.8153 0.8145 0.8137 0.8128
3537.000000 0.8119 0.8111 0.8103 0.8095 0.8086
3532.000000 0.8078 0.8068 0.8061 0.8051 0.8044
3527.000000 0.8035 0.8025 0.8017 0.8008 0.7999
3522.000000 0.7991 0.7982 0.7972 0.7964 0.7956
3517.000000 0.7947 0.7938 0.7928 0.7919 0.7911
3512.000000 0.7903 0.7894 0.7885 0.7874 0.7864
3507.000000 0.7853 0.7842 0.7831 0.7821 0.7810
3502.000000 0.7800 0.7789 0.7778 0.7768 0.7757
3497.000000 0.7746 0.7736 0.7724 0.7711 0.7698
3492.000000 0.7685 0.7671 0.7658 0.7646 0.7633
3487.000000 0.7619 0.7607 0.7594 0.7581 0.7568
3482.000000 0.7555 0.7542 0.7528 0.7515 0.7503
3477.000000 0.7489 0.7475 0.7461 0.7448 0.7434
3472.000000 0.7419 0.7406 0.7392 0.7378 0.7364
3467.000000 0.7350 0.7336 0.7321 0.7308 0.7294
3462.000000 0.7280 0.7265 0.7251 0.7236 0.7221
3457.000000 0.7206 0.7191 0.7175 0.7161 0.7145
3452.000000 0.7130 0.7115 0.7100 0.7084 0.7068
3447.000000 0.7053 0.7037 0.7021 0.7005 0.6989
3442.000000 0.6972 0.6957 0.6941 0.6921 0.6901
3437.000000 0.6876 0.6853 0.6828 0.6805 0.6781
3432.000000 0.6757 0.6733 0.6708 0.6686 0.6662
3427.000000 0.6641 0.6618 0.6596 0.6574 0.6551
3422.000000 0.6528 0.6507 0.6485 0.6456 0.6426
3417.000000 0.6383 0.6340 0.6297 0.6254 0.6210
3412.000000 0.6168 0.6125 0.6083 0.6041 0.5999
3407.000000 0.5956 0.5914 0.5777 0.5641 0.5562
3402.000000 0.5483 0.5409 0.5335 0.5259 0.5183
3397.000000 0.5102 0.5022 0.4886 0.4750 0.4676
3392.000000 0.4603 0.4541 0.4479 0.4427 0.4376
3387.000000 0.4323 0.4271 0.4216 0.4160 0.4117
3382.000000 0.4073 0.4042 0.4010 0.3982 0.3953
3377.000000 0.3930 0.3907 0.3891 0.3875 0.3857
3372.000000 0.3840 0.3797 0.3755 0.3712 0.3668
3367.000000 0.3640 0.3612 0.3590 0.3568 0.3546
3362.000000 0.3524 0.3504 0.3484 0.3466 0.3449
3357.000000 0.3434 0.3421 0.3412 0.3404 0.3397
3352.000000 0.3390 0.3387 0.3384 0.3380 0.3366
3347.000000 0.3378 0.3378 0.3388 0.3398 0.3421
3342.000000 0.3444 0.3472 0.3500 0.3537 0.3575
3337.000000 0.3593 0.3612 0.3626 0.3640 0.3654
3332.000000 0.3668 0.3680 0.3693 0.3704 0.3714
3327.000000 0.3718 0.3724 0.3729 0.3734 0.3732
3322.000000 0.3732 0.3730 0.3730 0.3727 0.3724
3317.000000 0.3720 0.3716 0.3712 0.3709 0.3699
3312.000000 0.3690 0.3678 0.3666 0.3645 0.3623
3307.000000 0.3595 0.3566 0.3547 0.3528 0.3510
3302.000000 0.3495 0.3478 0.3462 0.3447 0.3432
3297.000000 0.3416 0.3402 0.3387 0.3372 0.3362
3292.000000 0.3352 0.3342 0.3332 0.3327 0.3322
3287.000000 0.3318 0.3314 0.3309 0.3306 0.3305
3282.000000 0.3305 0.3305 0.3299 0.3312 0.3318
3277.000000 0.3328 0.3338 0.3349 0.3360 0.3386
3272.000000 0.3412 0.3437 0.3462 0.3488 0.3514
3267.000000 0.3542 0.3568 0.3597 0.3625 0.3656
3262.000000 0.3688 0.3718 0.3750 0.3794 0.3838
3257.000000 0.3889 0.3941 0.3986 0.4030 0.4062
3252.000000 0.4095 0.4127 0.4159 0.4184 0.4209
3247.000000 0.4227 0.4245 0.4262 0.4282 0.4300
3242.000000 0.4318 0.4336 0.4355 0.4368 0.4382
3237.000000 0.4392 0.4402 0.4412 0.4422 0.4431
3232.000000 0.4441 0.4451 0.4460 0.4470 0.4480
3227.000000 0.4490 0.4500 0.4510 0.4520 0.4529
3222.000000 0.4539 0.4549 0.4560 0.4573 0.4586
3217.000000 0.4599 0.4612 0.4626 0.4640 0.4653
3212.000000 0.4667 0.4680 0.4694 0.4704 0.4714
3207.000000 0.4722 0.4730 0.4738 0.4747 0.4755
3202.000000 0.4762 0.4771 0.4779 0.4787 0.4795
3197.000000 0.4803 0.4810 0.4821 0.4832 0.4844
3192.000000 0.4856 0.4868 0.4881 0.4893 0.4905
3187.000000 0.4927 0.4950 0.4979 0.5008 0.5037
3182.000000 0.5067 0.5100 0.5133 0.5170 0.5208
3177.000000 0.5245 0.5283 0.5320 0.5358 0.5396
3172.000000 0.5434 0.5471 0.5509 0.5547 0.5585
3167.000000 0.5623 0.5660 0.5706 0.5751 0.5798
3162.000000 0.5845 0.5892 0.5939 0.5980 0.6021
3157.000000 0.6054 0.6087 0.6120 0.6153 0.6186
3152.000000 0.6219 0.6256 0.6293 0.6340 0.6387
3147.000000 0.6433 0.6480 0.6517 0.6555 0.6583
3142.000000 0.6611 0.6639 0.6668 0.6696 0.6725
3137.000000 0.6751 0.6778 0.6805 0.6832 0.6858
3132.000000 0.6886 0.6911 0.6939 0.6965 0.6993
3127.000000 0.7017 0.7042 0.7064 0.7086 0.7108
3122.000000 0.7130 0.7151 0.7174 0.7196 0.7218
3117.000000 0.7240 0.7261 0.7278 0.7295 0.7311
3112.000000 0.7328 0.7345 0.7361 0.7378 0.7396
3107.000000 0.7411 0.7428 0.7446 0.7464 0.7481
3102.000000 0.7498 0.7515 0.7532 0.7542 0.7553
3097.000000 0.7562 0.7572 0.7582 0.7592 0.7601
3092.000000 0.7611 0.7621 0.7631 0.7640 0.7649
3087.000000 0.7658 0.7667 0.7675 0.7686 0.7695
3082.000000 0.7704 0.7712 0.7722 0.7732 0.7741
3077.000000 0.7748 0.7756 0.7762 0.7771 0.7778
3072.000000 0.7786 0.7793 0.7801 0.7808 0.7815
3067.000000 0.7821 0.7826 0.7831 0.7836 0.7840
3062.000000 0.7845 0.7849 0.7854 0.7858 0.7861
3057.000000 0.7864 0.7867 0.7868 0.7871 0.7874
3052.000000 0.7876 0.7878 0.7881 0.7882 0.7884
3047.000000 0.7885 0.7886 0.7887 0.7889 0.7890
3042.000000 0.7892 0.7892 0.7892 0.7892 0.7892
3037.000000 0.7892 0.7892 0.7892 0.7892 0.7889
3032.000000 0.7887 0.7882 0.7876 0.7871 0.7867
3027.000000 0.7861 0.7858 0.7853 0.7848 0.7841
3022.000000 0.7834 0.7825 0.7815 0.7805 0.7795
3017.000000 0.7785 0.7775 0.7764 0.7754 0.7741
3012.000000 0.7728 0.7700 0.7672 0.7628 0.7583
3007.000000 0.7525 0.7467 0.7394 0.7321 0.7251
3002.000000 0.7183 0.7124 0.7065 0.6990 0.6914
2997.000000 0.6726 0.6540 0.6465 0.6392 0.6271
2992.000000 0.6151 0.6000 0.5850 0.5740 0.5630
2987.000000 0.5490 0.5350 0.4851 0.4353 0.4066
2982.000000 0.3782 0.3478 0.3174 0.2869 0.2565
2977.000000 0.2261 0.1957 0.1724 0.1492 0.1434
2972.000000 0.1376 0.1199 0.1022 0.0819 0.0616
2967.000000 0.0561 0.0506 0.0465 0.0423 0.0399
2962.000000 0.0374 0.0355 0.0336 0.0318 0.0302
2957.000000 0.0299 0.0282 0.0297 0.0297 0.0300
2952.000000 0.0303 0.0379 0.0455 0.0626 0.0798
2947.000000 0.0868 0.0938 0.0976 0.1016 0.1048
2942.000000 0.1080 0.1107 0.1135 0.1161 0.1188
2937.000000 0.1206 0.1224 0.1229 0.1234 0.1237
2932.000000 0.1240 0.1227 0.1214 0.1194 0.1174
2927.000000 0.1150 0.1127 0.1113 0.1100 0.1096
2922.000000 0.1092 0.1092 0.1092 0.1177 0.1262
2917.000000 0.1309 0.1356 0.1376 0.1396 0.1414
2912.000000 0.1432 0.1450 0.1468 0.1483 0.1498
2907.000000 0.1505 0.1513 0.1512 0.1511 0.1512
2902.000000 0.1515 0.1517 0.1519 0.1521 0.1524
2897.000000 0.1526 0.1529 0.1532 0.1536 0.1549
2892.000000 0.1563 0.1633 0.1703 0.1773 0.1843
2887.000000 0.1913 0.1983 0.2053 0.2124 0.2194
2882.000000 0.2264 0.2334 0.2404 0.2467 0.2561
2877.000000 0.2531 0.2531 0.2497 0.2463 0.2398
2872.000000 0.2333 0.2267 0.2202 0.2135 0.2071
2867.000000 0.2006 0.1941 0.1912 0.1894 0.1883
2862.000000 0.1883 0.1960 0.2037 0.2145 0.2252
2857.000000 0.2334 0.2419 0.2434 0.2451 0.2477
2852.000000 0.2503 0.2558 0.2614 0.2727 0.2840
2847.000000 0.2906 0.2973 0.3013 0.3054 0.3119
2842.000000 0.3184 0.3257 0.3329 0.3384 0.3442
2837.000000 0.3500 0.3559 0.3618 0.3679 0.3759
2832.000000 0.3841 0.3914 0.3987 0.4044 0.4101
2827.000000 0.4162 0.4225 0.4345 0.4465 0.4585
2822.000000 0.4705 0.4824 0.4944 0.5064 0.5184
2817.000000 0.5267 0.5350 0.5426 0.5503 0.5577
2812.000000 0.5652 0.5703 0.5755 0.5827 0.5899
2807.000000 0.6012 0.6128 0.6193 0.6259 0.6328
2802.000000 0.6397 0.6522 0.6650 0.6750 0.6850
2797.000000 0.6938 0.7025 0.7118 0.7211 0.7250
2792.000000 0.7288 0.7325 0.7364 0.7401 0.7440
2787.000000 0.7468 0.7498 0.7524 0.7551 0.7575
2782.000000 0.7600 0.7615 0.7632 0.7648 0.7665
2777.000000 0.7681 0.7698 0.7711 0.7725 0.7738
2772.000000 0.7751 0.7764 0.7776 0.7789 0.7801
2767.000000 0.7811 0.7822 0.7826 0.7832 0.7836
2762.000000 0.7841 0.7846 0.7851 0.7855 0.7860
2757.000000 0.7865 0.7869 0.7874 0.7878 0.7881
2752.000000 0.7884 0.7886 0.7889 0.7891 0.7894
2747.000000 0.7896 0.7899 0.7901 0.7904 0.7906
2742.000000 0.7908 0.7911 0.7912 0.7915 0.7917
2737.000000 0.7918 0.7921 0.7922 0.7925 0.7926
2732.000000 0.7928 0.7930 0.7932 0.7934 0.7937
2727.000000 0.7940 0.7944 0.7948 0.7951 0.7955
2722.000000 0.7958 0.7961 0.7965 0.7968 0.7972
2717.000000 0.7975 0.7980 0.7983 0.7987 0.7994
2712.000000 0.8001 0.8011 0.8021 0.8032 0.8043
2707.000000 0.8054 0.8065 0.8075 0.8086 0.8097
2702.000000 0.8108 0.8118 0.8128 0.8140 0.8151
2697.000000 0.8161 0.8171 0.8183 0.8194 0.8205
2692.000000 0.8216 0.8225 0.8237 0.8248 0.8259
2687.000000 0.8271 0.8283 0.8294 0.8306 0.8317
2682.000000 0.8328 0.8340 0.8352 0.8363 0.8375
2677.000000 0.8386 0.8398 0.8407 0.8416 0.8424
2672.000000 0.8433 0.8441 0.8450 0.8458 0.8466
2667.000000 0.8474 0.8483 0.8491 0.8500 0.8508
2662.000000 0.8517 0.8525 0.8534 0.8544 0.8554
2657.000000 0.8563 0.8573 0.8583 0.8593 0.8602
2652.000000 0.8612 0.8621 0.8632 0.8641 0.8651
2647.000000 0.8660 0.8670 0.8677 0.8685 0.8692
2642.000000 0.8700 0.8707 0.8714 0.8721 0.8728
2637.000000 0.8736 0.8744 0.8751 0.8759 0.8766
2632.000000 0.8774 0.8781 0.8789 0.8796 0.8803
2627.000000 0.8810 0.8817 0.8823 0.8828 0.8834
2622.000000 0.8840 0.8845 0.8851 0.8857 0.8863
2617.000000 0.8868 0.8874 0.8878 0.8885 0.8891
2612.000000 0.8897 0.8902 0.8908 0.8913 0.8918
2607.000000 0.8921 0.8924 0.8925 0.8925 0.8927
2602.000000 0.8928 0.8928 0.8931 0.8932 0.8933
2597.000000 0.8935 0.8937 0.8939 0.8941 0.8943
2592.000000 0.8945 0.8946 0.8948 0.8950 0.8952
2587.000000 0.8954 0.8956 0.8958 0.8960 0.8961
2582.000000 0.8963 0.8965 0.8967 0.8970 0.8973
2577.000000 0.8975 0.8978 0.8981 0.8984 0.8987
2572.000000 0.8990 0.8993 0.8996 0.8998 0.9001
2567.000000 0.9004 0.9007 0.9010 0.9013 0.9015
2562.000000 0.9018 0.9018 0.9021 0.9021 0.9023
2557.000000 0.9023 0.9024 0.9025 0.9025 0.9027
2552.000000 0.9028 0.9028 0.9030 0.9031 0.9032
2547.000000 0.9033 0.9034 0.9035 0.9036 0.9037
2542.000000 0.9038 0.9039 0.9041 0.9042 0.9043
2537.000000 0.9044 0.9045 0.9046 0.9047 0.9048
2532.000000 0.9050 0.9051 0.9052 0.9053 0.9054
2527.000000 0.9055 0.9057 0.9058 0.9059 0.9060
2522.000000 0.9061 0.9062 0.9063 0.9064 0.9066
2517.000000 0.9067 0.9068 0.9068 0.9070 0.9071
2512.000000 0.9073 0.9074 0.9075 0.9075 0.9077
2507.000000 0.9078 0.9080 0.9080 0.9081 0.9082
2502.000000 0.9083 0.9084 0.9085 0.9086 0.9087
2497.000000 0.9088 0.9089 0.9090 0.9091 0.9092
2492.000000 0.9093 0.9094 0.9095 0.9095 0.9096
2487.000000 0.9097 0.9098 0.9099 0.9100 0.9101
2482.000000 0.9102 0.9103 0.9104 0.9105 0.9106
2477.000000 0.9107 0.9108 0.9109 0.9110 0.9110
2472.000000 0.9111 0.9112 0.9113 0.9114 0.9115
2467.000000 0.9116 0.9117 0.9118 0.9118 0.9120
2462.000000 0.9121 0.9121 0.9121 0.9121 0.9121
2457.000000 0.9120 0.9120 0.9120 0.9120 0.9118
2452.000000 0.9118 0.9118 0.9118 0.9118 0.9118
2447.000000 0.9118 0.9118 0.9118 0.9118 0.9117
2442.000000 0.9117 0.9117 0.9117 0.9116 0.9116
2437.000000 0.9116 0.9116 0.9115 0.9115 0.9115
2432.000000 0.9115 0.9115 0.9115 0.9115 0.9115
2427.000000 0.9115 0.9115 0.9115 0.9115 0.9115
2422.000000 0.9115 0.9115 0.9116 0.9116 0.9116
2417.000000 0.9116 0.9116 0.9116 0.9116 0.9116
2412.000000 0.9116 0.9116 0.9116 0.9116 0.9116
2407.000000 0.9115 0.9115 0.9114 0.9114 0.9113
2402.000000 0.9113 0.9112 0.9111 0.9110 0.9110
2397.000000 0.9109 0.9109 0.9108 0.9108 0.9107
2392.000000 0.9107 0.9106 0.9106 0.9105 0.9105
2387.000000 0.9104 0.9104 0.9103 0.9103 0.9103
2382.000000 0.9103 0.9102 0.9102 0.9101 0.9101
2377.000000 0.9100 0.9100 0.9099 0.9099 0.9099
2372.000000 0.9099 0.9099 0.9099 0.9099 0.9100
2367.000000 0.9100 0.9100 0.9100 0.9101 0.9101
2362.000000 0.9101 0.9101 0.9102 0.9102 0.9102
2357.000000 0.9103 0.9104 0.9105 0.9106 0.9107
2352.000000 0.9109 0.9110 0.9112 0.9113 0.9115
2347.000000 0.9116 0.9118 0.9118 0.9121 0.9125
2342.000000 0.9131 0.9137 0.9143 0.9150 0.9157
2337.000000 0.9164 0.9171 0.9175 0.9178 0.9178
2332.000000 0.9178 0.9170 0.9162 0.9147 0.9133
2327.000000 0.9113 0.9093 0.9075 0.9058 0.9053
2322.000000 0.9049 0.9049 0.9050 0.9051 0.9052
2317.000000 0.9052 0.9053 0.9053 0.9053 0.9053
2312.000000 0.9054 0.9054 0.9055 0.9055 0.9055
2307.000000 0.9055 0.9056 0.9056 0.9056 0.9055
2302.000000 0.9054 0.9053 0.9052 0.9051 0.9050
2297.000000 0.9048 0.9047 0.9046 0.9045 0.9044
2292.000000 0.9043 0.9042 0.9041 0.9040 0.9039
2287.000000 0.9039 0.9039 0.9039 0.9039 0.9039
2282.000000 0.9039 0.9039 0.9039 0.9039 0.9039
2277.000000 0.9039 0.9039 0.9039 0.9039 0.9039
2272.000000 0.9039 0.9039 0.9039 0.9039 0.9039
2267.000000 0.9039 0.9039 0.9039 0.9039 0.9039
2262.000000 0.9039 0.9039 0.9040 0.9040 0.9040
2257.000000 0.9040 0.9040 0.9040 0.9040 0.9040
2252.000000 0.9040 0.9039 0.9039 0.9039 0.9039
2247.000000 0.9039 0.9039 0.9039 0.9039 0.9039
2242.000000 0.9039 0.9038 0.9038 0.9038 0.9038
2237.000000 0.9038 0.9038 0.9038 0.9038 0.9038
2232.000000 0.9038 0.9037 0.9037 0.9037 0.9037
2227.000000 0.9037 0.9037 0.9037 0.9038 0.9038
2222.000000 0.9039 0.9039 0.9040 0.9040 0.9041
2217.000000 0.9042 0.9043 0.9043 0.9044 0.9044
2212.000000 0.9045 0.9045 0.9046 0.9046 0.9047
2207.000000 0.9047 0.9048 0.9048 0.9049 0.9049
2202.000000 0.9050 0.9050 0.9051 0.9051 0.9052
2197.000000 0.9052 0.9053 0.9053 0.9054 0.9054
2192.000000 0.9055 0.9056 0.9056 0.9056 0.9056
2187.000000 0.9056 0.9056 0.9056 0.9056 0.9056
2182.000000 0.9056 0.9056 0.9056 0.9056 0.9056
2177.000000 0.9056 0.9056 0.9056 0.9056 0.9056
2172.000000 0.9056 0.9056 0.9056 0.9056 0.9056
2167.000000 0.9055 0.9055 0.9055 0.9055 0.9055
2162.000000 0.9055 0.9055 0.9055 0.9055 0.9055
2157.000000 0.9055 0.9055 0.9055 0.9055 0.9055
2152.000000 0.9055 0.9055 0.9055 0.9055 0.9055
2147.000000 0.9055 0.9055 0.9054 0.9054 0.9053
2142.000000 0.9053 0.9052 0.9051 0.9050 0.9049
2137.000000 0.9047 0.9046 0.9045 0.9044 0.9043
2132.000000 0.9042 0.9041 0.9040 0.9038 0.9037
2127.000000 0.9036 0.9035 0.9034 0.9033 0.9031
2122.000000 0.9030 0.9028 0.9028 0.9027 0.9025
2117.000000 0.9024 0.9023 0.9021 0.9021 0.9020
2112.000000 0.9018 0.9017 0.9016 0.9015 0.9014
2107.000000 0.9012 0.9010 0.9008 0.9006 0.9004
2102.000000 0.9003 0.9001 0.8999 0.8997 0.8996
2097.000000 0.8994 0.8992 0.8990 0.8989 0.8987
2092.000000 0.8986 0.8984 0.8983 0.8981 0.8980
2087.000000 0.8978 0.8977 0.8975 0.8974 0.8971
2082.000000 0.8971 0.8971 0.8971 0.8970 0.8970
2077.000000 0.8970 0.8970 0.8968 0.8968 0.8968
2072.000000 0.8968 0.8968 0.8968 0.8968 0.8968
2067.000000 0.8967 0.8967 0.8966 0.8966 0.8966
2062.000000 0.8966 0.8965 0.8965 0.8965 0.8965
2057.000000 0.8965 0.8966 0.8966 0.8967 0.8967
2052.000000 0.8968 0.8968 0.8968 0.8968 0.8970
2047.000000 0.8970 0.8971 0.8971 0.8971 0.8971
2042.000000 0.8973 0.8973 0.8974 0.8974 0.8974
2037.000000 0.8974 0.8975 0.8975 0.8975 0.8975
2032.000000 0.8975 0.8975 0.8974 0.8973 0.8971
2027.000000 0.8971 0.8970 0.8968 0.8968 0.8967
2022.000000 0.8966 0.8965 0.8964 0.8963 0.8962
2017.000000 0.8961 0.8960 0.8959 0.8958 0.8957
2012.000000 0.8956 0.8955 0.8954 0.8953 0.8952
2007.000000 0.8952 0.8952 0.8952 0.8953 0.8953
2002.000000 0.8954 0.8954 0.8955 0.8955 0.8954
1997.000000 0.8953 0.8952 0.8951 0.8950 0.8949
1992.000000 0.8935 0.8912 0.8896 0.8880 0.8864
1987.000000 0.8849 0.8833 0.8832 0.8832 0.8834
1982.000000 0.8837 0.8839 0.8842 0.8844 0.8846
1977.000000 0.8849 0.8851 0.8852 0.8853 0.8855
1972.000000 0.8856 0.8857 0.8858 0.8860 0.8861
1967.000000 0.8862 0.8864 0.8865 0.8866 0.8867
1962.000000 0.8868 0.8870 0.8870 0.8871 0.8871
1957.000000 0.8871 0.8871 0.8873 0.8873 0.8873
1952.000000 0.8874 0.8874 0.8875 0.8875 0.8875
1947.000000 0.8875 0.8875 0.8877 0.8877 0.8878
1942.000000 0.8878 0.8878 0.8877 0.8875 0.8875
1937.000000 0.8874 0.8873 0.8871 0.8871 0.8870
1932.000000 0.8868 0.8868 0.8866 0.8865 0.8864
1927.000000 0.8863 0.8862 0.8861 0.8861 0.8862
1922.000000 0.8862 0.8862 0.8863 0.8863 0.8863
1917.000000 0.8864 0.8864 0.8864 0.8864 0.8865
1912.000000 0.8865 0.8865 0.8866 0.8867 0.8868
1907.000000 0.8870 0.8871 0.8871 0.8874 0.8875
1902.000000 0.8875 0.8878 0.8878 0.8881 0.8882
1897.000000 0.8883 0.8885 0.8886 0.8887 0.8889
1892.000000 0.8890 0.8891 0.8892 0.8893 0.8895
1887.000000 0.8896 0.8897 0.8898 0.8899 0.8900
1882.000000 0.8901 0.8903 0.8904 0.8905 0.8906
1877.000000 0.8907 0.8908 0.8910 0.8911 0.8912
1872.000000 0.8913 0.8915 0.8916 0.8917 0.8918
1867.000000 0.8920 0.8921 0.8921 0.8924 0.8925
1862.000000 0.8925 0.8927 0.8928 0.8930 0.8931
1857.000000 0.8932 0.8934 0.8935 0.8936 0.8938
1852.000000 0.8939 0.8939 0.8939 0.8939 0.8939
1847.000000 0.8939 0.8939 0.8939 0.8939 0.8939
1842.000000 0.8939 0.8939 0.8938 0.8938 0.8938
1837.000000 0.8938 0.8938 0.8938 0.8938 0.8938
1832.000000 0.8938 0.8938 0.8938 0.8937 0.8937
1827.000000 0.8937 0.8938 0.8938 0.8938 0.8938
1822.000000 0.8939 0.8939 0.8939 0.8939 0.8939
1817.000000 0.8940 0.8940 0.8940 0.8940 0.8941
1812.000000 0.8941 0.8941 0.8941 0.8942 0.8942
1807.000000 0.8942 0.8942 0.8943 0.8944 0.8945
1802.000000 0.8945 0.8946 0.8947 0.8948 0.8949
1797.000000 0.8950 0.8950 0.8951 0.8952 0.8953
1792.000000 0.8954 0.8955 0.8956 0.8956 0.8957
1787.000000 0.8958 0.8958 0.8958 0.8958 0.8958
1782.000000 0.8958 0.8957 0.8957 0.8957 0.8957
1777.000000 0.8957 0.8956 0.8956 0.8956 0.8956
