##TITLE=1,2-PROPANEDITHIOL
##JCAMP-DX=4.24
$$ By DXEDIT 1.05 (RS McDonald)
##DATA TYPE=INFRARED SPECTRUM
##CLASS=COBLENTZ III
##ORIGIN=WYANDOTTE CHEMICALS CORP.
##OWNER=COBLENTZ SOC.
Collection (C) 2018 copyright by the U.S. Secretary of Commerce
on behalf of the United States of America. All rights reserved.
##DATE=1964/03/12
##CAS REGISTRY NO=814-67-5
##MOLFORM=C3 H8 S2
##SOURCE REFERENCE=COBLENTZ NO. 05908
##$NIST SOURCE=COBLENTZ
##$NIST IMAGE=cob5908
##SPECTROMETER/DATA SYSTEM=BAIRD (GRATING)
##INSTRUMENT PARAMETERS=NaCl PRISM
##STATE=LIQUID (NEAT)
##PATH LENGTH=0.003 CM
##SAMPLING PROCEDURE=TRANSMISSION
##RESOLUTION=2
##DATA PROCESSING=DIGITIZED BY COBLENTZ SOCIETY (BATCH I) FROM HARD COPY
##XUNITS=1/CM
##YUNITS=TRANSMITTANCE
##XLABEL=Wavenumbers (cm-1)
##YLABEL=Transmittance
##XFACTOR=1
##YFACTOR=1
##DELTAX=1
##FIRSTX=4000
##LASTX=625
##FIRSTY=0.941
##MAXX=4000
##MINX=625
##MAXY=0.952
##MINY=0.1509
##NPOINTS=3376
##XYDATA=(X++(Y..Y))
4000.000000 0.9410 0.9411 0.9412 0.9414 0.9415
3995.000000 0.9417 0.9418 0.9418 0.9421 0.9421
3990.000000 0.9423 0.9424 0.9425 0.9427 0.9428
3985.000000 0.9430 0.9431 0.9433 0.9434 0.9435
3980.000000 0.9437 0.9438 0.9439 0.9440 0.9442
3975.000000 0.9443 0.9444 0.9444 0.9445 0.9445
3970.000000 0.9446 0.9446 0.9447 0.9447 0.9447
3965.000000 0.9447 0.9447 0.9447 0.9447 0.9448
3960.000000 0.9448 0.9448 0.9448 0.9448 0.9448
3955.000000 0.9449 0.9449 0.9449 0.9450 0.9450
3950.000000 0.9450 0.9451 0.9451 0.9451 0.9451
3945.000000 0.9451 0.9451 0.9451 0.9451 0.9451
3940.000000 0.9451 0.9451 0.9451 0.9450 0.9450
3935.000000 0.9450 0.9450 0.9449 0.9449 0.9449
3930.000000 0.9448 0.9448 0.9448 0.9447 0.9447
3925.000000 0.9447 0.9446 0.9446 0.9445 0.9445
3920.000000 0.9444 0.9444 0.9443 0.9443 0.9443
3915.000000 0.9442 0.9442 0.9442 0.9441 0.9441
3910.000000 0.9441 0.9440 0.9440 0.9440 0.9439
3905.000000 0.9439 0.9439 0.9438 0.9438 0.9438
3900.000000 0.9437 0.9437 0.9437 0.9436 0.9436
3895.000000 0.9436 0.9435 0.9435 0.9435 0.9435
3890.000000 0.9435 0.9435 0.9434 0.9434 0.9434
3885.000000 0.9433 0.9433 0.9433 0.9433 0.9433
3880.000000 0.9433 0.9434 0.9434 0.9435 0.9435
3875.000000 0.9436 0.9436 0.9437 0.9437 0.9438
3870.000000 0.9438 0.9439 0.9439 0.9440 0.9440
3865.000000 0.9441 0.9441 0.9442 0.9442 0.9443
3860.000000 0.9444 0.9444 0.9445 0.9446 0.9447
3855.000000 0.9448 0.9449 0.9450 0.9452 0.9453
3850.000000 0.9455 0.9457 0.9458 0.9460 0.9462
3845.000000 0.9463 0.9465 0.9466 0.9468 0.9468
3840.000000 0.9471 0.9473 0.9474 0.9475 0.9478
3835.000000 0.9478 0.9481 0.9483 0.9485 0.9486
3830.000000 0.9488 0.9490 0.9491 0.9493 0.9494
3825.000000 0.9495 0.9497 0.9498 0.9499 0.9501
3820.000000 0.9502 0.9503 0.9505 0.9506 0.9507
3815.000000 0.9509 0.9510 0.9511 0.9512 0.9513
3810.000000 0.9514 0.9514 0.9514 0.9514 0.9514
3805.000000 0.9513 0.9512 0.9511 0.9510 0.9508
3800.000000 0.9507 0.9505 0.9503 0.9500 0.9498
3795.000000 0.9495 0.9492 0.9489 0.9486 0.9483
3790.000000 0.9480 0.9475 0.9473 0.9470 0.9466
3785.000000 0.9463 0.9460 0.9456 0.9453 0.9450
3780.000000 0.9446 0.9443 0.9440 0.9436 0.9433
3775.000000 0.9430 0.9425 0.9423 0.9420 0.9416
3770.000000 0.9413 0.9410 0.9406 0.9403 0.9400
3765.000000 0.9396 0.9394 0.9391 0.9388 0.9386
3760.000000 0.9383 0.9381 0.9378 0.9378 0.9375
3755.000000 0.9374 0.9373 0.9371 0.9368 0.9368
3750.000000 0.9366 0.9364 0.9362 0.9361 0.9359
3745.000000 0.9357 0.9356 0.9354 0.9353 0.9351
3740.000000 0.9349 0.9348 0.9346 0.9345 0.9343
3735.000000 0.9341 0.9340 0.9338 0.9337 0.9335
3730.000000 0.9333 0.9331 0.9328 0.9328 0.9325
3725.000000 0.9325 0.9325 0.9324 0.9323 0.9323
3720.000000 0.9321 0.9321 0.9321 0.9321 0.9321
3715.000000 0.9321 0.9320 0.9320 0.9320 0.9320
3710.000000 0.9320 0.9320 0.9320 0.9320 0.9320
3705.000000 0.9320 0.9320 0.9320 0.9320 0.9320
3700.000000 0.9320 0.9320 0.9320 0.9320 0.9320
3695.000000 0.9320 0.9320 0.9320 0.9321 0.9321
3690.000000 0.9321 0.9321 0.9321 0.9321 0.9321
3685.000000 0.9321 0.9321 0.9321 0.9321 0.9321
3680.000000 0.9321 0.9321 0.9321 0.9321 0.9321
3675.000000 0.9321 0.9321 0.9321 0.9321 0.9320
3670.000000 0.9320 0.9320 0.9320 0.9320 0.9320
3665.000000 0.9318 0.9318 0.9318 0.9318 0.9318
3660.000000 0.9317 0.9317 0.9317 0.9317 0.9317
3655.000000 0.9317 0.9316 0.9316 0.9315 0.9315
3650.000000 0.9315 0.9314 0.9313 0.9313 0.9312
3645.000000 0.9311 0.9310 0.9308 0.9306 0.9304
3640.000000 0.9302 0.9300 0.9299 0.9297 0.9295
3635.000000 0.9293 0.9291 0.9289 0.9286 0.9283
3630.000000 0.9281 0.9278 0.9275 0.9271 0.9268
3625.000000 0.9265 0.9261 0.9258 0.9255 0.9251
3620.000000 0.9248 0.9245 0.9242 0.9238 0.9235
3615.000000 0.9231 0.9228 0.9224 0.9220 0.9216
3610.000000 0.9212 0.9208 0.9204 0.9199 0.9195
3605.000000 0.9191 0.9187 0.9182 0.9178 0.9174
3600.000000 0.9171 0.9167 0.9163 0.9159 0.9158
3595.000000 0.9156 0.9154 0.9152 0.9151 0.9149
3590.000000 0.9147 0.9145 0.9144 0.9142 0.9140
3585.000000 0.9138 0.9136 0.9134 0.9133 0.9133
3580.000000 0.9135 0.9138 0.9140 0.9142 0.9145
3575.000000 0.9147 0.9149 0.9152 0.9154 0.9157
3570.000000 0.9159 0.9162 0.9164 0.9167 0.9168
3565.000000 0.9171 0.9174 0.9177 0.9180 0.9182
3560.000000 0.9185 0.9187 0.9190 0.9192 0.9195
3555.000000 0.9197 0.9200 0.9202 0.9204 0.9207
3550.000000 0.9209 0.9212 0.9215 0.9217 0.9220
3545.000000 0.9221 0.9223 0.9224 0.9225 0.9228
3540.000000 0.9228 0.9231 0.9232 0.9234 0.9236
3535.000000 0.9237 0.9238 0.9240 0.9241 0.9243
3530.000000 0.9243 0.9244 0.9244 0.9245 0.9245
3525.000000 0.9243 0.9241 0.9239 0.9236 0.9234
3520.000000 0.9232 0.9230 0.9228 0.9225 0.9223
3515.000000 0.9221 0.9218 0.9217 0.9215 0.9213
3510.000000 0.9211 0.9209 0.9206 0.9204 0.9202
3505.000000 0.9200 0.9197 0.9195 0.9193 0.9191
3500.000000 0.9188 0.9186 0.9184 0.9182 0.9178
3495.000000 0.9177 0.9175 0.9173 0.9171 0.9168
3490.000000 0.9167 0.9165 0.9162 0.9160 0.9158
3485.000000 0.9157 0.9155 0.9153 0.9152 0.9150
3480.000000 0.9148 0.9146 0.9144 0.9142 0.9141
3475.000000 0.9139 0.9137 0.9135 0.9133 0.9131
3470.000000 0.9130 0.9128 0.9125 0.9125 0.9123
3465.000000 0.9121 0.9118 0.9117 0.9115 0.9114
3460.000000 0.9112 0.9110 0.9109 0.9109 0.9109
3455.000000 0.9109 0.9109 0.9109 0.9109 0.9110
3450.000000 0.9111 0.9112 0.9113 0.9114 0.9115
3445.000000 0.9116 0.9117 0.9118 0.9118 0.9120
3440.000000 0.9120 0.9121 0.9123 0.9125 0.9125
3435.000000 0.9128 0.9130 0.9132 0.9133 0.9135
3430.000000 0.9137 0.9139 0.9141 0.9143 0.9145
3425.000000 0.9147 0.9149 0.9151 0.9153 0.9155
3420.000000 0.9156 0.9158 0.9160 0.9162 0.9164
3415.000000 0.9166 0.9167 0.9168 0.9170 0.9171
3410.000000 0.9171 0.9174 0.9175 0.9175 0.9177
3405.000000 0.9178 0.9180 0.9181 0.9182 0.9183
3400.000000 0.9184 0.9186 0.9187 0.9188 0.9189
3395.000000 0.9190 0.9191 0.9193 0.9194 0.9195
3390.000000 0.9196 0.9197 0.9197 0.9197 0.9193
3385.000000 0.9190 0.9186 0.9183 0.9177 0.9171
3380.000000 0.9166 0.9161 0.9155 0.9148 0.9142
3375.000000 0.9135 0.9128 0.9121 0.9114 0.9107
3370.000000 0.9100 0.9093 0.9086 0.9078 0.9071
3365.000000 0.9065 0.9060 0.9055 0.9050 0.9044
3360.000000 0.9039 0.9034 0.9028 0.9023 0.9018
3355.000000 0.9013 0.9008 0.9003 0.8998 0.8992
3350.000000 0.8988 0.8983 0.8978 0.8973 0.8970
3345.000000 0.8968 0.8967 0.8966 0.8964 0.8963
3340.000000 0.8961 0.8959 0.8959 0.8959 0.8960
3335.000000 0.8962 0.8963 0.8965 0.8967 0.8968
3330.000000 0.8971 0.8971 0.8974 0.8975 0.8978
3325.000000 0.8980 0.8982 0.8984 0.8986 0.8988
3320.000000 0.8990 0.8991 0.8993 0.8995 0.8997
3315.000000 0.8999 0.9001 0.9003 0.9005 0.9007
3310.000000 0.9009 0.9011 0.9013 0.9015 0.9017
3305.000000 0.9018 0.9021 0.9023 0.9025 0.9027
3300.000000 0.9028 0.9031 0.9033 0.9035 0.9037
3295.000000 0.9039 0.9041 0.9043 0.9045 0.9047
3290.000000 0.9049 0.9051 0.9054 0.9056 0.9058
3285.000000 0.9060 0.9062 0.9064 0.9066 0.9068
3280.000000 0.9068 0.9071 0.9071 0.9073 0.9074
3275.000000 0.9075 0.9075 0.9078 0.9078 0.9080
3270.000000 0.9081 0.9082 0.9082 0.9083 0.9084
3265.000000 0.9085 0.9086 0.9087 0.9089 0.9090
3260.000000 0.9091 0.9092 0.9093 0.9093 0.9094
3255.000000 0.9095 0.9095 0.9095 0.9095 0.9095
3250.000000 0.9096 0.9096 0.9096 0.9096 0.9097
3245.000000 0.9097 0.9097 0.9097 0.9098 0.9098
3240.000000 0.9098 0.9098 0.9098 0.9098 0.9098
3235.000000 0.9098 0.9099 0.9099 0.9099 0.9099
3230.000000 0.9099 0.9100 0.9100 0.9100 0.9100
3225.000000 0.9100 0.9098 0.9097 0.9096 0.9094
3220.000000 0.9092 0.9090 0.9088 0.9086 0.9084
3215.000000 0.9082 0.9080 0.9077 0.9074 0.9070
3210.000000 0.9066 0.9063 0.9059 0.9055 0.9051
3205.000000 0.9047 0.9044 0.9042 0.9039 0.9036
3200.000000 0.9035 0.9034 0.9032 0.9031 0.9028
3195.000000 0.9028 0.9027 0.9025 0.9024 0.9023
3190.000000 0.9021 0.9020 0.9018 0.9017 0.9016
3185.000000 0.9015 0.9013 0.9012 0.9010 0.9009
3180.000000 0.9008 0.9007 0.9007 0.9006 0.9006
3175.000000 0.9006 0.9007 0.9007 0.9008 0.9008
3170.000000 0.9009 0.9009 0.9010 0.9010 0.9011
3165.000000 0.9011 0.9012 0.9012 0.9013 0.9013
3160.000000 0.9014 0.9014 0.9015 0.9015 0.9016
3155.000000 0.9016 0.9016 0.9016 0.9017 0.9018
3150.000000 0.9018 0.9018 0.9020 0.9021 0.9023
3145.000000 0.9024 0.9025 0.9025 0.9027 0.9028
3140.000000 0.9028 0.9031 0.9032 0.9033 0.9034
3135.000000 0.9035 0.9036 0.9037 0.9038 0.9038
3130.000000 0.9039 0.9039 0.9040 0.9040 0.9041
3125.000000 0.9042 0.9042 0.9042 0.9042 0.9043
3120.000000 0.9043 0.9044 0.9044 0.9045 0.9045
3115.000000 0.9045 0.9045 0.9046 0.9046 0.9047
3110.000000 0.9047 0.9048 0.9048 0.9048 0.9048
3105.000000 0.9048 0.9047 0.9046 0.9045 0.9044
3100.000000 0.9043 0.9042 0.9041 0.9040 0.9039
3095.000000 0.9038 0.9037 0.9036 0.9035 0.9034
3090.000000 0.9033 0.9033 0.9032 0.9031 0.9028
3085.000000 0.9025 0.9021 0.9018 0.9014 0.9010
3080.000000 0.9005 0.9001 0.8997 0.8993 0.8989
3075.000000 0.8984 0.8980 0.8975 0.8971 0.8966
3070.000000 0.8962 0.8958 0.8954 0.8949 0.8944
3065.000000 0.8938 0.8933 0.8927 0.8921 0.8916
3060.000000 0.8911 0.8905 0.8899 0.8894 0.8888
3055.000000 0.8883 0.8877 0.8871 0.8866 0.8860
3050.000000 0.8854 0.8849 0.8843 0.8838 0.8833
3045.000000 0.8827 0.8821 0.8816 0.8810 0.8804
3040.000000 0.8798 0.8792 0.8786 0.8778 0.8770
3035.000000 0.8763 0.8755 0.8747 0.8738 0.8730
3030.000000 0.8721 0.8714 0.8706 0.8698 0.8689
3025.000000 0.8678 0.8668 0.8658 0.8647 0.8635
3020.000000 0.8624 0.8613 0.8602 0.8591 0.8580
3015.000000 0.8566 0.8551 0.8535 0.8518 0.8497
3010.000000 0.8475 0.8452 0.8428 0.8404 0.8378
3005.000000 0.8354 0.8288 0.8212 0.8135 0.8039
3000.000000 0.7864 0.7689 0.7514 0.7339 0.7162
2995.000000 0.6988 0.6811 0.6637 0.6461 0.6286
2990.000000 0.6110 0.5933 0.5757 0.5581 0.5404
2985.000000 0.5227 0.5050 0.4874 0.4696 0.4519
2980.000000 0.4342 0.4165 0.3987 0.3809 0.3632
2975.000000 0.3455 0.3277 0.3099 0.2920 0.2742
2970.000000 0.2563 0.2384 0.2206 0.2027 0.1549
2965.000000 0.1731 0.1654 0.1578 0.1509 0.1509
2960.000000 0.1509 0.1509 0.1512 0.1519 0.1526
2955.000000 0.1546 0.1717 0.1887 0.2058 0.2229
2950.000000 0.2400 0.2572 0.2743 0.2914 0.3085
2945.000000 0.3257 0.3364 0.3436 0.3508 0.3566
2940.000000 0.3566 0.3566 0.3564 0.3564 0.3564
2935.000000 0.3564 0.3549 0.3492 0.3436 0.3379
2930.000000 0.3302 0.3222 0.3141 0.3060 0.2979
2925.000000 0.2898 0.2816 0.2734 0.2654 0.2572
2920.000000 0.2491 0.2409 0.2206 0.2255 0.2234
2915.000000 0.2215 0.2195 0.2189 0.2187 0.2184
2910.000000 0.2223 0.2334 0.2445 0.2556 0.2669
2905.000000 0.2782 0.2894 0.3008 0.3121 0.3234
2900.000000 0.3348 0.3462 0.3575 0.3689 0.3803
2895.000000 0.3916 0.4030 0.4144 0.4258 0.4372
2890.000000 0.4486 0.4600 0.4715 0.4829 0.4943
2885.000000 0.5058 0.5173 0.5288 0.5402 0.5623
2880.000000 0.5610 0.5616 0.5621 0.5626 0.5627
2875.000000 0.5628 0.5628 0.5620 0.5604 0.5589
2870.000000 0.5567 0.5530 0.5492 0.5454 0.5416
2865.000000 0.5378 0.5340 0.5302 0.5264 0.5226
2860.000000 0.5192 0.5164 0.5136 0.5112 0.5116
2855.000000 0.5118 0.5121 0.5123 0.5125 0.5127
2850.000000 0.5184 0.5274 0.5364 0.5470 0.5602
2845.000000 0.5734 0.5866 0.5999 0.6132 0.6264
2840.000000 0.6397 0.6530 0.6664 0.6797 0.6930
2835.000000 0.7062 0.7196 0.7330 0.7462 0.7589
2830.000000 0.7692 0.7796 0.7894 0.7894 0.7894
2825.000000 0.7894 0.7893 0.7893 0.7893 0.7882
2820.000000 0.7865 0.7850 0.7830 0.7807 0.7784
2815.000000 0.7761 0.7739 0.7715 0.7693 0.7669
2810.000000 0.7647 0.7624 0.7612 0.7603 0.7593
2805.000000 0.7593 0.7595 0.7597 0.7611 0.7633
2800.000000 0.7653 0.7694 0.7751 0.7810 0.7868
2795.000000 0.7925 0.7984 0.8043 0.8101 0.8158
2790.000000 0.8217 0.8275 0.8334 0.8392 0.8444
2785.000000 0.8496 0.8549 0.8559 0.8568 0.8577
2780.000000 0.8587 0.8596 0.8605 0.8615 0.8624
2775.000000 0.8633 0.8641 0.8649 0.8657 0.8664
2770.000000 0.8668 0.8674 0.8680 0.8685 0.8691
2765.000000 0.8696 0.8701 0.8707 0.8711 0.8716
2760.000000 0.8721 0.8725 0.8730 0.8734 0.8739
2755.000000 0.8743 0.8748 0.8751 0.8754 0.8757
2750.000000 0.8759 0.8762 0.8765 0.8768 0.8770
2745.000000 0.8771 0.8773 0.8773 0.8773 0.8774
2740.000000 0.8774 0.8774 0.8775 0.8775 0.8775
2735.000000 0.8775 0.8775 0.8774 0.8773 0.8770
2730.000000 0.8767 0.8764 0.8761 0.8758 0.8754
2725.000000 0.8749 0.8743 0.8736 0.8727 0.8717
2720.000000 0.8707 0.8698 0.8689 0.8681 0.8675
2715.000000 0.8668 0.8663 0.8657 0.8651 0.8645
2710.000000 0.8641 0.8636 0.8632 0.8628 0.8624
2705.000000 0.8621 0.8618 0.8600 0.8616 0.8615
2700.000000 0.8615 0.8617 0.8621 0.8624 0.8628
2695.000000 0.8633 0.8637 0.8642 0.8647 0.8652
2690.000000 0.8657 0.8661 0.8666 0.8671 0.8675
2685.000000 0.8680 0.8683 0.8687 0.8691 0.8694
2680.000000 0.8698 0.8702 0.8705 0.8709 0.8713
2675.000000 0.8716 0.8720 0.8721 0.8725 0.8727
2670.000000 0.8730 0.8733 0.8736 0.8739 0.8741
2665.000000 0.8744 0.8744 0.8745 0.8745 0.8745
2660.000000 0.8745 0.8745 0.8745 0.8745 0.8745
2655.000000 0.8745 0.8745 0.8744 0.8774 0.8741
2650.000000 0.8740 0.8738 0.8736 0.8734 0.8732
2645.000000 0.8728 0.8723 0.8718 0.8710 0.8702
2640.000000 0.8693 0.8683 0.8671 0.8661 0.8647
2635.000000 0.8633 0.8618 0.8605 0.8590 0.8568
2630.000000 0.8541 0.8515 0.8490 0.8466 0.8441
2625.000000 0.8420 0.8399 0.8377 0.8356 0.8334
2620.000000 0.8317 0.8302 0.8287 0.8274 0.8261
2615.000000 0.8249 0.8235 0.8221 0.8210 0.8200
2610.000000 0.8190 0.8180 0.8169 0.8161 0.8151
2605.000000 0.8141 0.8132 0.8122 0.8114 0.8104
2600.000000 0.8094 0.8084 0.8072 0.8061 0.8051
2595.000000 0.8040 0.8028 0.8017 0.8006 0.7995
2590.000000 0.7983 0.7971 0.7960 0.7941 0.7922
2585.000000 0.7905 0.7887 0.7868 0.7851 0.7832
2580.000000 0.7814 0.7778 0.7743 0.7708 0.7672
2575.000000 0.7639 0.7587 0.7525 0.7462 0.7382
2570.000000 0.7301 0.7219 0.7140 0.7058 0.6978
2565.000000 0.6897 0.6815 0.6735 0.6653 0.6571
2560.000000 0.6491 0.6408 0.6328 0.6246 0.6164
2555.000000 0.6083 0.6001 0.5919 0.5838 0.5756
2550.000000 0.5674 0.5591 0.5509 0.5427 0.5345
2545.000000 0.5262 0.5180 0.5097 0.5015 0.4932
2540.000000 0.4850 0.4767 0.4685 0.4601 0.4518
2535.000000 0.4435 0.4352 0.4269 0.4186 0.4103
2530.000000 0.4043 0.4026 0.4009 0.4005 0.4005
2525.000000 0.4004 0.4004 0.4004 0.4071 0.4166
2520.000000 0.4260 0.4356 0.4451 0.4546 0.4641
2515.000000 0.4736 0.4831 0.4927 0.5022 0.5118
2510.000000 0.5212 0.5309 0.5405 0.5500 0.5596
2505.000000 0.5691 0.5788 0.5884 0.5980 0.6076
2500.000000 0.6173 0.6269 0.6365 0.6461 0.6558
2495.000000 0.6655 0.6751 0.6849 0.6946 0.7043
2490.000000 0.7138 0.7186 0.7234 0.7269 0.7295
2485.000000 0.7321 0.7354 0.7386 0.7418 0.7451
2480.000000 0.7482 0.7512 0.7544 0.7575 0.7605
2475.000000 0.7636 0.7665 0.7694 0.7721 0.7747
2470.000000 0.7774 0.7801 0.7826 0.7854 0.7880
2465.000000 0.7905 0.7928 0.7951 0.7974 0.7997
2460.000000 0.8019 0.8043 0.8065 0.8087 0.8107
2455.000000 0.8128 0.8149 0.8169 0.8190 0.8211
2450.000000 0.8232 0.8253 0.8273 0.8292 0.8312
2445.000000 0.8332 0.8352 0.8366 0.8378 0.8390
2440.000000 0.8400 0.8410 0.8420 0.8431 0.8441
2435.000000 0.8451 0.8461 0.8471 0.8482 0.8487
2430.000000 0.8493 0.8498 0.8503 0.8508 0.8514
2425.000000 0.8518 0.8525 0.8534 0.8542 0.8550
2420.000000 0.8559 0.8568 0.8578 0.8588 0.8598
2415.000000 0.8608 0.8618 0.8628 0.8639 0.8649
2410.000000 0.8660 0.8670 0.8680 0.8689 0.8698
2405.000000 0.8707 0.8715 0.8723 0.8732 0.8740
2400.000000 0.8748 0.8756 0.8765 0.8773 0.8781
2395.000000 0.8789 0.8797 0.8803 0.8810 0.8816
2390.000000 0.8823 0.8828 0.8835 0.8842 0.8848
2385.000000 0.8855 0.8861 0.8867 0.8874 0.8881
2380.000000 0.8888 0.8894 0.8901 0.8908 0.8916
2375.000000 0.8923 0.8930 0.8937 0.8944 0.8950
2370.000000 0.8956 0.8962 0.8967 0.8971 0.8977
2365.000000 0.8982 0.8988 0.8993 0.8998 0.9003
2360.000000 0.9008 0.9014 0.9018 0.9024 0.9028
2355.000000 0.9034 0.9039 0.9044 0.9049 0.9054
2350.000000 0.9059 0.9064 0.9068 0.9073 0.9078
2345.000000 0.9083 0.9088 0.9093 0.9097 0.9102
2340.000000 0.9106 0.9111 0.9115 0.9120 0.9124
2335.000000 0.9125 0.9125 0.9124 0.9120 0.9117
2330.000000 0.9114 0.9110 0.9106 0.9103 0.9100
2325.000000 0.9096 0.9093 0.9089 0.9086 0.9083
2320.000000 0.9078 0.9075 0.9071 0.9068 0.9065
2315.000000 0.9061 0.9058 0.9055 0.9051 0.9047
2310.000000 0.9043 0.9040 0.9036 0.9033 0.9030
2305.000000 0.9028 0.9025 0.9024 0.9021 0.9020
2300.000000 0.9018 0.9016 0.9016 0.9016 0.9018
2295.000000 0.9023 0.9028 0.9033 0.9038 0.9043
2290.000000 0.9048 0.9052 0.9058 0.9063 0.9068
2285.000000 0.9074 0.9082 0.9089 0.9096 0.9104
2280.000000 0.9111 0.9118 0.9125 0.9134 0.9141
2275.000000 0.9149 0.9157 0.9164 0.9171 0.9178
2270.000000 0.9185 0.9190 0.9193 0.9195 0.9198
2265.000000 0.9200 0.9201 0.9203 0.9205 0.9207
2260.000000 0.9209 0.9212 0.9214 0.9216 0.9218
2255.000000 0.9223 0.9228 0.9233 0.9238 0.9242
2250.000000 0.9247 0.9252 0.9256 0.9261 0.9266
2245.000000 0.9271 0.9275 0.9280 0.9285 0.9290
2240.000000 0.9295 0.9296 0.9297 0.9298 0.9299
2235.000000 0.9299 0.9300 0.9301 0.9302 0.9302
2230.000000 0.9303 0.9303 0.9304 0.9305 0.9305
2225.000000 0.9304 0.9303 0.9302 0.9301 0.9300
2220.000000 0.9299 0.9298 0.9296 0.9295 0.9294
2215.000000 0.9293 0.9292 0.9291 0.9290 0.9289
2210.000000 0.9288 0.9287 0.9286 0.9285 0.9284
2205.000000 0.9283 0.9282 0.9282 0.9281 0.9281
2200.000000 0.9281 0.9281 0.9281 0.9281 0.9280
2195.000000 0.9280 0.9280 0.9280 0.9278 0.9278
2190.000000 0.9278 0.9278 0.9278 0.9278 0.9278
2185.000000 0.9277 0.9277 0.9277 0.9277 0.9277
2180.000000 0.9277 0.9277 0.9277 0.9277 0.9277
2175.000000 0.9277 0.9277 0.9277 0.9278 0.9278
2170.000000 0.9278 0.9278 0.9278 0.9278 0.9278
2165.000000 0.9278 0.9278 0.9278 0.9278 0.9278
2160.000000 0.9280 0.9281 0.9282 0.9283 0.9284
2155.000000 0.9285 0.9286 0.9287 0.9288 0.9289
2150.000000 0.9289 0.9290 0.9292 0.9296 0.9300
2145.000000 0.9304 0.9308 0.9312 0.9316 0.9320
2140.000000 0.9324 0.9328 0.9332 0.9336 0.9340
2135.000000 0.9344 0.9349 0.9355 0.9364 0.9374
2130.000000 0.9384 0.9394 0.9404 0.9414 0.9423
2125.000000 0.9433 0.9443 0.9450 0.9457 0.9464
2120.000000 0.9470 0.9477 0.9484 0.9490 0.9497
2115.000000 0.9504 0.9509 0.9513 0.9515 0.9516
2110.000000 0.9518 0.9518 0.9518 0.9518 0.9516
2105.000000 0.9512 0.9508 0.9504 0.9500 0.9496
2100.000000 0.9492 0.9488 0.9484 0.9481 0.9478
2095.000000 0.9475 0.9475 0.9474 0.9471 0.9471
2090.000000 0.9470 0.9468 0.9468 0.9467 0.9466
2085.000000 0.9464 0.9463 0.9462 0.9460 0.9459
2080.000000 0.9458 0.9458 0.9459 0.9459 0.9459
2075.000000 0.9459 0.9459 0.9459 0.9459 0.9460
2070.000000 0.9460 0.9460 0.9460 0.9460 0.9461
2065.000000 0.9461 0.9462 0.9462 0.9463 0.9465
2060.000000 0.9465 0.9466 0.9467 0.9468 0.9468
2055.000000 0.9468 0.9470 0.9471 0.9471 0.9471
2050.000000 0.9473 0.9474 0.9475 0.9475 0.9475
2045.000000 0.9477 0.9478 0.9478 0.9480 0.9480
2040.000000 0.9481 0.9483 0.9483 0.9484 0.9485
2035.000000 0.9486 0.9487 0.9488 0.9489 0.9490
2030.000000 0.9491 0.9492 0.9493 0.9494 0.9494
2025.000000 0.9496 0.9497 0.9498 0.9499 0.9500
2020.000000 0.9501 0.9502 0.9502 0.9503 0.9505
2015.000000 0.9506 0.9507 0.9507 0.9508 0.9509
2010.000000 0.9509 0.9510 0.9510 0.9510 0.9511
2005.000000 0.9511 0.9512 0.9512 0.9512 0.9513
2000.000000 0.9513 0.9513 0.9514 0.9514 0.9514
1995.000000 0.9514 0.9514 0.9514 0.9513 0.9513
1990.000000 0.9513 0.9513 0.9512 0.9512 0.9512
1985.000000 0.9511 0.9511 0.9511 0.9510 0.9510
1980.000000 0.9510 0.9509 0.9508 0.9507 0.9506
