##TITLE=Propene, 3-fluoro-
##JCAMP-DX=4.24
##DATA TYPE=INFRARED SPECTRUM
##CLASS=COBLENTZ
##ORIGIN=DOW CHEMICAL COMPANY
##OWNER=Copyright (C) 1987 by the Coblentz Society
Collection (C) 2018 copyright by the U.S. Secretary of Commerce
on behalf of the United States of America. All rights reserved.
##DATE=1964
##NAMES=3-fluoro-1-propene
ALLYL FLUORIDE
##CAS REGISTRY NO=818-92-8
##MOLFORM=C3 H5 F
##SOURCE REFERENCE=COBLENTZ NO. 8840
##$NIST SOURCE=COBLENTZ
##$NIST IMAGE=cob8840
##SPECTROMETER/DATA SYSTEM=DOW KBr FOREPRISM-GRATING
##INSTRUMENT PARAMETERS=GRATING CHANGED AT 5.0, 7.5, 15.0 MICRON
##STATE=GAS (65 mmHg, N2 ADDED, TOTAL PRESSURE 600 mmHg)
##PATH LENGTH=5 CM
##SAMPLING PROCEDURE=TRANSMISSION
##RESOLUTION=2
##DATA PROCESSING=DIGITIZED BY COBLENTZ SOCIETY (BATCH II) FROM HARD COPY
##XUNITS=1/CM
##YUNITS=TRANSMITTANCE
##XFACTOR=1.0
##YFACTOR=1
##FIRSTX=451
##LASTX=3800
##FIRSTY=0.8313
##MAXX=3800
##MINX=451
##MAXY=0.8895
##MINY=0.0263
##NPOINTS=3350
##XYDATA=(X++(Y..Y))
451.000000 0.8313 0.8311 0.8309 0.8307 0.8304
456.000000 0.8302 0.8300 0.8297 0.8295 0.8293
461.000000 0.8292 0.8290 0.8289 0.8287 0.8286
466.000000 0.8287 0.8290 0.8292 0.8295 0.8298
471.000000 0.8301 0.8305 0.8309 0.8314 0.8318
476.000000 0.8323 0.8327 0.8333 0.8338 0.8344
481.000000 0.8350 0.8353 0.8356 0.8360 0.8327
486.000000 0.8366 0.8369 0.8366 0.8363 0.8359
491.000000 0.8356 0.8352 0.8345 0.8334 0.8324
496.000000 0.8314 0.8304 0.8293 0.8281 0.8267
501.000000 0.8253 0.8239 0.8225 0.8211 0.8197
506.000000 0.8182 0.8164 0.8146 0.8128 0.8110
511.000000 0.8091 0.8073 0.8054 0.8035 0.8016
516.000000 0.7997 0.7978 0.7959 0.7940 0.7922
521.000000 0.7903 0.7884 0.7867 0.7850 0.7833
526.000000 0.7816 0.7803 0.7798 0.7792 0.7786
531.000000 0.7781 0.7775 0.7773 0.7779 0.7784
536.000000 0.7793 0.7773 0.7733 0.7722 0.7715
541.000000 0.7719 0.7725 0.7735 0.7744 0.7753
546.000000 0.7767 0.7344 0.6581 0.5817 0.5232
551.000000 0.5223 0.5208 0.6282 0.7127 0.7840
556.000000 0.7841 0.7844 0.7846 0.7849 0.7849
561.000000 0.7850 0.7856 0.7864 0.7872 0.7881
566.000000 0.7889 0.7899 0.7908 0.7918 0.7928
571.000000 0.7938 0.7951 0.7964 0.7977 0.7990
576.000000 0.8000 0.8018 0.8009 0.8005 0.7996
581.000000 0.7961 0.7913 0.7878 0.7841 0.7801
586.000000 0.7761 0.7722 0.7684 0.7651 0.7649
591.000000 0.7647 0.7645 0.7657 0.7676 0.7727
596.000000 0.7773 0.7800 0.7816 0.7801 0.7777
601.000000 0.7749 0.7578 0.7271 0.7061 0.7104
606.000000 0.7346 0.7522 0.7522 0.7389 0.7233
611.000000 0.7204 0.7177 0.7158 0.7170 0.7165
616.000000 0.7188 0.7223 0.7265 0.7335 0.7393
621.000000 0.7435 0.7478 0.7500 0.7514 0.7528
626.000000 0.7540 0.7540 0.7539 0.7538 0.7537
631.000000 0.7535 0.7532 0.7529 0.7526 0.7532
636.000000 0.7566 0.7599 0.7631 0.7635 0.7639
641.000000 0.7642 0.7642 0.7640 0.7638 0.7643
646.000000 0.7668 0.7703 0.7738 0.7773 0.7806
651.000000 0.7838 0.7869 0.7900 0.7928 0.7955
656.000000 0.7981 0.8008 0.8034 0.8057 0.8080
661.000000 0.8103 0.8126 0.8149 0.8169 0.8188
666.000000 0.8207 0.8226 0.8244 0.8258 0.8272
671.000000 0.8286 0.8300 0.8314 0.8329 0.8343
676.000000 0.8357 0.8371 0.8381 0.8388 0.8395
681.000000 0.8402 0.8409 0.8414 0.8420 0.8425
686.000000 0.8430 0.8433 0.8437 0.8440 0.8444
691.000000 0.8446 0.8448 0.8450 0.8451 0.8453
696.000000 0.8455 0.8457 0.8459 0.8462 0.8464
701.000000 0.8467 0.8470 0.8472 0.8475 0.8478
706.000000 0.8478 0.8479 0.8480 0.8480 0.8481
711.000000 0.8481 0.8482 0.8482 0.8483 0.8483
716.000000 0.8482 0.8480 0.8479 0.8477 0.8475
721.000000 0.8474 0.8472 0.8470 0.8469 0.8467
726.000000 0.8465 0.8464 0.8462 0.8461 0.8459
731.000000 0.8458 0.8456 0.8455 0.8454 0.8452
736.000000 0.8451 0.8449 0.8448 0.8450 0.8453
741.000000 0.8455 0.8457 0.8460 0.8462 0.8465
746.000000 0.8467 0.8470 0.8472 0.8474 0.8477
751.000000 0.8479 0.8483 0.8489 0.8494 0.8500
756.000000 0.8512 0.8511 0.8517 0.8523 0.8528
761.000000 0.8534 0.8540 0.8545 0.8551 0.8557
766.000000 0.8563 0.8569 0.8575 0.8581 0.8587
771.000000 0.8593 0.8599 0.8605 0.8611 0.8617
776.000000 0.8620 0.8621 0.8623 0.8624 0.8625
781.000000 0.8626 0.8627 0.8628 0.8629 0.8630
786.000000 0.8631 0.8632 0.8633 0.8632 0.8631
791.000000 0.8630 0.8629 0.8628 0.8627 0.8626
796.000000 0.8624 0.8623 0.8620 0.8614 0.8608
801.000000 0.8602 0.8596 0.8590 0.8584 0.8578
806.000000 0.8572 0.8567 0.8561 0.8555 0.8549
811.000000 0.8543 0.8537 0.8531 0.8525 0.8520
816.000000 0.8517 0.8514 0.8511 0.8507 0.8504
821.000000 0.8501 0.8498 0.8495 0.8492 0.8489
826.000000 0.8486 0.8484 0.8484 0.8485 0.8486
831.000000 0.8486 0.8487 0.8487 0.8488 0.8489
836.000000 0.8491 0.8493 0.8495 0.8497 0.8499
841.000000 0.8501 0.8503 0.8505 0.8504 0.8502
846.000000 0.8500 0.8498 0.8497 0.8495 0.8493
851.000000 0.8492 0.8490 0.8488 0.8482 0.8474
856.000000 0.8465 0.8456 0.8447 0.8439 0.8430
861.000000 0.8420 0.8406 0.8391 0.8377 0.8363
866.000000 0.8348 0.8334 0.8319 0.8305 0.8271
871.000000 0.8235 0.8199 0.8163 0.8127 0.8091
876.000000 0.8047 0.8004 0.7961 0.7918 0.7875
881.000000 0.7832 0.7775 0.7699 0.7623 0.7546
886.000000 0.7450 0.7349 0.7247 0.7134 0.7005
891.000000 0.6877 0.6744 0.6610 0.6450 0.6282
896.000000 0.6114 0.5945 0.5777 0.5609 0.5441
901.000000 0.5272 0.5104 0.4936 0.4755 0.4498
906.000000 0.4202 0.4014 0.3871 0.3754 0.3638
911.000000 0.3521 0.3423 0.3327 0.3231 0.3135
916.000000 0.3039 0.2921 0.2796 0.2671 0.2561
921.000000 0.2453 0.2270 0.1841 0.1412 0.0983
926.000000 0.0727 0.1238 0.2132 0.2390 0.2117
931.000000 0.1909 0.2001 0.2115 0.2228 0.2342
936.000000 0.2362 0.2367 0.2372 0.2424 0.2503
941.000000 0.2574 0.2637 0.2696 0.2754 0.2808
946.000000 0.2861 0.2915 0.2969 0.3035 0.3103
951.000000 0.3172 0.3303 0.3441 0.3506 0.3556
956.000000 0.3607 0.3657 0.3707 0.3756 0.3805
961.000000 0.3838 0.3858 0.3878 0.3844 0.3903
966.000000 0.3735 0.3680 0.3626 0.3578 0.3582
971.000000 0.3523 0.3371 0.3219 0.3068 0.2916
976.000000 0.2765 0.2613 0.2462 0.2310 0.2159
981.000000 0.1870 0.1902 0.1904 0.1908 0.1970
986.000000 0.2065 0.2143 0.2196 0.2159 0.2040
991.000000 0.1998 0.2219 0.2651 0.2655 0.2369
996.000000 0.2046 0.1723 0.1423 0.1249 0.1056
1001.000000 0.0966 0.0891 0.0816 0.0735 0.0648
1006.000000 0.0570 0.0501 0.0440 0.0389 0.0345
1011.000000 0.0314 0.0290 0.0278 0.0272 0.0268
1016.000000 0.0265 0.0264 0.0263 0.0267 0.0274
1021.000000 0.0281 0.0288 0.0296 0.0365 0.0434
1026.000000 0.0504 0.0573 0.0629 0.0625 0.0489
1031.000000 0.0365 0.0350 0.0352 0.0343 0.0370
1036.000000 0.0390 0.0417 0.0452 0.0511 0.0614
1041.000000 0.1142 0.1425 0.1654 0.1775 0.2027
1046.000000 0.2382 0.2738 0.3094 0.3449 0.3805
1051.000000 0.4161 0.4515 0.4766 0.4917 0.5058
1056.000000 0.5257 0.5416 0.5569 0.5775 0.6079
1061.000000 0.6218 0.6324 0.6420 0.6503 0.6579
1066.000000 0.6646 0.6703 0.6736 0.6768 0.6786
1071.000000 0.6786 0.6782 0.6779 0.6771 0.6763
1076.000000 0.6746 0.6723 0.6697 0.6662 0.6624
1081.000000 0.6568 0.6513 0.6464 0.6416 0.6363
1086.000000 0.6305 0.6248 0.6190 0.6132 0.6073
1091.000000 0.6009 0.5945 0.5876 0.5805 0.5728
1096.000000 0.5612 0.5420 0.4884 0.4706 0.4537
1101.000000 0.4436 0.4373 0.4345 0.4384 0.4355
1106.000000 0.4386 0.4535 0.4685 0.4834 0.4983
1111.000000 0.5132 0.5281 0.5424 0.5574 0.5606
1116.000000 0.5611 0.5668 0.5459 0.5243 0.5027
1121.000000 0.4794 0.4642 0.4586 0.4631 0.4601
1126.000000 0.4701 0.4912 0.5111 0.5311 0.5510
1131.000000 0.5709 0.5908 0.6088 0.6176 0.6257
1136.000000 0.6379 0.6525 0.6674 0.6802 0.6928
1141.000000 0.7034 0.7139 0.7237 0.7334 0.7410
1146.000000 0.7476 0.7541 0.7589 0.7630 0.7670
1151.000000 0.7711 0.7747 0.7783 0.7819 0.7855
1156.000000 0.7890 0.7921 0.7952 0.7983 0.8013
1161.000000 0.8032 0.8051 0.8070 0.8089 0.8108
1166.000000 0.8124 0.8139 0.8154 0.8169 0.8184
1171.000000 0.8198 0.8212 0.8226 0.8240 0.8254
1176.000000 0.8270 0.8289 0.8377 0.8442 0.8471
1181.000000 0.8495 0.8507 0.8520 0.8532 0.8543
1186.000000 0.8553 0.8563 0.8576 0.8588 0.8600
1191.000000 0.8613 0.8624 0.8632 0.8641 0.8649
1196.000000 0.8657 0.8664 0.8671 0.8677 0.8684
1201.000000 0.8691 0.8697 0.8692 0.8702 0.8705
1206.000000 0.8708 0.8703 0.8699 0.8695 0.8690
1211.000000 0.8682 0.8672 0.8662 0.8651 0.8639
1216.000000 0.8628 0.8616 0.8599 0.8576 0.8552
1221.000000 0.8522 0.8490 0.8458 0.8411 0.8354
1226.000000 0.8267 0.8212 0.8168 0.8136 0.8113
1231.000000 0.8102 0.8119 0.8100 0.8114 0.8137
1236.000000 0.8154 0.8168 0.8189 0.7878 0.7849
1241.000000 0.7836 0.7920 0.8003 0.8045 0.8078
1246.000000 0.7939 0.7869 0.7869 0.7873 0.7892
1251.000000 0.7877 0.7969 0.8011 0.8054 0.8089
1256.000000 0.8119 0.8149 0.8182 0.8211 0.8237
1261.000000 0.8262 0.8287 0.8312 0.8335 0.8355
1266.000000 0.8376 0.8396 0.8415 0.8431 0.8437
1271.000000 0.8443 0.8445 0.8444 0.8442 0.8439
1276.000000 0.8435 0.8432 0.8428 0.8425 0.8429
1281.000000 0.8441 0.8452 0.8463 0.8472 0.8482
1286.000000 0.8487 0.8493 0.8495 0.8495 0.8495
1291.000000 0.8495 0.8495 0.8496 0.8496 0.8496
1296.000000 0.8496 0.8497 0.8498 0.8499 0.8500
1301.000000 0.8501 0.8500 0.8500 0.8500 0.8499
1306.000000 0.8486 0.8498 0.8498 0.8497 0.8496
1311.000000 0.8494 0.8491 0.8487 0.8482 0.8473
1316.000000 0.8464 0.8455 0.8447 0.8438 0.8427
1321.000000 0.8409 0.8390 0.8372 0.8353 0.8333
1326.000000 0.8313 0.8293 0.8273 0.8248 0.8224
1331.000000 0.8199 0.8171 0.8137 0.8102 0.8068
1336.000000 0.8034 0.7985 0.7930 0.7876 0.7816
1341.000000 0.7734 0.7652 0.7552 0.7449 0.7376
1346.000000 0.7304 0.7228 0.7142 0.7044 0.6851
1351.000000 0.6715 0.6648 0.6602 0.6567 0.6545
1356.000000 0.6528 0.6514 0.6495 0.6191 0.6232
1361.000000 0.6289 0.6327 0.6348 0.6360 0.6359
1366.000000 0.6321 0.6201 0.6080 0.5977 0.5833
1371.000000 0.5816 0.5817 0.5813 0.5840 0.5868
1376.000000 0.5907 0.6012 0.6180 0.6395 0.6595
1381.000000 0.6712 0.6734 0.6758 0.6787 0.6921
1386.000000 0.7078 0.7275 0.7338 0.7370 0.7288
1391.000000 0.7168 0.7047 0.6927 0.6844 0.6784
1396.000000 0.6731 0.6686 0.6643 0.6599 0.6565
1401.000000 0.6536 0.6514 0.6492 0.6470 0.6441
1406.000000 0.6411 0.6379 0.6338 0.6266 0.6191
1411.000000 0.6110 0.6000 0.5827 0.5648 0.5205
1416.000000 0.4833 0.4536 0.4516 0.4392 0.4363
1421.000000 0.4318 0.4316 0.4429 0.4586 0.4744
1426.000000 0.4901 0.5059 0.5100 0.4493 0.4004
1431.000000 0.4015 0.4960 0.5619 0.5636 0.5432
1436.000000 0.5248 0.5064 0.4652 0.4696 0.4691
1441.000000 0.4938 0.5186 0.5433 0.5680 0.5928
1446.000000 0.6175 0.6422 0.6669 0.6897 0.7055
1451.000000 0.7200 0.7259 0.7311 0.7363 0.7424
1456.000000 0.7463 0.7481 0.7482 0.7479 0.7474
1461.000000 0.7426 0.7376 0.7350 0.7352 0.7357
1466.000000 0.7396 0.7449 0.7498 0.7542 0.7582
1471.000000 0.7602 0.7603 0.7551 0.7475 0.7465
1476.000000 0.7469 0.7474 0.7494 0.7597 0.7647
1481.000000 0.7687 0.7726 0.7765 0.7800 0.7835
1486.000000 0.7874 0.7914 0.7942 0.7959 0.7969
1491.000000 0.7982 0.8031 0.8072 0.8127 0.8182
1496.000000 0.8198 0.8207 0.8221 0.8235 0.8255
1501.000000 0.8284 0.8329 0.8369 0.8412 0.8454
1506.000000 0.8464 0.8462 0.8444 0.8421 0.8405
1511.000000 0.8397 0.8399 0.8401 0.8403 0.8410
1516.000000 0.8421 0.8430 0.8437 0.8444 0.8449
1521.000000 0.8446 0.8438 0.8432 0.8429 0.8429
1526.000000 0.8436 0.8445 0.8460 0.8461 0.8454
1531.000000 0.8443 0.8430 0.8406 0.8375 0.8357
1536.000000 0.8352 0.8392 0.8454 0.8515 0.8528
1541.000000 0.8510 0.8491 0.8474 0.8447 0.8443
1546.000000 0.8448 0.8453 0.8459 0.8443 0.8477
1551.000000 0.8487 0.8506 0.8530 0.8562 0.8625
1556.000000 0.8672 0.8680 0.8647 0.8601 0.8555
1561.000000 0.8509 0.8468 0.8459 0.8457 0.8458
1566.000000 0.8466 0.8478 0.8488 0.8497 0.8506
1571.000000 0.8515 0.8520 0.8518 0.8502 0.8485
1576.000000 0.8465 0.8443 0.8432 0.8432 0.8432
1581.000000 0.8433 0.8434 0.8435 0.8436 0.8438
1586.000000 0.8443 0.8447 0.8451 0.8455 0.8459
1591.000000 0.8463 0.8466 0.8468 0.8469 0.8471
1596.000000 0.8473 0.8472 0.8472 0.8471 0.8471
1601.000000 0.8470 0.8470 0.8465 0.8460 0.8454
1606.000000 0.8449 0.8444 0.8439 0.8434 0.8434
1611.000000 0.8436 0.8438 0.8442 0.8447 0.8452
1616.000000 0.8446 0.8434 0.8422 0.8410 0.8401
1621.000000 0.8392 0.8383 0.8375 0.8365 0.8351
1626.000000 0.8337 0.8323 0.8309 0.8295 0.8282
1631.000000 0.8270 0.8258 0.8232 0.8200 0.8148
1636.000000 0.8096 0.8045 0.8002 0.7962 0.7941
1641.000000 0.7956 0.7957 0.7967 0.7979 0.7989
1646.000000 0.7992 0.7991 0.8026 0.8104 0.8174
1651.000000 0.8186 0.8149 0.8112 0.8074 0.8045
1656.000000 0.8047 0.8046 0.8037 0.8014 0.7934
1661.000000 0.7884 0.7863 0.7865 0.7862 0.7906
1666.000000 0.7952 0.8013 0.8077 0.8137 0.8183
1671.000000 0.8223 0.8263 0.8289 0.8307 0.8329
1676.000000 0.8361 0.8399 0.8448 0.8481 0.8521
1681.000000 0.8541 0.8541 0.8530 0.8515 0.8496
1686.000000 0.8483 0.8475 0.8474 0.8478 0.8487
1691.000000 0.8501 0.8517 0.8539 0.8561 0.8576
1696.000000 0.8576 0.8572 0.8563 0.8555 0.8550
1701.000000 0.8544 0.8539 0.8535 0.8531 0.8532
1706.000000 0.8532 0.8533 0.8534 0.8535 0.8546
1711.000000 0.8567 0.8599 0.8621 0.8634 0.8637
1716.000000 0.8624 0.8607 0.8588 0.8566 0.8539
1721.000000 0.8526 0.8523 0.8510 0.8518 0.8518
1726.000000 0.8519 0.8525 0.8530 0.8553 0.8601
1731.000000 0.8616 0.8615 0.8595 0.8565 0.8539
1736.000000 0.8531 0.8528 0.8528 0.8528 0.8531
1741.000000 0.8534 0.8537 0.8541 0.8545 0.8550
1746.000000 0.8556 0.8563 0.8563 0.8561 0.8550
1751.000000 0.8536 0.8528 0.8522 0.8518 0.8516
1756.000000 0.8515 0.8515 0.8515 0.8515 0.8516
1761.000000 0.8516 0.8518 0.8519 0.8524 0.8535
1766.000000 0.8546 0.8555 0.8564 0.8573 0.8561
1771.000000 0.8537 0.8508 0.8502 0.8495 0.8490
1776.000000 0.8488 0.8486 0.8484 0.8484 0.8486
1781.000000 0.8488 0.8490 0.8492 0.8497 0.8501
1786.000000 0.8505 0.8515 0.8529 0.8537 0.8523
1791.000000 0.8508 0.8497 0.8493 0.8492 0.8491
1796.000000 0.8490 0.8489 0.8488 0.8487 0.8486
1801.000000 0.8485 0.8484 0.8484 0.8483 0.8482
1806.000000 0.8481 0.8480 0.8479 0.8478 0.8477
1811.000000 0.8476 0.8475 0.8474 0.8472 0.8468
1816.000000 0.8467 0.8465 0.8463 0.8461 0.8459
1821.000000 0.8457 0.8456 0.8454 0.8452 0.8450
1826.000000 0.8448 0.8445 0.8438 0.8417 0.8395
1831.000000 0.8378 0.8367 0.8355 0.8344 0.8257
1836.000000 0.8234 0.8211 0.8188 0.8169 0.8151
1841.000000 0.8133 0.8115 0.8098 0.8073 0.8046
1846.000000 0.8019 0.7998 0.7980 0.7962 0.7945
1851.000000 0.7931 0.7919 0.7916 0.7914 0.7919
1856.000000 0.7925 0.7932 0.7933 0.7905 0.7838
1861.000000 0.7701 0.7654 0.7625 0.7601 0.7591
1866.000000 0.7612 0.7597 0.7613 0.7636 0.7668
1871.000000 0.7700 0.7729 0.7757 0.7770 0.7775
1876.000000 0.7772 0.7762 0.7751 0.7743 0.7736
1881.000000 0.7730 0.7731 0.7735 0.7752 0.7784
1886.000000 0.7833 0.7901 0.7979 0.8033 0.8085
1891.000000 0.8127 0.8166 0.8194 0.8222 0.8242
1896.000000 0.8262 0.8282 0.8299 0.8316 0.8333
1901.000000 0.8344 0.8355 0.8363 0.8366 0.8369
1906.000000 0.8373 0.8374 0.8374 0.8374 0.8374
1911.000000 0.8375 0.8378 0.8381 0.8391 0.8412
1916.000000 0.8432 0.8441 0.8441 0.8434 0.8415
1921.000000 0.8388 0.8382 0.8381 0.8380 0.8375
1926.000000 0.8370 0.8364 0.8359 0.8346 0.8330
1931.000000 0.8331 0.8337 0.8346 0.8354 0.8356
1936.000000 0.8357 0.8357 0.8353 0.8349 0.8342
1941.000000 0.8332 0.8322 0.8313 0.8304 0.8298
1946.000000 0.8292 0.8286 0.8286 0.8287 0.8287
1951.000000 0.8287 0.8293 0.8299 0.8303 0.8303
1956.000000 0.8303 0.8303 0.8303 0.8303 0.8304
1961.000000 0.8302 0.8298 0.8296 0.8294 0.8293
1966.000000 0.8293 0.8293 0.8293 0.8293 0.8294
1971.000000 0.8294 0.8295 0.8296 0.8297 0.8298
1976.000000 0.8300 0.8302 0.8302 0.8302 0.8300
1981.000000 0.8291 0.8282 0.8273 0.8265 0.8257
1986.000000 0.8259 0.8261 0.8263 0.8265 0.8269
1991.000000 0.8273 0.8273 0.8273 0.8274 0.8274
1996.000000 0.8274 0.8274 0.8275 0.8276 0.8278
2001.000000 0.8279 0.8281 0.8281 0.8282 0.8283
2006.000000 0.8284 0.8285 0.8286 0.8286 0.8287
2011.000000 0.8288 0.8289 0.8290 0.8291 0.8290
2016.000000 0.8290 0.8289 0.8288 0.8287 0.8286
2021.000000 0.8285 0.8285 0.8280 0.8276 0.8269
2026.000000 0.8262 0.8255 0.8249 0.8243 0.8238
2031.000000 0.8237 0.8236 0.8235 0.8235 0.8237
2036.000000 0.8239 0.8242 0.8245 0.8248 0.8251
2041.000000 0.8255 0.8259 0.8263 0.8267 0.8270
2046.000000 0.8274 0.8277 0.8281 0.8284 0.8288
2051.000000 0.8292 0.8296 0.8301 0.8306 0.8311
2056.000000 0.8316 0.8322 0.8328 0.8336 0.8345
2061.000000 0.8353 0.8362 0.8370 0.8379 0.8388
2066.000000 0.8397 0.8405 0.8413 0.8420 0.8427
2071.000000 0.8434 0.8441 0.8446 0.8452 0.8457
2076.000000 0.8463 0.8468 0.8474 0.8479 0.8485
2081.000000 0.8488 0.8491 0.8494 0.8497 0.8499
2086.000000 0.8502 0.8502 0.8503 0.8503 0.8504
2091.000000 0.8504 0.8505 0.8505 0.8506 0.8506
2096.000000 0.8506 0.8506 0.8506 0.8506 0.8506
2101.000000 0.8506 0.8507 0.8507 0.8507 0.8507
2106.000000 0.8507 0.8507 0.8507 0.8506 0.8506
2111.000000 0.8506 0.8506 0.8505 0.8505 0.8505
2116.000000 0.8505 0.8504 0.8504 0.8504 0.8504
2121.000000 0.8503 0.8503 0.8503 0.8503 0.8503
2126.000000 0.8503 0.8503 0.8503 0.8502 0.8502
2131.000000 0.8502 0.8502 0.8502 0.8502 0.8502
2136.000000 0.8502 0.8501 0.8501 0.8501 0.8502
2141.000000 0.8502 0.8502 0.8502 0.8502 0.8502
2146.000000 0.8502 0.8502 0.8502 0.8502 0.8514
2151.000000 0.8502 0.8502 0.8502 0.8503 0.8503
2156.000000 0.8503 0.8503 0.8503 0.8503 0.8503
2161.000000 0.8503 0.8504 0.8504 0.8505 0.8505
2166.000000 0.8505 0.8505 0.8506 0.8506 0.8507
2171.000000 0.8507 0.8508 0.8508 0.8508 0.8508
2176.000000 0.8509 0.8509 0.8509 0.8509 0.8510
2181.000000 0.8510 0.8511 0.8511 0.8511 0.8511
2186.000000 0.8512 0.8512 0.8513 0.8513 0.8514
2191.000000 0.8514 0.8515 0.8515 0.8516 0.8516
2196.000000 0.8517 0.8517 0.8518 0.8518 0.8519
2201.000000 0.8519 0.8520 0.8520 0.8521 0.8521
2206.000000 0.8522 0.8523 0.8524 0.8525 0.8526
2211.000000 0.8527 0.8528 0.8529 0.8530 0.8531
2216.000000 0.8532 0.8533 0.8534 0.8535 0.8536
2221.000000 0.8537 0.8538 0.8539 0.8540 0.8541
2226.000000 0.8543 0.8544 0.8546 0.8547 0.8548
2231.000000 0.8549 0.8551 0.8552 0.8554 0.8555
2236.000000 0.8557 0.8558 0.8559 0.8560 0.8562
2241.000000 0.8563 0.8565 0.8566 0.8567 0.8568
2246.000000 0.8569 0.8569 0.8570 0.8571 0.8572
2251.000000 0.8572 0.8573 0.8574 0.8575 0.8575
2256.000000 0.8576 0.8577 0.8578 0.8578 0.8579
2261.000000 0.8580 0.8581 0.8581 0.8582 0.8583
2266.000000 0.8584 0.8584 0.8585 0.8586 0.8587
2271.000000 0.8588 0.8589 0.8589 0.8590 0.8591
2276.000000 0.8592 0.8593 0.8594 0.8595 0.8596
2281.000000 0.8596 0.8597 0.8598 0.8599 0.8600
2286.000000 0.8601 0.8601 0.8602 0.8603 0.8604
2291.000000 0.8605 0.8606 0.8607 0.8608 0.8609
2296.000000 0.8610 0.8611 0.8612 0.8613 0.8614
2301.000000 0.8614 0.8615 0.8616 0.8617 0.8618
2306.000000 0.8619 0.8620 0.8621 0.8622 0.8623
2311.000000 0.8623 0.8624 0.8624 0.8625 0.8625
2316.000000 0.8626 0.8627 0.8628 0.8628 0.8629
2321.000000 0.8629 0.8630 0.8632 0.8634 0.8637
2326.000000 0.8640 0.8643 0.8646 0.8649 0.8652
2331.000000 0.8656 0.8661 0.8667 0.8673 0.8674
2336.000000 0.8676 0.8676 0.8677 0.8677 0.8678
2341.000000 0.8679 0.8681 0.8682 0.8684 0.8686
2346.000000 0.8689 0.8693 0.8697 0.8701 0.8705
2351.000000 0.8709 0.8713 0.8717 0.8721 0.8725
2356.000000 0.8729 0.8725 0.8722 0.8718 0.8715
2361.000000 0.8712 0.8709 0.8705 0.8702 0.8697
2366.000000 0.8693 0.8687 0.8682 0.8677 0.8672
2371.000000 0.8666 0.8661 0.8654 0.8648 0.8640
2376.000000 0.8633 0.8626 0.8619 0.8612 0.8605
2381.000000 0.8599 0.8594 0.8589 0.8584 0.8580
2386.000000 0.8577 0.8574 0.8572 0.8569 0.8567
2391.000000 0.8565 0.8563 0.8562 0.8561 0.8559
2396.000000 0.8558 0.8556 0.8555 0.8555 0.8556
2401.000000 0.8556 0.8557 0.8558 0.8559 0.8559
2406.000000 0.8560 0.8561 0.8563 0.8564 0.8565
2411.000000 0.8566 0.8567 0.8571 0.8575 0.8579
2416.000000 0.8584 0.8588 0.8593 0.8597 0.8601
2421.000000 0.8605 0.8609 0.8612 0.8616 0.8619
2426.000000 0.8623 0.8623 0.8624 0.8624 0.8625
2431.000000 0.8625 0.8626 0.8627 0.8628 0.8628
2436.000000 0.8629 0.8629 0.8630 0.8630 0.8631
2441.000000 0.8631 0.8631 0.8630 0.8630 0.8630
2446.000000 0.8630 0.8629 0.8629 0.8629 0.8629
2451.000000 0.8629 0.8629 0.8629 0.8630 0.8630
2456.000000 0.8631 0.8631 0.8632 0.8632 0.8633
2461.000000 0.8634 0.8635 0.8635 0.8636 0.8636
2466.000000 0.8637 0.8637 0.8638 0.8638 0.8639
2471.000000 0.8639 0.8640 0.8640 0.8641 0.8641
2476.000000 0.8642 0.8642 0.8643 0.8643 0.8644
