##TITLE=DIVINYL ACETYLENE
##JCAMP-DX=4.24
##DATA TYPE=INFRARED SPECTRUM
##CLASS=COBLENTZ
##ORIGIN=BATTLE MEMORIAL INSTITUTE
##OWNER=COBLENTZ SOCIETY
Collection (C) 2018 copyright by the U.S. Secretary of Commerce
on behalf of the United States of America. All rights reserved.
##DATE=Not specified, most likely prior to 1970
##NAMES=1,5-hexadien-3-yne
##CAS REGISTRY NO=821-08-9
##MOLFORM=C6 H6
##SOURCE REFERENCE=COBLENTZ NO. 163
##$NIST SOURCE=COBLENTZ
##$NIST IMAGE=cob163
##SPECTROMETER/DATA SYSTEM=Not specified, most likely a prism, grating, or hybrid spectrometer.
##PATH LENGTH=0.0017 CM
##SAMPLING PROCEDURE=TRANSMISSION
##RESOLUTION=4
##DATA PROCESSING=DIGITIZED BY NIST FROM HARD COPY
##XUNITS=MICROMETERS
##YUNITS=TRANSMITTANCE
##XFACTOR=1.000000
##YFACTOR=1
##DELTAX=000.006631
##FIRSTX=1.568
##LASTX=15.2403
##FIRSTY=0.871
##MAXX=15.2403
##MINX=1.568
##MAXY=0.887
##MINY=0.018
##NPOINTS=2063
##XYDATA=(X++(Y..Y))
1.568000 0.8710 0.8700 0.8700 0.8700 0.8680
1.601169 0.8700 0.8680 0.8680 0.8680 0.8670
1.634000 0.8670 0.8670 0.8670 0.8670 0.8670
1.667169 0.8670 0.8670 0.8670 0.8670 0.8670
1.700000 0.8670 0.8670 0.8670 0.8670 0.8670
1.733169 0.8670 0.8670 0.8670 0.8670 0.8670
1.767000 0.8670 0.8670 0.8670 0.8670 0.8670
1.800169 0.8670 0.8670 0.8670 0.8670 0.8670
1.833000 0.8670 0.8670 0.8670 0.8670 0.8670
1.866169 0.8670 0.8670 0.8670 0.8670 0.8670
1.899000 0.8670 0.8670 0.8670 0.8670 0.8670
1.932169 0.8670 0.8670 0.8670 0.8670 0.8670
1.966000 0.8670 0.8670 0.8670 0.8670 0.8670
1.999169 0.8680 0.8700 0.8700 0.8700 0.8710
2.032000 0.8700 0.8700 0.8700 0.8700 0.8700
2.065169 0.8680 0.8680 0.8680 0.8680 0.8680
2.098000 0.8700 0.8700 0.8680 0.8680 0.8660
2.131169 0.8600 0.8580 0.8580 0.8590 0.8620
2.165000 0.8630 0.8640 0.8660 0.8660 0.8670
2.198169 0.8660 0.8640 0.8520 0.8470 0.8420
2.231000 0.8380 0.8380 0.8420 0.8470 0.8560
2.264169 0.8580 0.8550 0.8510 0.8490 0.8490
2.297000 0.8470 0.8470 0.8490 0.8490 0.8510
2.330169 0.8520 0.8540 0.8550 0.8580 0.8600
2.363000 0.8600 0.8590 0.8580 0.8560 0.8550
2.396169 0.8540 0.8520 0.8500 0.8500 0.8490
2.430000 0.8490 0.8500 0.8540 0.8550 0.8560
2.463169 0.8560 0.8580 0.8580 0.8590 0.8590
2.496000 0.8600 0.8620 0.8620 0.8640 0.8660
2.529169 0.8660 0.8670 0.8680 0.8680 0.8700
2.562000 0.8700 0.8710 0.8710 0.8710 0.8710
2.595169 0.8710 0.8710 0.8710 0.8710 0.8710
2.629000 0.8720 0.8720 0.8720 0.8720 0.8720
2.662169 0.8720 0.8720 0.8720 0.8720 0.8710
2.695000 0.8710 0.8700 0.8700 0.8700 0.8700
2.728169 0.8700 0.8680 0.8680 0.8680 0.8680
2.761000 0.8680 0.8680 0.8680 0.8680 0.8680
2.794169 0.8680 0.8680 0.8680 0.8680 0.8680
2.828000 0.8680 0.8680 0.8670 0.8670 0.8670
2.861169 0.8670 0.8670 0.8670 0.8670 0.8670
2.894000 0.8670 0.8670 0.8670 0.8670 0.8670
2.927169 0.8670 0.8670 0.8670 0.8670 0.8670
2.960000 0.8670 0.8670 0.8660 0.8640 0.8620
2.993169 0.8540 0.8470 0.8430 0.8420 0.8430
3.027000 0.8450 0.8470 0.8500 0.8540 0.8580
3.060169 0.8580 0.8590 0.8590 0.8590 0.8590
3.093000 0.8580 0.8560 0.8550 0.8550 0.8540
3.126169 0.8520 0.8510 0.8500 0.8450 0.8430
3.159000 0.8390 0.8350 0.8110 0.7810 0.7800
3.192169 0.7640 0.6370 0.6370 0.7150 0.7310
3.225000 0.7570 0.7730 0.7780 0.7770 0.7660
3.258169 0.7540 0.7410 0.7320 0.7000 0.5580
3.292000 0.5580 0.6260 0.6750 0.6960 0.7170
3.325169 0.7540 0.7600 0.7610 0.7620 0.7650
3.358000 0.7740 0.7890 0.7960 0.8050 0.8100
3.391169 0.8140 0.8210 0.8260 0.8290 0.8330
3.424000 0.8410 0.8450 0.8490 0.8500 0.8520
3.457169 0.8540 0.8550 0.8560 0.8590 0.8600
3.491000 0.8620 0.8630 0.8660 0.8670 0.8700
3.524169 0.8700 0.8710 0.8760 0.8780 0.8780
3.557000 0.8790 0.8790 0.8790 0.8790 0.8790
3.590169 0.8800 0.8800 0.8800 0.8800 0.8800
3.623000 0.8800 0.8800 0.8800 0.8790 0.8790
3.656169 0.8800 0.8800 0.8800 0.8800 0.8800
3.690000 0.8820 0.8820 0.8820 0.8820 0.8820
3.723169 0.8820 0.8830 0.8830 0.8840 0.8840
3.756000 0.8860 0.8860 0.8860 0.8860 0.8860
3.789169 0.8860 0.8860 0.8860 0.8860 0.8860
3.822000 0.8860 0.8860 0.8860 0.8860 0.8870
3.855169 0.8860 0.8860 0.8860 0.8860 0.8860
3.888000 0.8860 0.8860 0.8860 0.8840 0.8860
3.921169 0.8860 0.8860 0.8860 0.8860 0.8860
3.955000 0.8860 0.8860 0.8860 0.8860 0.8840
3.988169 0.8840 0.8840 0.8830 0.8820 0.8820
4.021000 0.8800 0.8800 0.8790 0.8780 0.8780
4.054169 0.8790 0.8790 0.8790 0.8790 0.8790
4.087000 0.8790 0.8790 0.8790 0.8790 0.8790
4.120169 0.8790 0.8790 0.8790 0.8790 0.8790
4.154000 0.8790 0.8790 0.8790 0.8790 0.8780
4.187169 0.8780 0.8780 0.8780 0.8760 0.8780
4.220000 0.8760 0.8760 0.8760 0.8760 0.8760
4.253169 0.8760 0.8760 0.8760 0.8760 0.8760
4.286000 0.8760 0.8760 0.8760 0.8760 0.8760
4.319169 0.8760 0.8760 0.8750 0.8750 0.8740
4.353000 0.8720 0.8720 0.8720 0.8710 0.8700
4.386169 0.8700 0.8680 0.8680 0.8680 0.8680
4.419000 0.8680 0.8670 0.8670 0.8660 0.8640
4.452169 0.8630 0.8630 0.8620 0.8590 0.8560
4.485000 0.8550 0.8520 0.8510 0.8500 0.8490
4.518169 0.8470 0.8470 0.8470 0.8490 0.8500
4.552000 0.8510 0.8520 0.8540 0.8550 0.8560
4.585169 0.8560 0.8580 0.8580 0.8580 0.8580
4.618000 0.8590 0.8590 0.8590 0.8590 0.8590
4.651169 0.8590 0.8590 0.8590 0.8590 0.8590
4.684000 0.8590 0.8590 0.8590 0.8590 0.8590
4.717169 0.8600 0.8600 0.8600 0.8600 0.8600
4.750000 0.8600 0.8600 0.8600 0.8600 0.8600
4.783169 0.8600 0.8600 0.8600 0.8600 0.8600
4.817000 0.8600 0.8600 0.8600 0.8600 0.8600
4.850169 0.8600 0.8600 0.8600 0.8600 0.8600
4.883000 0.8600 0.8600 0.8600 0.8600 0.8600
4.916169 0.8600 0.8600 0.8600 0.8600 0.8600
4.949000 0.8600 0.8600 0.8600 0.8600 0.8590
4.982169 0.8590 0.8590 0.8590 0.8590 0.8580
5.016000 0.8580 0.8580 0.8580 0.8580 0.8560
5.049169 0.8560 0.8560 0.8550 0.8540 0.8510
5.082000 0.8510 0.8490 0.8470 0.8450 0.8430
5.115169 0.8410 0.8350 0.8330 0.8220 0.8190
5.148000 0.8170 0.8150 0.8170 0.8180 0.8230
5.181169 0.8250 0.8270 0.8300 0.8310 0.8310
5.215000 0.8330 0.8330 0.8330 0.8310 0.8290
5.248169 0.8270 0.8230 0.8190 0.8140 0.8130
5.281000 0.8100 0.8070 0.8010 0.7920 0.7840
5.314169 0.7760 0.7650 0.7520 0.7330 0.7110
5.347000 0.6790 0.6390 0.6190 0.6020 0.5820
5.380169 0.5720 0.5620 0.5600 0.5620 0.5780
5.414000 0.5960 0.6130 0.6350 0.6600 0.6870
5.447169 0.7120 0.7370 0.7580 0.7760 0.7860
5.480000 0.7880 0.8010 0.8100 0.8150 0.8210
5.513169 0.8230 0.8270 0.8300 0.8330 0.8350
5.546000 0.8370 0.8380 0.8390 0.8390 0.8390
5.579169 0.8410 0.8410 0.8420 0.8420 0.8420
5.612000 0.8430 0.8430 0.8450 0.8450 0.8460
5.645169 0.8460 0.8460 0.8460 0.8460 0.8460
5.679000 0.8460 0.8460 0.8460 0.8460 0.8450
5.712169 0.8450 0.8450 0.8430 0.8430 0.8430
5.745000 0.8420 0.8390 0.8390 0.8380 0.8380
5.778169 0.8350 0.8350 0.8340 0.8340 0.8330
5.811000 0.8330 0.8310 0.8300 0.8270 0.8250
5.844169 0.8190 0.8180 0.8170 0.8130 0.8110
5.878000 0.8100 0.8100 0.8100 0.8110 0.8130
5.911169 0.8140 0.8150 0.8150 0.8150 0.8150
5.944000 0.8150 0.8140 0.8130 0.8110 0.8070
5.977169 0.8060 0.8000 0.7960 0.7940 0.7800
6.010000 0.7730 0.7650 0.7520 0.7400 0.7310
6.043169 0.7160 0.7150 0.7080 0.7040 0.7000
6.077000 0.6990 0.6990 0.7000 0.7030 0.7050
6.110169 0.7080 0.7080 0.7050 0.7040 0.6830
6.143000 0.6230 0.5770 0.5430 0.4390 0.3290
6.176169 0.2490 0.2340 0.1480 0.1480 0.1810
6.209000 0.2640 0.3070 0.3490 0.3740 0.3840
6.242169 0.3940 0.4070 0.4210 0.4340 0.4470
6.275000 0.4600 0.4700 0.5040 0.5600 0.6030
6.308169 0.6130 0.6370 0.6600 0.6830 0.7030
6.342000 0.7230 0.7390 0.7530 0.7620 0.7680
6.375169 0.7700 0.7760 0.7800 0.7850 0.7930
6.408000 0.8010 0.8060 0.8110 0.8140 0.8180
6.441169 0.8190 0.8190 0.8190 0.8210 0.8210
6.474000 0.8210 0.8230 0.8260 0.8290 0.8310
6.507169 0.8330 0.8340 0.8340 0.8350 0.8350
6.541000 0.8350 0.8350 0.8370 0.8370 0.8380
6.574169 0.8390 0.8390 0.8390 0.8390 0.8410
6.607000 0.8410 0.8410 0.8410 0.8410 0.8410
6.640169 0.8410 0.8410 0.8410 0.8410 0.8410
6.673000 0.8410 0.8410 0.8410 0.8410 0.8390
6.706169 0.8390 0.8390 0.8380 0.8380 0.8370
6.740000 0.8370 0.8350 0.8340 0.8340 0.8340
6.773169 0.8340 0.8330 0.8330 0.8330 0.8310
6.806000 0.8300 0.8300 0.8290 0.8270 0.8260
6.839169 0.8250 0.8230 0.8220 0.8210 0.8190
6.872000 0.8180 0.8170 0.8110 0.8090 0.8070
6.905169 0.8050 0.8010 0.8010 0.7980 0.7940
6.939000 0.7900 0.7880 0.7820 0.7800 0.7720
6.972169 0.7560 0.7390 0.7200 0.7030 0.6870
7.005000 0.6710 0.6640 0.6470 0.6380 0.6310
7.038169 0.6130 0.6130 0.6230 0.6290 0.6310
7.071000 0.6340 0.6340 0.6330 0.6230 0.6180
7.104169 0.6110 0.6090 0.6070 0.6070 0.6090
7.137000 0.6260 0.6560 0.6790 0.6950 0.7110
7.170169 0.7240 0.7350 0.7440 0.7530 0.7610
7.204000 0.7680 0.7720 0.7740 0.7760 0.7780
7.237169 0.7800 0.7810 0.7840 0.7850 0.7850
7.270000 0.7860 0.7880 0.7890 0.7890 0.7890
7.303169 0.7880 0.7880 0.7860 0.7850 0.7840
7.336000 0.7810 0.7780 0.7780 0.7770 0.7760
7.369169 0.7740 0.7730 0.7730 0.7720 0.7720
7.403000 0.7700 0.7700 0.7700 0.7720 0.7720
7.436169 0.7730 0.7730 0.7740 0.7760 0.7770
7.469000 0.7770 0.7770 0.7780 0.7780 0.7810
7.502169 0.7820 0.7840 0.7840 0.7840 0.7850
7.535000 0.7840 0.7850 0.7850 0.7840 0.7840
7.568169 0.7840 0.7840 0.7840 0.7840 0.7850
7.602000 0.7850 0.7850 0.7850 0.7850 0.7840
7.635169 0.7810 0.7810 0.7780 0.7760 0.7740
7.668000 0.7720 0.7680 0.7620 0.7560 0.7470
7.701169 0.7350 0.7280 0.7170 0.7050 0.6680
7.734000 0.6370 0.5760 0.5690 0.5530 0.5530
7.767169 0.5770 0.6020 0.6260 0.6520 0.6870
7.800000 0.6980 0.7080 0.7160 0.7320 0.7440
7.833169 0.7530 0.7620 0.7690 0.7740 0.7780
7.867000 0.7820 0.7850 0.7890 0.7920 0.7940
7.900169 0.7980 0.7980 0.8000 0.8000 0.8010
7.933000 0.8020 0.8050 0.8060 0.8100 0.8110
7.966169 0.8110 0.8130 0.8140 0.8140 0.8150
7.999000 0.8150 0.8170 0.8170 0.8180 0.8180
8.032169 0.8180 0.8180 0.8190 0.8190 0.8210
8.066000 0.8210 0.8210 0.8220 0.8220 0.8220
8.099169 0.8220 0.8210 0.8220 0.8220 0.8210
8.132000 0.8210 0.8210 0.8210 0.8190 0.8180
8.165169 0.8170 0.8140 0.8130 0.8100 0.8070
8.198000 0.8020 0.8000 0.7970 0.7960 0.7940
8.231169 0.7940 0.7970 0.8000 0.8010 0.8020
8.265000 0.8030 0.8050 0.8070 0.8090 0.8100
8.298169 0.8100 0.8110 0.8110 0.8110 0.8100
8.331000 0.8070 0.8060 0.8050 0.8020 0.8000
8.364169 0.7920 0.7890 0.7810 0.7740 0.7580
8.397000 0.7440 0.7290 0.7030 0.6750 0.6430
8.430169 0.5980 0.5390 0.4540 0.3570 0.2870
8.464000 0.2660 0.2450 0.2230 0.2020 0.2020
8.497169 0.2840 0.3620 0.4550 0.5150 0.5540
8.530000 0.5850 0.6180 0.6640 0.6700 0.6900
8.563169 0.7040 0.7170 0.7330 0.7440 0.7570
8.596000 0.7660 0.7700 0.7720 0.7770 0.7780
8.629169 0.7820 0.7860 0.7890 0.7930 0.7960
8.662000 0.7980 0.8000 0.8010 0.8020 0.8020
8.695169 0.8070 0.8090 0.8090 0.8090 0.8100
8.729000 0.8110 0.8130 0.8130 0.8140 0.8140
8.762169 0.8150 0.8150 0.8170 0.8180 0.8180
8.795000 0.8180 0.8180 0.8180 0.8190 0.8190
8.828169 0.8190 0.8180 0.8180 0.8190 0.8190
8.861000 0.8190 0.8190 0.8190 0.8190 0.8190
8.894169 0.8190 0.8190 0.8190 0.8190 0.8190
8.928000 0.8180 0.8210 0.8210 0.8190 0.8190
8.961169 0.8190 0.8190 0.8190 0.8180 0.8190
8.994000 0.8190 0.8190 0.8190 0.8180 0.8180
9.027169 0.8180 0.8180 0.8180 0.8170 0.8170
9.060000 0.8170 0.8170 0.8170 0.8170 0.8150
9.093169 0.8140 0.8140 0.8130 0.8130 0.8130
9.127000 0.8130 0.8130 0.8130 0.8130 0.8130
9.160169 0.8130 0.8110 0.8110 0.8110 0.8110
9.193000 0.8110 0.8100 0.8090 0.8090 0.8070
9.226169 0.8060 0.8050 0.8050 0.8030 0.8020
9.259000 0.8010 0.8010 0.8010 0.8010 0.8000
9.292169 0.8000 0.8000 0.8000 0.8000 0.8000
9.325000 0.7980 0.7980 0.7980 0.7980 0.7980
9.358169 0.7980 0.7980 0.7970 0.7970 0.7970
9.392000 0.7970 0.7960 0.7960 0.7960 0.7960
9.425169 0.7960 0.7940 0.7940 0.7940 0.7940
9.458000 0.7930 0.7930 0.7930 0.7930 0.7920
9.491169 0.7920 0.7900 0.7900 0.7890 0.7890
9.524000 0.7880 0.7880 0.7880 0.7860 0.7850
9.557169 0.7840 0.7820 0.7820 0.7810 0.7800
9.591000 0.7780 0.7760 0.7740 0.7730 0.7700
9.624169 0.7690 0.7650 0.7640 0.7610 0.7580
9.657000 0.7560 0.7540 0.7530 0.7530 0.7500
9.690169 0.7480 0.7440 0.7410 0.7360 0.7320
9.723000 0.7310 0.7290 0.7280 0.7250 0.7230
9.756169 0.7210 0.7200 0.7190 0.7170 0.7130
9.790000 0.7110 0.7040 0.7010 0.7000 0.7000
9.823169 0.6990 0.6980 0.6960 0.6940 0.6900
9.856000 0.6870 0.6840 0.6830 0.6800 0.6790
9.889169 0.6720 0.6700 0.6680 0.6660 0.6600
9.922000 0.6580 0.6520 0.6490 0.6430 0.6380
9.955169 0.6340 0.6310 0.6260 0.6190 0.6170
9.989000 0.6140 0.6060 0.6020 0.5980 0.5920
10.022169 0.5820 0.5780 0.5730 0.5650 0.5570
10.055000 0.5530 0.5480 0.5410 0.5330 0.5230
10.088169 0.5170 0.5050 0.4960 0.4900 0.4820
10.121000 0.4680 0.4550 0.4500 0.4370 0.4210
10.154169 0.4010 0.3800 0.3610 0.3450 0.3330
10.187000 0.3130 0.2950 0.2620 0.2450 0.2250
10.220169 0.2100 0.1960 0.1800 0.1610 0.1410
10.254000 0.1240 0.1090 0.1000 0.0950 0.0830
10.287169 0.0800 0.0760 0.0740 0.0720 0.0710
10.320000 0.0710 0.0720 0.0750 0.0800 0.0860
10.353169 0.1150 0.1210 0.1320 0.1440 0.1500
10.386000 0.1730 0.1920 0.2070 0.2190 0.2310
10.419169 0.2420 0.2520 0.2620 0.2740 0.2860
10.453000 0.3000 0.3160 0.3210 0.3290 0.3350
10.486169 0.3400 0.3470 0.3520 0.3540 0.3560
10.519000 0.3570 0.3600 0.3600 0.3600 0.3600
10.552169 0.3600 0.3580 0.3560 0.3540 0.3520
10.585000 0.3490 0.3440 0.3370 0.3330 0.3250
10.618169 0.3190 0.3090 0.3030 0.2960 0.2800
10.652000 0.2620 0.2500 0.2450 0.2310 0.2210
10.685169 0.2130 0.2010 0.1920 0.1680 0.1520
10.718000 0.1470 0.1350 0.1280 0.1270 0.1120
10.751169 0.0980 0.0910 0.0800 0.0710 0.0660
10.784000 0.0630 0.0620 0.0500 0.0410 0.0380
10.817169 0.0290 0.0270 0.0260 0.0230 0.0220
10.851000 0.0220 0.0210 0.0190 0.0190 0.0180
10.884169 0.0180 0.0180 0.0180 0.0180 0.0190
10.917000 0.0190 0.0210 0.0220 0.0260 0.0290
10.950169 0.0300 0.0340 0.0410 0.0470 0.0640
10.983000 0.0750 0.0860 0.0960 0.1110 0.1310
11.016169 0.1400 0.1500 0.1640 0.1800 0.1960
11.049000 0.2130 0.2290 0.2430 0.2560 0.2760
11.082169 0.2870 0.3080 0.3280 0.3470 0.3580
11.116000 0.3700 0.3840 0.3960 0.4060 0.4130
11.149169 0.4250 0.4350 0.4460 0.4550 0.4660
11.182000 0.4760 0.4800 0.4900 0.5010 0.5110
11.215169 0.5150 0.5200 0.5240 0.5310 0.5360
11.248000 0.5490 0.5530 0.5580 0.5610 0.5650
11.281169 0.5690 0.5730 0.5770 0.5810 0.5940
11.315000 0.6000 0.6060 0.6090 0.6110 0.6170
11.348169 0.6210 0.6230 0.6260 0.6300 0.6300
11.381000 0.6380 0.6390 0.6450 0.6510 0.6560
11.414169 0.6580 0.6600 0.6620 0.6660 0.6720
11.447000 0.6800 0.6830 0.6860 0.6900 0.6910
11.480169 0.6920 0.6950 0.6980 0.7000 0.7070
11.514000 0.7110 0.7120 0.7160 0.7190 0.7240
11.547169 0.7290 0.7310 0.7320 0.7330 0.7370
11.580000 0.7400 0.7430 0.7450 0.7470 0.7480
11.613169 0.7490 0.7490 0.7500 0.7520 0.7530
11.646000 0.7540 0.7570 0.7580 0.7580 0.7610
11.679169 0.7620 0.7640 0.7650 0.7660 0.7680
11.712000 0.7700 0.7700 0.7720 0.7720 0.7730
11.745169 0.7730 0.7740 0.7740 0.7740 0.7770
11.779000 0.7770 0.7780 0.7780 0.7800 0.7800
11.812169 0.7810 0.7820 0.7820 0.7840 0.7840
11.845000 0.7840 0.7850 0.7850 0.7860 0.7860
11.878169 0.7890 0.7890 0.7900 0.7900 0.7920
11.911000 0.7920 0.7920 0.7920 0.7920 0.7930
11.944169 0.7940 0.7940 0.7940 0.7940 0.7940
11.978000 0.7960 0.7960 0.7960 0.7970 0.7970
12.011169 0.7970 0.7980 0.8000 0.8000 0.8010
12.044000 0.8020 0.8030 0.8030 0.8050 0.8050
12.077169 0.8060 0.8070 0.8070 0.8090 0.8090
12.110000 0.8090 0.8100 0.8100 0.8100 0.8110
12.143169 0.8130 0.8130 0.8140 0.8140 0.8150
12.177000 0.8150 0.8150 0.8170 0.8180 0.8180
12.210169 0.8180 0.8180 0.8190 0.8190 0.8190
12.243000 0.8190 0.8210 0.8210 0.8210 0.8210
12.276169 0.8210 0.8210 0.8210 0.8210 0.8210
12.309000 0.8220 0.8220 0.8220 0.8220 0.8230
12.342169 0.8230 0.8230 0.8230 0.8230 0.8230
12.376000 0.8230 0.8230 0.8220 0.8220 0.8220
12.409169 0.8220 0.8220 0.8220 0.8220 0.8220
12.442000 0.8230 0.8230 0.8230 0.8230 0.8230
12.475169 0.8230 0.8230 0.8230 0.8230 0.8230
12.508000 0.8230 0.8230 0.8230 0.8250 0.8250
12.541169 0.8250 0.8250 0.8250 0.8230 0.8230
12.574000 0.8230 0.8220 0.8220 0.8210 0.8210
12.607169 0.8190 0.8180 0.8170 0.8150 0.8140
12.641000 0.8130 0.8130 0.8110 0.8110 0.8110
12.674169 0.8110 0.8110 0.8110 0.8110 0.8100
12.707000 0.8100 0.8100 0.8100 0.8100 0.8100
12.740169 0.8090 0.8090 0.8090 0.8090 0.8090
12.773000 0.8090 0.8090 0.8090 0.8090 0.8100
12.806169 0.8100 0.8100 0.8100 0.8100 0.8100
12.840000 0.8100 0.8110 0.8110 0.8110 0.8110
12.873169 0.8110 0.8110 0.8130 0.8130 0.8130
12.906000 0.8130 0.8140 0.8140 0.8140 0.8140
12.939169 0.8150 0.8150 0.8150 0.8150 0.8150
12.972000 0.8150 0.8150 0.8150 0.8150 0.8150
13.005169 0.8140 0.8140 0.8140 0.8130 0.8130
13.039000 0.8130 0.8130 0.8130 0.8110 0.8130
13.072169 0.8110 0.8110 0.8110 0.8110 0.8100
13.105000 0.8110 0.8100 0.8100 0.8100 0.8100
13.138169 0.8100 0.8100 0.8100 0.8100 0.8100
13.171000 0.8100 0.8100 0.8100 0.8090 0.8100
13.204169 0.8100 0.8100 0.8100 0.8100 0.8100
13.237000 0.8090 0.8090 0.8090 0.8070 0.8090
13.270169 0.8090 0.8090 0.8090 0.8100 0.8090
13.304000 0.8090 0.8070 0.8070 0.8070 0.8070
13.337169 0.8060 0.8050 0.8050 0.8030 0.8030
13.370000 0.8030 0.8020 0.8020 0.8020 0.8020
13.403169 0.8020 0.8020 0.8020 0.8020 0.8020
13.436000 0.8020 0.8020 0.8020 0.8020 0.8020
13.469169 0.8020 0.8020 0.8020 0.8020 0.8020
13.503000 0.8020 0.8010 0.8010 0.8010 0.8010
13.536169 0.8010 0.8010 0.8010 0.8010 0.8010
13.569000 0.8010 0.8010 0.8010 0.8010 0.8010
13.602169 0.8010 0.8010 0.8010 0.8010 0.8000
13.635000 0.8000 0.8000 0.8000 0.8000 0.8000
13.668169 0.8000 0.8000 0.7980 0.7980 0.7980
13.702000 0.7980 0.7980 0.7980 0.7980 0.7980
13.735169 0.7970 0.7970 0.7960 0.7960 0.7960
13.768000 0.7940 0.7940 0.7940 0.7930 0.7930
13.801169 0.7930 0.7930 0.7930 0.7920 0.7920
13.834000 0.7920 0.7920 0.7920 0.7920 0.7920
13.867169 0.7920 0.7900 0.7900 0.7900 0.7890
13.901000 0.7890 0.7890 0.7880 0.7880 0.7880
13.934169 0.7860 0.7860 0.7850 0.7850 0.7840
13.967000 0.7840 0.7820 0.7820 0.7810 0.7810
14.000169 0.7800 0.7780 0.7770 0.7770 0.7760
14.033000 0.7760 0.7740 0.7740 0.7730 0.7730
14.066169 0.7720 0.7720 0.7720 0.7700 0.7700
14.099000 0.7690 0.7680 0.7680 0.7680 0.7660
14.132169 0.7660 0.7650 0.7650 0.7640 0.7640
14.166000 0.7640 0.7620 0.7620 0.7610 0.7600
14.199169 0.7600 0.7580 0.7570 0.7560 0.7540
14.232000 0.7520 0.7500 0.7500 0.7490 0.7480
14.265169 0.7470 0.7450 0.7440 0.7440 0.7440
14.298000 0.7440 0.7430 0.7410 0.7410 0.7400
14.331169 0.7400 0.7390 0.7360 0.7330 0.7320
14.365000 0.7320 0.7310 0.7290 0.7280 0.7270
14.398169 0.7240 0.7230 0.7210 0.7200 0.7190
14.431000 0.7130 0.7110 0.7080 0.7080 0.7070
14.464169 0.7050 0.7040 0.7030 0.7000 0.6980
14.497000 0.6950 0.6920 0.6910 0.6900 0.6870
14.530169 0.6860 0.6830 0.6800 0.6760 0.6720
14.564000 0.6710 0.6660 0.6630 0.6620 0.6590
14.597169 0.6550 0.6500 0.6470 0.6450 0.6410
14.630000 0.6380 0.6350 0.6300 0.6230 0.6210
14.663169 0.6150 0.6140 0.6060 0.6020 0.5970
14.696000 0.5920 0.5890 0.5820 0.5800 0.5730
14.729169 0.5720 0.5660 0.5610 0.5540 0.5500
14.763000 0.5440 0.5430 0.5390 0.5360 0.5330
14.796169 0.5270 0.5230 0.5200 0.5170 0.5130
14.829000 0.5120 0.5090 0.5070 0.5040 0.5010
14.862169 0.5010 0.4990 0.4990 0.4980 0.4980
14.895000 0.4960 0.4960 0.4950 0.4950 0.4950
14.928169 0.4950 0.4950 0.4960 0.4960 0.4990
14.961000 0.5010 0.5030 0.5050 0.5080 0.5110
14.994169 0.5130 0.5160 0.5190 0.5210 0.5240
15.028000 0.5270 0.5290 0.5310 0.5320 0.5350
15.061169 0.5370 0.5400 0.5410 0.5450 0.5500
15.094000 0.5560 0.5610 0.5610 0.5640 0.5720
15.127169 0.5740 0.5800 0.5810 0.5850 0.5860
15.160000 0.5880 0.5900 0.5940 0.5980 0.6010
15.193169 0.6050 0.6070 0.6100 0.6130 0.6170
15.227000 0.6190 0.6210 0.6220
##END=
