##TITLE=METHYLETHYLKETOXIME
$$ E.K. NO. 906
##JCAMP-DX=4.24
##DATA TYPE=INFRARED SPECTRUM
##CLASS=COBLENTZ
##ORIGIN=DOW CHEMICAL COMPANY
##OWNER=COBLENTZ SOCIETY
Collection (C) 2018 copyright by the U.S. Secretary of Commerce
on behalf of the United States of America. All rights reserved.
##DATE=Not specified, most likely prior to 1970
##NAMES=(2Z)-2-butanone oxime
##CAS REGISTRY NO=96-29-7
##MOLFORM=C4 H9 N O
##SOURCE REFERENCE=COBLENTZ NO. 1678
##$NIST SOURCE=COBLENTZ
##$NIST IMAGE=cob1678
##SPECTROMETER/DATA SYSTEM=Not specified, most likely a prism, grating, or hybrid spectrometer.
##STATE=SOLUTION (10% CCl4 FOR 5000-1330, 10% CS2 FOR 1330-625 CM^-^1)
##PATH LENGTH=0.0121 CM, 0.0116 CM
##SAMPLING PROCEDURE=TRANSMISSION
##RESOLUTION=4
##DATA PROCESSING=DIGITIZED BY NIST FROM HARD COPY
##XUNITS=MICROMETERS
##YUNITS=TRANSMITTANCE
##XFACTOR=1.000000
##YFACTOR=1
##DELTAX=000.006869
##FIRSTX=2.034
##LASTX=15.9316
##FIRSTY=0.843
##MAXX=15.9316
##MINX=2.034
##MAXY=0.885
##MINY=0.056
##NPOINTS=2024
##XYDATA=(X++(Y..Y))
2.034000 0.8430 0.8430 0.8430 0.8430 0.8430
2.068364 0.8430 0.8430 0.8430 0.8430 0.8430
2.103000 0.8430 0.8430 0.8430 0.8430 0.8430
2.137364 0.8430 0.8430 0.8430 0.8450 0.8450
2.172000 0.8450 0.8450 0.8450 0.8430 0.8430
2.206364 0.8430 0.8420 0.8400 0.8350 0.8280
2.240000 0.8230 0.8210 0.8190 0.8190 0.8190
2.274364 0.8210 0.8210 0.8210 0.8250 0.8260
2.309000 0.8260 0.8280 0.8300 0.8300 0.8310
2.343364 0.8330 0.8330 0.8350 0.8370 0.8370
2.378000 0.8370 0.8380 0.8400 0.8420 0.8430
2.412364 0.8450 0.8450 0.8450 0.8450 0.8450
2.447000 0.8450 0.8430 0.8420 0.8380 0.8350
2.481364 0.8330 0.8330 0.8330 0.8370 0.8400
2.515000 0.8420 0.8420 0.8420 0.8430 0.8430
2.549364 0.8430 0.8430 0.8430 0.8430 0.8430
2.584000 0.8430 0.8470 0.8500 0.8520 0.8540
2.618364 0.8540 0.8570 0.8620 0.8620 0.8620
2.653000 0.8620 0.8610 0.8540 0.8520 0.8500
2.687364 0.8470 0.8450 0.8430 0.8400 0.8350
2.721000 0.8330 0.8300 0.8190 0.8070 0.7990
2.755364 0.7900 0.7780 0.7710 0.7490 0.7350
2.790000 0.6800 0.6630 0.6620 0.6600 0.6600
2.824364 0.6580 0.6560 0.6510 0.6500 0.6310
2.859000 0.5880 0.5520 0.5230 0.5070 0.4920
2.893364 0.4610 0.4250 0.3960 0.3610 0.3200
2.927000 0.2980 0.2760 0.2590 0.2450 0.2090
2.961364 0.1830 0.1640 0.1470 0.1350 0.1250
2.996000 0.1140 0.1020 0.0890 0.0700 0.0660
3.030364 0.0610 0.0610 0.0600 0.0580 0.0580
3.065000 0.0580 0.0560 0.0560 0.0560 0.0560
3.099364 0.0560 0.0580 0.0580 0.0610 0.0660
3.133000 0.0730 0.0770 0.0890 0.0960 0.0970
3.167364 0.1020 0.1110 0.1130 0.1250 0.1250
3.202000 0.1320 0.1420 0.1500 0.1520 0.1540
3.236364 0.1590 0.1660 0.1730 0.1860 0.1970
3.271000 0.2020 0.2100 0.2160 0.2310 0.2450
3.305364 0.2520 0.2590 0.2690 0.2710 0.2710
3.340000 0.2650 0.2500 0.2430 0.2240 0.2170
3.374364 0.1520 0.0990 0.0820 0.0820 0.0870
3.408000 0.1010 0.1110 0.1130 0.1130 0.1110
3.442364 0.1110 0.1090 0.1110 0.1180 0.1260
3.477000 0.1420 0.1690 0.1860 0.2050 0.2500
3.511364 0.2670 0.2960 0.3130 0.3370 0.3580
3.546000 0.3750 0.4160 0.4400 0.4690 0.4800
3.580364 0.4990 0.5140 0.5330 0.5550 0.5710
3.614000 0.5780 0.5830 0.5910 0.5950 0.6000
3.648364 0.6070 0.6200 0.6200 0.6340 0.6480
3.683000 0.6560 0.6630 0.6750 0.6820 0.6920
3.717364 0.7060 0.7150 0.7230 0.7320 0.7370
3.752000 0.7470 0.7510 0.7530 0.7560 0.7580
3.786364 0.7610 0.7650 0.7700 0.7750 0.7800
3.820000 0.7830 0.7870 0.7920 0.7950 0.7970
3.854364 0.7990 0.8020 0.8040 0.8060 0.8090
3.889000 0.8130 0.8160 0.8180 0.8210 0.8250
3.923364 0.8260 0.8300 0.8300 0.8300 0.8310
3.958000 0.8310 0.8310 0.8350 0.8380 0.8400
3.992364 0.8380 0.8400 0.8420 0.8420 0.8430
4.026000 0.8430 0.8430 0.8430 0.8430 0.8430
4.060364 0.8430 0.8430 0.8450 0.8470 0.8490
4.095000 0.8500 0.8520 0.8540 0.8550 0.8550
4.129364 0.8590 0.8610 0.8610 0.8610 0.8610
4.164000 0.8610 0.8610 0.8610 0.8590 0.8540
4.198364 0.8500 0.8450 0.8430 0.8420 0.8420
4.233000 0.8420 0.8420 0.8420 0.8430 0.8450
4.267364 0.8470 0.8490 0.8500 0.8540 0.8550
4.301000 0.8610 0.8610 0.8610 0.8610 0.8610
4.335364 0.8610 0.8590 0.8540 0.8520 0.8520
4.370000 0.8520 0.8520 0.8520 0.8520 0.8520
4.404364 0.8520 0.8590 0.8610 0.8610 0.8640
4.439000 0.8640 0.8660 0.8660 0.8670 0.8690
4.473364 0.8730 0.8740 0.8740 0.8760 0.8760
4.507000 0.8760 0.8760 0.8760 0.8760 0.8780
4.541364 0.8780 0.8790 0.8810 0.8830 0.8830
4.576000 0.8830 0.8830 0.8830 0.8810 0.8810
4.610364 0.8810 0.8810 0.8790 0.8790 0.8790
4.645000 0.8790 0.8780 0.8780 0.8790 0.8790
4.679364 0.8810 0.8810 0.8830 0.8830 0.8850
4.713000 0.8850 0.8850 0.8850 0.8830 0.8830
4.747364 0.8810 0.8810 0.8810 0.8810 0.8810
4.782000 0.8810 0.8830 0.8830 0.8810 0.8810
4.816364 0.8810 0.8810 0.8810 0.8810 0.8810
4.851000 0.8810 0.8810 0.8790 0.8790 0.8790
4.885364 0.8790 0.8790 0.8810 0.8810 0.8790
4.920000 0.8790 0.8790 0.8790 0.8790 0.8790
4.954364 0.8790 0.8780 0.8760 0.8760 0.8760
4.988000 0.8760 0.8760 0.8760 0.8760 0.8760
5.022364 0.8760 0.8780 0.8790 0.8790 0.8810
5.057000 0.8810 0.8810 0.8810 0.8810 0.8810
5.091364 0.8830 0.8810 0.8810 0.8810 0.8810
5.126000 0.8810 0.8810 0.8810 0.8810 0.8810
5.160364 0.8790 0.8810 0.8790 0.8790 0.8780
5.194000 0.8760 0.8760 0.8760 0.8740 0.8740
5.228364 0.8740 0.8740 0.8740 0.8740 0.8730
5.263000 0.8710 0.8690 0.8670 0.8660 0.8660
5.297364 0.8640 0.8640 0.8640 0.8620 0.8620
5.332000 0.8610 0.8590 0.8570 0.8550 0.8540
5.366364 0.8540 0.8540 0.8540 0.8540 0.8540
5.400000 0.8540 0.8540 0.8520 0.8520 0.8520
5.434364 0.8520 0.8520 0.8520 0.8520 0.8520
5.469000 0.8540 0.8540 0.8550 0.8550 0.8570
5.503364 0.8570 0.8590 0.8610 0.8610 0.8610
5.538000 0.8610 0.8540 0.8540 0.8540 0.8540
5.572364 0.8540 0.8540 0.8550 0.8570 0.8590
5.606000 0.8610 0.8610 0.8610 0.8610 0.8610
5.640364 0.8610 0.8590 0.8570 0.8550 0.8550
5.675000 0.8550 0.8550 0.8550 0.8550 0.8540
5.709364 0.8520 0.8520 0.8490 0.8450 0.8430
5.744000 0.8420 0.8420 0.8400 0.8350 0.8370
5.778364 0.8330 0.8330 0.8310 0.8300 0.8280
5.813000 0.8260 0.8250 0.8250 0.8230 0.8210
5.847364 0.8190 0.8180 0.8140 0.8140 0.8160
5.881000 0.8140 0.8140 0.8140 0.8140 0.8140
5.915364 0.8130 0.8090 0.8060 0.8010 0.7900
5.950000 0.7780 0.7610 0.7390 0.7180 0.7010
5.984364 0.6480 0.6440 0.5910 0.5640 0.5600
6.019000 0.5500 0.5360 0.5330 0.5350 0.5400
6.053364 0.5450 0.5550 0.5910 0.6220 0.6580
6.087000 0.6840 0.7180 0.7270 0.7510 0.7590
6.121364 0.7590 0.7590 0.7590 0.7590 0.7590
6.156000 0.7590 0.7540 0.7530 0.7440 0.7370
6.190364 0.7320 0.7270 0.7220 0.7180 0.7030
6.225000 0.6940 0.6860 0.6840 0.6580 0.6440
6.259364 0.6430 0.6200 0.6080 0.5960 0.5840
6.293000 0.5830 0.5690 0.5620 0.5590 0.5570
6.327364 0.5550 0.5500 0.5500 0.5430 0.5420
6.362000 0.5300 0.5240 0.5160 0.5140 0.5110
6.396364 0.5060 0.5020 0.5000 0.4930 0.4850
6.431000 0.4810 0.4710 0.4640 0.4560 0.4490
6.465364 0.4420 0.4390 0.4320 0.4320 0.4320
6.500000 0.4320 0.4330 0.4390 0.4420 0.4450
6.534364 0.4490 0.4540 0.4590 0.4610 0.4630
6.568000 0.4660 0.4680 0.4690 0.4710 0.4750
6.602364 0.4780 0.4830 0.4850 0.4870 0.4880
6.637000 0.4900 0.4920 0.4920 0.4920 0.4920
6.671364 0.4920 0.4900 0.4900 0.4830 0.4810
6.706000 0.4760 0.4710 0.4610 0.4490 0.4320
6.740364 0.4180 0.4060 0.3970 0.3870 0.3770
6.774000 0.3630 0.3580 0.3410 0.3250 0.3200
6.808364 0.2910 0.2770 0.2620 0.2410 0.2160
6.843000 0.2020 0.1920 0.1800 0.1710 0.1710
6.877364 0.1690 0.1710 0.1800 0.1920 0.2000
6.912000 0.2090 0.2160 0.2220 0.2290 0.2330
6.946364 0.2380 0.2410 0.2430 0.2450 0.2500
6.980000 0.2500 0.2590 0.2620 0.2650 0.2740
7.014364 0.2790 0.2830 0.2860 0.2910 0.3010
7.049000 0.3080 0.3120 0.3360 0.3630 0.3720
7.083364 0.3870 0.3960 0.4060 0.4130 0.4180
7.118000 0.4270 0.4320 0.4390 0.4420 0.4450
7.152364 0.4510 0.4520 0.4560 0.4570 0.4590
7.186000 0.4590 0.4570 0.4540 0.4520 0.4450
7.220364 0.4150 0.3920 0.3670 0.3430 0.2960
7.255000 0.2830 0.2670 0.2520 0.2500 0.2410
7.289364 0.2330 0.2280 0.2190 0.2170 0.2190
7.324000 0.2240 0.2330 0.2430 0.3220 0.4010
7.358364 0.4320 0.4590 0.5330 0.5420 0.5470
7.393000 0.5480 0.5540 0.5620 0.5720 0.5830
7.427364 0.5910 0.5980 0.6000 0.6020 0.6020
7.461000 0.6030 0.6030 0.6030 0.6020 0.5950
7.495364 0.5780 0.5690 0.5590 0.5500 0.5430
7.530000 0.5420 0.5420 0.5420 0.5430 0.5540
7.564364 0.5540 0.5900 0.5980 0.6120 0.6190
7.599000 0.6220 0.6290 0.6410 0.6510 0.6550
7.633364 0.6600 0.6680 0.6770 0.6860 0.6940
7.667000 0.7030 0.7110 0.7160 0.7250 0.7300
7.701364 0.7320 0.7340 0.7350 0.7390 0.7400
7.736000 0.7400 0.7420 0.7400 0.7400 0.7370
7.770364 0.7340 0.7300 0.7220 0.7080 0.6960
7.805000 0.6750 0.6740 0.6630 0.6530 0.6380
7.839364 0.6270 0.6240 0.6200 0.6150 0.6100
7.873000 0.6100 0.6120 0.6140 0.6190 0.6270
7.907364 0.6410 0.6530 0.6620 0.6650 0.6800
7.942000 0.6840 0.6890 0.6910 0.6940 0.6990
7.976364 0.6990 0.6980 0.6840 0.6530 0.6380
8.011000 0.6190 0.5900 0.5840 0.5710 0.5420
8.045364 0.5210 0.5040 0.4990 0.4920 0.4900
8.079000 0.4930 0.5160 0.5280 0.5380 0.5450
8.113364 0.5810 0.5900 0.5900 0.5900 0.5900
8.148000 0.5880 0.5760 0.5710 0.5520 0.5480
8.182364 0.5470 0.5430 0.5420 0.5450 0.5600
8.217000 0.5660 0.5740 0.6120 0.6190 0.6390
8.251364 0.6560 0.6800 0.6890 0.6990 0.7080
8.286000 0.7180 0.7230 0.7540 0.7630 0.7710
8.320364 0.7850 0.7920 0.7950 0.8010 0.8040
8.354000 0.8070 0.8130 0.8210 0.8210 0.8280
8.388364 0.8280 0.8300 0.8300 0.8310 0.8310
8.423000 0.8310 0.8310 0.8310 0.8310 0.8310
8.457364 0.8310 0.8310 0.8310 0.8310 0.8310
8.492000 0.8310 0.8310 0.8310 0.8310 0.8310
8.526364 0.8300 0.8300 0.8300 0.8280 0.8280
8.560000 0.8280 0.8280 0.8280 0.8280 0.8300
8.594364 0.8310 0.8330 0.8350 0.8370 0.8400
8.629000 0.8420 0.8450 0.8450 0.8450 0.8470
8.663364 0.8470 0.8490 0.8490 0.8490 0.8500
8.698000 0.8500 0.8500 0.8500 0.8500 0.8500
8.732364 0.8500 0.8500 0.8500 0.8500 0.8500
8.766000 0.8500 0.8490 0.8490 0.8490 0.8470
8.800364 0.8470 0.8450 0.8450 0.8430 0.8430
8.835000 0.8430 0.8420 0.8420 0.8400 0.8380
8.869364 0.8370 0.8350 0.8330 0.8310 0.8300
8.904000 0.8280 0.8260 0.8250 0.8230 0.8210
8.938364 0.8190 0.8180 0.8160 0.8140 0.8110
8.973000 0.8070 0.8040 0.8020 0.7890 0.7850
9.007364 0.7820 0.7700 0.7610 0.7510 0.7420
9.041000 0.7280 0.7150 0.6960 0.6390 0.6320
9.075364 0.6260 0.6140 0.5590 0.5480 0.5330
9.110000 0.5040 0.4870 0.4690 0.4570 0.4420
9.144364 0.4230 0.4200 0.4200 0.4210 0.4230
9.179000 0.4280 0.4400 0.4590 0.4750 0.4880
9.213364 0.5180 0.5380 0.5450 0.5550 0.5660
9.247000 0.5720 0.5780 0.5780 0.5810 0.5810
9.281364 0.5740 0.5570 0.5280 0.5260 0.5020
9.316000 0.4920 0.4810 0.4570 0.4420 0.4230
9.350364 0.4090 0.4060 0.4080 0.4110 0.4300
9.385000 0.4490 0.4810 0.5550 0.6070 0.6170
9.419364 0.6380 0.6630 0.6820 0.6870 0.6910
9.453000 0.7160 0.7220 0.7280 0.7370 0.7420
9.487364 0.7470 0.7530 0.7540 0.7560 0.7560
9.522000 0.7580 0.7590 0.7610 0.7610 0.7630
9.556364 0.7630 0.7650 0.7660 0.7680 0.7680
9.591000 0.7700 0.7700 0.7700 0.7700 0.7710
9.625364 0.7710 0.7710 0.7710 0.7710 0.7700
9.659000 0.7680 0.7680 0.7660 0.7650 0.7630
9.693364 0.7610 0.7580 0.7540 0.7510 0.7510
9.728000 0.7470 0.7420 0.7350 0.7320 0.7270
9.762364 0.7250 0.7220 0.7150 0.7080 0.7010
9.797000 0.6960 0.6890 0.6840 0.6750 0.6680
9.831364 0.6580 0.6480 0.6320 0.6240 0.6120
9.866000 0.6000 0.5880 0.5720 0.5590 0.5450
9.900364 0.5310 0.5180 0.5040 0.4990 0.4930
9.934000 0.4810 0.4730 0.4660 0.4590 0.4560
9.968364 0.4540 0.4520 0.4520 0.4510 0.4490
10.003000 0.4470 0.4450 0.4440 0.4400 0.4370
10.037364 0.4330 0.4270 0.4130 0.4130 0.4060
10.072000 0.4030 0.3960 0.3850 0.3750 0.3610
10.106364 0.3560 0.3440 0.3310 0.3200 0.3200
10.140000 0.3050 0.2910 0.2810 0.2740 0.2650
10.174364 0.2570 0.2520 0.2480 0.2460 0.2430
10.209000 0.2380 0.2290 0.2190 0.2160 0.2140
10.243364 0.2050 0.2000 0.1950 0.1930 0.1920
10.278000 0.1900 0.1860 0.1860 0.1880 0.2000
10.312364 0.2160 0.2330 0.2520 0.2690 0.2880
10.346000 0.3070 0.3220 0.3390 0.3510 0.3650
10.380364 0.3730 0.3870 0.4110 0.4270 0.4300
10.415000 0.4370 0.4450 0.4490 0.4520 0.4540
10.449364 0.4560 0.4560 0.4560 0.4570 0.4570
10.484000 0.4570 0.4540 0.4510 0.4490 0.4420
10.518364 0.4370 0.4300 0.4270 0.4200 0.4130
10.553000 0.4080 0.4040 0.3990 0.3940 0.3890
10.587364 0.3820 0.3720 0.3650 0.3490 0.3250
10.621000 0.3000 0.2760 0.2550 0.2430 0.2070
10.655364 0.1980 0.1850 0.1690 0.1570 0.1440
10.690000 0.1330 0.1210 0.1130 0.1040 0.0960
10.724364 0.0850 0.0800 0.0770 0.0750 0.0730
10.759000 0.0730 0.0720 0.0720 0.0720 0.0720
10.793364 0.0720 0.0720 0.0720 0.0720 0.0730
10.827000 0.0750 0.0770 0.0770 0.0800 0.0820
10.861364 0.0900 0.0940 0.1010 0.1130 0.1280
10.896000 0.1440 0.1560 0.1680 0.1780 0.1860
10.930364 0.1970 0.2040 0.2120 0.2190 0.2280
10.965000 0.2340 0.2410 0.2500 0.2570 0.2650
10.999364 0.2760 0.2840 0.2960 0.3080 0.3200
11.033000 0.3250 0.3340 0.3410 0.3510 0.3630
11.067364 0.3750 0.3870 0.3990 0.4110 0.4230
11.102000 0.4330 0.4420 0.4520 0.4640 0.4800
11.136364 0.4970 0.5120 0.5230 0.5470 0.5600
11.171000 0.5660 0.5760 0.5780 0.5840 0.5950
11.205364 0.5960 0.6050 0.6150 0.6200 0.6260
11.239000 0.6270 0.6310 0.6340 0.6380 0.6410
11.273364 0.6440 0.6440 0.6460 0.6460 0.6460
11.308000 0.6480 0.6500 0.6510 0.6510 0.6510
11.342364 0.6510 0.6510 0.6510 0.6510 0.6510
11.377000 0.6510 0.6510 0.6510 0.6510 0.6500
11.411364 0.6480 0.6480 0.6480 0.6460 0.6440
11.446000 0.6430 0.6410 0.6410 0.6410 0.6390
11.480364 0.6390 0.6390 0.6390 0.6380 0.6380
11.514000 0.6360 0.6340 0.6320 0.6310 0.6310
11.548364 0.6290 0.6270 0.6260 0.6240 0.6220
11.583000 0.6200 0.6190 0.6190 0.6170 0.6150
11.617364 0.6140 0.6120 0.6100 0.6080 0.6070
11.652000 0.6050 0.6050 0.6030 0.6030 0.6030
11.686364 0.6020 0.6020 0.6020 0.6020 0.6030
11.720000 0.6030 0.6030 0.6050 0.6070 0.6080
11.754364 0.6120 0.6150 0.6190 0.6200 0.6220
11.789000 0.6240 0.6270 0.6310 0.6380 0.6460
11.823364 0.6480 0.6500 0.6510 0.6530 0.6550
11.858000 0.6580 0.6620 0.6650 0.6670 0.6700
11.892364 0.6720 0.6720 0.6740 0.6750 0.6750
11.926000 0.6770 0.6770 0.6790 0.6800 0.6800
11.960364 0.6820 0.6820 0.6820 0.6840 0.6820
11.995000 0.6820 0.6820 0.6820 0.6820 0.6820
12.029364 0.6800 0.6800 0.6790 0.6790 0.6770
12.064000 0.6770 0.6750 0.6740 0.6740 0.6720
12.098364 0.6700 0.6680 0.6670 0.6650 0.6630
12.132000 0.6630 0.6620 0.6620 0.6600 0.6580
12.166364 0.6580 0.6560 0.6550 0.6550 0.6530
12.201000 0.6510 0.6500 0.6460 0.6440 0.6440
12.235364 0.6430 0.6430 0.6410 0.6390 0.6360
12.270000 0.6320 0.6310 0.6270 0.6220 0.6190
12.304364 0.6170 0.6140 0.6120 0.6100 0.6080
12.339000 0.6020 0.5960 0.5900 0.5830 0.5760
12.373364 0.5670 0.5600 0.5520 0.5420 0.5310
12.407000 0.5210 0.5110 0.5000 0.4950 0.4880
12.441364 0.4760 0.4630 0.4440 0.4320 0.4270
12.476000 0.4150 0.4040 0.3970 0.3960 0.3870
12.510364 0.3820 0.3820 0.3820 0.3820 0.3870
12.545000 0.3990 0.4080 0.4130 0.4180 0.4210
12.579364 0.4270 0.4320 0.4350 0.4390 0.4440
12.613000 0.4450 0.4490 0.4510 0.4510 0.4510
12.647364 0.4510 0.4450 0.4400 0.4400 0.4370
12.682000 0.4330 0.4300 0.4280 0.4270 0.4250
12.716364 0.4210 0.4210 0.4200 0.4180 0.4160
12.751000 0.4160 0.4160 0.4160 0.4160 0.4200
12.785364 0.4210 0.4230 0.4250 0.4280 0.4300
12.819000 0.4330 0.4350 0.4350 0.4350 0.4350
12.853364 0.4350 0.4350 0.4350 0.4330 0.4320
12.888000 0.4300 0.4270 0.4230 0.4200 0.4180
12.922364 0.4130 0.4110 0.4060 0.4030 0.4030
12.957000 0.3990 0.3970 0.3970 0.3940 0.3940
12.991364 0.3940 0.3940 0.3960 0.3960 0.3970
13.026000 0.3970 0.3970 0.3990 0.3990 0.3990
13.060364 0.4010 0.4010 0.4030 0.4030 0.4040
13.094000 0.4060 0.4080 0.4090 0.4090 0.4090
13.128364 0.4090 0.4090 0.4090 0.4090 0.4080
13.163000 0.4080 0.4060 0.4060 0.4040 0.4040
13.197364 0.4040 0.4030 0.4010 0.3990 0.3990
13.232000 0.3970 0.3940 0.3910 0.3890 0.3890
13.266364 0.3870 0.3850 0.3840 0.3820 0.3800
13.300000 0.3790 0.3750 0.3730 0.3720 0.3720
13.334364 0.3700 0.3680 0.3680 0.3680 0.3670
13.369000 0.3650 0.3610 0.3610 0.3600 0.3600
13.403364 0.3580 0.3580 0.3560 0.3560 0.3550
13.438000 0.3530 0.3530 0.3530 0.3530 0.3510
13.472364 0.3510 0.3490 0.3490 0.3480 0.3480
13.506000 0.3480 0.3480 0.3480 0.3480 0.3480
13.540364 0.3480 0.3480 0.3480 0.3480 0.3480
13.575000 0.3510 0.3490 0.3490 0.3490 0.3490
13.609364 0.3490 0.3510 0.3510 0.3510 0.3510
13.644000 0.3530 0.3530 0.3530 0.3550 0.3550
13.678364 0.3550 0.3550 0.3550 0.3550 0.3550
13.712000 0.3550 0.3550 0.3560 0.3560 0.3580
13.746364 0.3580 0.3580 0.3600 0.3600 0.3610
13.781000 0.3630 0.3650 0.3650 0.3670 0.3680
13.815364 0.3700 0.3700 0.3720 0.3720 0.3730
13.850000 0.3750 0.3750 0.3770 0.3770 0.3790
13.884364 0.3800 0.3800 0.3820 0.3840 0.3840
13.919000 0.3850 0.3870 0.3890 0.3890 0.3910
13.953364 0.3920 0.3920 0.3940 0.3960 0.3960
13.987000 0.3970 0.3960 0.3970 0.3970 0.3970
14.021364 0.3990 0.3990 0.4010 0.4010 0.4010
14.056000 0.4030 0.4030 0.4040 0.4040 0.4060
14.090364 0.4060 0.4060 0.4060 0.4060 0.4060
14.125000 0.4060 0.4060 0.4080 0.4080 0.4080
14.159364 0.4090 0.4090 0.4090 0.4110 0.4130
14.193000 0.4130 0.4150 0.4150 0.4150 0.4150
14.227364 0.4150 0.4160 0.4160 0.4160 0.4180
14.262000 0.4180 0.4180 0.4180 0.4180 0.4200
14.296364 0.4200 0.4200 0.4200 0.4200 0.4200
14.331000 0.4200 0.4200 0.4200 0.4200 0.4200
14.365364 0.4200 0.4200 0.4200 0.4200 0.4210
14.399000 0.4210 0.4210 0.4210 0.4210 0.4210
14.433364 0.4230 0.4230 0.4230 0.4230 0.4230
14.468000 0.4230 0.4250 0.4230 0.4210 0.4210
14.502364 0.4210 0.4210 0.4210 0.4210 0.4210
14.537000 0.4210 0.4230 0.4230 0.4230 0.4210
14.571364 0.4210 0.4210 0.4210 0.4210 0.4210
14.605000 0.4210 0.4210 0.4210 0.4210 0.4210
14.639364 0.4210 0.4210 0.4210 0.4210 0.4210
14.674000 0.4210 0.4210 0.4200 0.4210 0.4180
14.708364 0.4180 0.4160 0.4150 0.4150 0.4130
14.743000 0.4130 0.4090 0.4090 0.4080 0.4080
14.777364 0.4060 0.4060 0.4040 0.4040 0.4040
14.812000 0.4040 0.4040 0.4040 0.4040 0.4040
14.846364 0.4040 0.4040 0.4040 0.4040 0.4040
14.880000 0.4040 0.4030 0.4030 0.4030 0.4030
14.914364 0.4030 0.4010 0.4010 0.4010 0.4010
14.949000 0.4010 0.4010 0.4010 0.4010 0.4010
14.983364 0.3990 0.3990 0.3990 0.3990 0.3990
15.018000 0.3990 0.3990 0.3970 0.3970 0.3970
15.052364 0.3970 0.3960 0.3960 0.3960 0.3960
15.086000 0.3960 0.3940 0.3920 0.3920 0.3910
15.120364 0.3910 0.3890 0.3870 0.3870 0.3850
15.155000 0.3840 0.3820 0.3820 0.3800 0.3790
15.189364 0.3770 0.3750 0.3750 0.3730 0.3720
15.224000 0.3700 0.3680 0.3670 0.3650 0.3650
15.258364 0.3630 0.3610 0.3610 0.3600 0.3580
15.292000 0.3560 0.3560 0.3550 0.3530 0.3530
15.326364 0.3530 0.3510 0.3510 0.3510 0.3490
15.361000 0.3490 0.3490 0.3490 0.3480 0.3480
15.395364 0.3480 0.3460 0.3460 0.3460 0.3440
15.430000 0.3430 0.3430 0.3430 0.3430 0.3430
15.464364 0.3430 0.3410 0.3410 0.3410 0.3410
15.499000 0.3410 0.3390 0.3410 0.3410 0.3410
15.533364 0.3410 0.3410 0.3410 0.3390 0.3390
15.567000 0.3390 0.3390 0.3390 0.3390 0.3390
15.601364 0.3390 0.3390 0.3370 0.3370 0.3370
15.636000 0.3370 0.3370 0.3370 0.3370 0.3370
15.670364 0.3370 0.3370 0.3370 0.3340 0.3340
15.705000 0.3320 0.3320 0.3320 0.3320 0.3320
15.739364 0.3320 0.3320 0.3320 0.3320 0.3310
15.773000 0.3310 0.3310 0.3290 0.3290 0.3290
15.807364 0.3290 0.3270 0.3270 0.3270 0.3250
15.842000 0.3250 0.3250 0.3250 0.3240 0.3240
15.876364 0.3240 0.3240 0.3220 0.3220 0.3220
15.911000 0.3220 0.3200 0.3200 0.3200
##END=
