##TITLE=2-Chloro-N-methylacetamide
##JCAMP-DX=4.24
##DATA TYPE=INFRARED SPECTRUM
##ORIGIN=EPA-IR VAPOR PHASE LIBRARY
##OWNER=SRD/NIST
Collection (C) 2018 copyright by the U.S. Secretary of Commerce
on behalf of the United States of America. All rights reserved.
##CAS REGISTRY NO=96-30-0
##MOLFORM=C 3 H 6 Cl N O
##$NIST SOURCE=MSDC-IR
##STATE=gas
##XUNITS=1/CM
##YUNITS=ABSORBANCE
##XFACTOR=1.
##YFACTOR=0.001
##DELTAX=1.92898
##FIRSTX=549.8
##LASTX=4000.7
##FIRSTY=2.148
##MAXX=4000.7
##MINX=549.759
##MAXY=0.082348
##MINY=0
##NPOINTS=1790
##XYDATA=(X++(Y..Y))
549.759 2.148 2.038 1.848 1.998 2.388 2.328 2.008 2.018 1.798 1.718
569.049 1.888 1.758 1.538 1.518 1.628 1.528 1.618 1.768 1.688 1.728
588.339 1.768 1.678 1.818 1.808 1.898 2.078 2.138 2.258 2.238 2.418
607.628 2.648 2.658 2.438 2.628 2.828 2.948 3.138 3.108 3.148 3.058
626.918 2.998 2.858 2.518 2.328 2.438 2.218 1.938 1.888 1.748 1.988
646.208 2.038 1.858 1.808 1.998 2.098 2.088 2.178 2.098 2.378 2.518
665.498 2.578 2.788 2.938 2.918 2.968 3.008 2.988 3.088 2.998 2.858
684.787 2.768 2.758 2.798 2.808 2.778 2.678 2.568 2.458 2.448 2.428
704.077 2.428 2.658 2.768 2.528 2.428 2.358 2.338 2.638 2.808 2.628
723.367 2.668 2.888 2.848 3.048 3.508 3.788 4.118 4.868 5.758 6.758
742.657 7.968 9.178 10.488 11.938 13.198 14.058 14.808 15.448 15.748 15.938
761.947 15.898 15.848 15.598 14.898 14.008 12.958 11.388 9.558 7.848 6.438
781.236 5.618 4.788 4.078 3.618 3.168 2.868 2.648 2.528 2.408 2.228
800.526 2.258 2.218 2.068 2.008 1.808 1.708 1.658 1.528 1.448 1.578
819.816 1.428 1.438 1.838 1.738 1.488 1.538 1.598 1.388 1.378 1.308
839.106 1.318 1.568 1.488 1.378 1.358 1.388 1.278 1.218 1.298 1.268
858.395 1.218 1.288 1.388 1.418 1.508 1.388 1.1658 1.228 1.198 1.0574
877.685 1.0738 1.0467 1.0642 1.0035 1.106 1.278 1.0252 0.92 1.077 0.9893
896.975 0.8098 0.8673 0.9301 0.9857 1.1729 1.1813 1.298 1.488 1.428 1.648
916.265 2.058 2.048 2.048 2.098 1.938 1.808 1.868 1.998 2.068 2.058
935.555 2.068 2.188 2.288 2.208 2.028 2.098 2.238 2.108 2.198 2.298
954.844 2.028 1.928 1.958 1.998 2.198 2.308 2.238 2.298 2.248 2.328
974.134 2.318 2.078 2.028 2.098 2.088 2.068 2.118 2.028 1.858 1.998
993.424 1.998 1.748 1.938 2.018 1.948 1.888 1.858 1.868 1.778 1.748
1012.714 1.718 1.518 1.368 1.528 1.628 1.468 1.298 1.278 1.278 1.468
1032.003 1.598 1.368 1.348 1.308 1.328 1.418 1.328 1.388 1.438 1.548
1051.293 1.518 1.258 1.268 1.198 1.1152 1.528 1.678 1.498 1.428 1.298
1070.583 1.238 1.1285 1.0265 0.8409 0.9474 1.278 0.9346 0.777 1.0582 1.1765
1089.873 1.298 1.288 1.308 1.638 1.808 2.018 2.408 2.218 1.518 1.518
1109.163 2.028 2.348 2.198 1.898 1.768 1.558 1.748 1.988 1.928 1.998
1128.452 2.278 2.328 2.068 2.058 2.108 1.958 2.108 1.888 1.688 2.228
1147.742 2.138 2.088 2.378 2.318 2.098 2.378 2.578 2.418 2.768 3.038
1167.032 3.078 3.318 3.358 3.358 3.498 3.728 3.718 3.748 4.258 4.458
1186.322 4.548 4.418 4.478 4.558 4.588 4.778 4.928 5.098 5.088 5.248
1205.611 5.458 5.858 6.018 6.178 6.518 6.758 7.048 7.198 7.518 7.778
1224.901 8.228 9.178 9.808 10.358 11.148 11.718 12.638 13.948 15.298 16.508
1244.191 17.718 18.958 19.808 20.368 20.708 20.478 19.908 19.488 19.008 18.488
1263.481 18.358 18.328 17.698 16.188 14.288 12.598 11.078 9.728 8.678 7.668
1282.771 6.808 6.148 5.578 5.148 4.658 4.308 4.078 3.718 3.478 3.308
1302.060 3.028 2.818 2.598 2.458 2.358 2.188 2.088 2.038 2.038 2.008
1321.350 1.948 1.918 1.918 1.948 1.998 2.008 2.008 1.988 1.968 2.038
1340.640 2.128 2.168 2.208 2.228 2.218 2.278 2.368 2.418 2.498 2.508
1359.930 2.518 2.588 2.568 2.598 2.688 2.768 2.888 2.968 2.998 3.008
1379.219 3.018 3.098 3.268 3.388 3.498 3.708 3.908 4.178 4.538 4.868
1398.509 5.258 5.738 6.268 6.918 7.558 8.288 9.078 9.718 10.218 10.478
1417.799 10.508 10.408 10.288 10.208 10.308 10.538 10.598 10.318 9.778 9.138
1437.089 8.398 7.618 7.038 6.558 6.118 5.818 5.538 5.408 5.368 5.298
1456.378 5.388 5.588 5.858 6.178 6.508 6.988 7.488 8.098 8.798 9.558
1475.668 10.458 11.508 12.548 13.638 14.988 16.428 17.918 19.568 21.278 23.088
1494.958 24.978 26.888 28.838 30.788 32.718 34.428 36.008 37.538 38.858 39.938
1514.248 40.678 41.158 41.518 41.608 41.348 40.788 39.928 38.938 37.708 36.158
1533.538 34.578 33.038 31.408 29.728 28.178 26.748 25.278 23.728 22.268 20.918
1552.827 19.658 18.318 17.068 15.818 14.698 13.818 12.798 11.808 10.988 10.098
1572.117 9.288 8.558 7.878 7.358 6.858 6.318 5.708 5.278 5.038 4.728
1591.407 4.398 4.128 3.908 3.688 3.448 3.358 3.268 2.978 2.808 2.718
1610.697 2.698 2.578 2.418 2.428 2.318 2.278 2.288 2.238 2.198 2.208
1629.986 2.278 2.308 2.428 2.488 2.468 2.478 2.618 2.778 2.888 3.008
1649.276 3.158 3.348 3.568 3.758 3.938 4.088 4.298 4.638 4.968 5.268
1668.566 5.578 5.938 6.468 7.188 8.108 9.108 10.458 12.008 13.898 16.388
1687.856 19.318 22.828 27.058 32.058 38.198 45.218 52.728 60.948 67.978 73.498
1707.146 76.428 76.808 75.368 74.158 74.568 77.098 80.738 82.348 79.968 74.098
1726.435 66.018 57.208 48.668 41.228 34.728 29.398 25.088 21.258 18.078 15.388
1745.725 13.158 11.308 9.828 8.628 7.648 6.868 6.168 5.618 5.168 4.788
1765.015 4.498 4.228 3.898 3.578 3.398 3.188 2.888 2.668 2.418 2.158
1784.305 1.998 1.788 1.668 1.598 1.498 1.338 1.238 1.1873 1.0632 0.965
1803.594 0.9228 0.9373 0.94 0.8879 0.8541 0.8124 0.82 0.8415 0.8238 0.8067
1822.884 0.7722 0.819 0.802 0.7405 0.7768 0.771 0.7713 0.7866 0.7515 0.7885
1842.174 0.8046 0.7359 0.7096 0.7233 0.7675 0.7601 0.7162 0.7215 0.6857 0.7001
1861.464 0.7638 0.7411 0.7018 0.6618 0.684 0.7487 0.7823 0.7529 0.7427 0.743
1880.754 0.7303 0.7288 0.6926 0.7006 0.7049 0.665 0.5928 0.5315 0.5361 0.5479
1900.043 0.5756 0.5629 0.4997 0.5231 0.5414 0.5326 0.5531 0.5222 0.5218 0.5115
1919.333 0.5128 0.5531 0.5443 0.4765 0.4676 0.5279 0.5952 0.6092 0.5702 0.5998
1938.623 0.5548 0.5128 0.473 0.4318 0.4388 0.4437 0.4478 0.4406 0.4637 0.4914
1957.913 0.559 0.5539 0.5193 0.4904 0.4065 0.3862 0.4046 0.4421 0.4556 0.3924
1977.202 0.4227 0.4274 0.3809 0.4222 0.3712 0.3442 0.4104 0.4396 0.4328 0.4691
1996.492 0.4851 0.4522 0.4407 0.4711 0.5079 0.5392 0.5617 0.5587 0.523 0.5006
2015.782 0.5594 0.5509 0.4792 0.4863 0.4769 0.4565 0.4705 0.4246 0.4089 0.4495
2035.072 0.4357 0.4443 0.4718 0.4122 0.3699 0.3702 0.3662 0.365 0.3782 0.3778
2054.362 0.3706 0.3621 0.3494 0.3249 0.3435 0.3828 0.3961 0.3818 0.3722 0.4039
2073.651 0.3553 0.35 0.3924 0.3619 0.3634 0.3824 0.3507 0.3783 0.4471 0.4172
2092.941 0.4873 0.5647 0.5002 0.4461 0.4247 0.4757 0.5239 0.5075 0.5177 0.5276
2112.231 0.5625 0.6013 0.5657 0.574 0.5677 0.5351 0.5637 0.6167 0.6506 0.6415
2131.521 0.6066 0.5576 0.5597 0.6153 0.6277 0.6173 0.575 0.5581 0.5921 0.5656
2150.810 0.5372 0.4687 0.4661 0.5072 0.4802 0.4908 0.4493 0.4092 0.3745 0.4089
2170.100 0.4091 0.3303 0.3367 0.3847 0.3721 0.3387 0.3347 0.3506 0.3789 0.4286
2189.390 0.4785 0.4473 0.4259 0.4297 0.4116 0.4261 0.4544 0.4534 0.4327 0.4074
2208.680 0.3968 0.3496 0.3725 0.3564 0.3048 0.27041 0.26063 0.3275 0.3434 0.3203
2227.970 0.3473 0.3935 0.3485 0.25885 0.28003 0.3113 0.26446 0.24472 0.26268 0.22271
2247.259 0.20727 0.26256 0.2907 0.3261 0.3832 0.3553 0.2946 0.26451 0.24788 0.27608
2266.549 0.3026 0.3801 0.4028 0.3472 0.27902 0.21436 0.24074 0.3057 0.3543 0.2967
2285.839 0.26781 0.3487 0.3369 0.332 0.3686 0.3803 0.4018 0.3618 0.3261 0.3533
2305.129 0.3246 0.3473 0.3645 0.3076 0.25369 0.26885 0.3464 0.3324 0.3145 0.3362
2324.418 0.408 0.3779 0.3957 0.476 0.4249 0.4503 0.417 0.408 0.48 0.4273
2343.708 0.3729 0.4235 0.5062 0.4664 0.4266 0.4009 0.3849 0.4086 0.4278 0.4717
2362.998 0.4456 0.4414 0.4433 0.4162 0.4378 0.4559 0.4281 0.4254 0.4667 0.4726
2382.288 0.4545 0.4248 0.4048 0.3335 0.3941 0.4639 0.3333 0.3076 0.3408 0.4099
2401.578 0.4324 0.3957 0.3837 0.3667 0.3778 0.384 0.3683 0.3407 0.2965 0.28231
2420.867 0.190728 0.1645 0.2865 0.3536 0.3792 0.4152 0.4249 0.4169 0.3872 0.3141
2440.157 0.2991 0.3379 0.359 0.3681 0.3442 0.3163 0.2921 0.3137 0.3887 0.4366
2459.447 0.4102 0.4004 0.4164 0.3283 0.3092 0.27375 0.25745 0.26096 0.2997 0.4061
2478.737 0.3239 0.24696 0.3242 0.391 0.3606 0.2962 0.2744 0.2813 0.3177 0.2973
2498.026 0.24624 0.27826 0.3457 0.3704 0.3684 0.3143 0.3338 0.4015 0.4201 0.4129
2517.316 0.34 0.3107 0.24598 0.27897 0.3402 0.3296 0.358 0.3541 0.3674 0.3059
2536.606 0.27558 0.3263 0.3529 0.3324 0.25032 0.26983 0.3503 0.3622 0.3745 0.2932
2555.896 0.3143 0.3866 0.3955 0.3943 0.3343 0.3484 0.3925 0.4514 0.467 0.4094
2575.186 0.4312 0.5346 0.4878 0.4383 0.5158 0.5359 0.5481 0.5383 0.4724 0.4755
2594.475 0.4412 0.4503 0.4783 0.4253 0.4175 0.3972 0.3991 0.3242 0.24039 0.3203
2613.765 0.413 0.44 0.4299 0.4198 0.4499 0.407 0.3399 0.3873 0.3704 0.3103
2633.055 0.26984 0.24257 0.3309 0.3384 0.3121 0.3597 0.3663 0.374 0.3084 0.28249
2652.345 0.3574 0.3307 0.3152 0.3523 0.3842 0.3498 0.3009 0.3175 0.3193 0.3408
2671.634 0.2946 0.3025 0.4481 0.4955 0.3999 0.4115 0.4666 0.3585 0.3211 0.3317
2690.924 0.27838 0.3625 0.3633 0.3455 0.4717 0.4832 0.4831 0.4967 0.3877 0.3338
2710.214 0.4261 0.3959 0.3669 0.3762 0.3378 0.4082 0.4532 0.4542 0.4063 0.3343
2729.504 0.293 0.27392 0.3581 0.3951 0.3781 0.4418 0.494 0.5282 0.4939 0.4451
2748.794 0.4216 0.403 0.3367 0.3254 0.3625 0.4066 0.4396 0.4066 0.4352 0.4054
2768.083 0.4624 0.6084 0.5748 0.5605 0.6471 0.5805 0.5724 0.6351 0.5588 0.6229
2787.373 0.7073 0.7095 0.7813 0.8566 0.9195 1.013 1.058 1.0112 1.1075 1.298
2806.663 1.328 1.338 1.548 1.748 1.798 1.858 1.908 1.918 1.968 2.008
2825.953 2.048 2.028 2.028 1.948 1.818 1.718 1.608 1.528 1.468 1.368
2845.242 1.338 1.308 1.228 1.238 1.258 1.238 1.248 1.268 1.278 1.438
2864.532 1.538 1.698 1.808 1.898 2.008 2.158 2.358 2.538 2.778 2.888
2883.822 3.058 3.208 3.338 3.658 3.848 3.968 4.188 4.368 4.648 4.758
2903.112 4.928 5.218 5.318 5.488 5.628 5.758 5.928 6.108 6.388 6.618
2922.401 6.728 7.008 7.228 7.378 7.698 7.978 8.208 8.488 8.858 9.118
2941.691 9.418 9.728 9.898 9.988 10.038 10.078 10.128 10.208 10.138 9.838
2960.981 9.638 9.468 9.088 8.618 8.188 7.908 7.568 7.188 6.828 6.498
2980.271 6.068 5.588 5.288 5.038 4.818 4.588 4.328 4.018 3.758 3.508
2999.561 3.308 3.198 3.038 2.888 2.708 2.678 2.688 2.598 2.588 2.498
3018.850 2.428 2.328 2.318 2.298 2.128 2.088 2.118 2.148 2.148 2.128
3038.140 2.178 2.118 2.048 2.058 1.998 2.008 1.978 1.848 1.858 1.848
3057.430 1.768 1.768 1.648 1.618 1.688 1.668 1.598 1.498 1.538 1.548
3076.720 1.428 1.408 1.338 1.1513 1.1288 1.0808 1.1288 1.228 1.0487 0.9131
3096.009 0.9048 0.9597 0.9437 0.8397 0.8523 0.857 0.8059 0.7404 0.6137 0.6872
3115.299 0.6872 0.5905 0.641 0.6311 0.5627 0.545 0.5566 0.5616 0.4601 0.4145
3134.589 0.4577 0.5008 0.6158 0.6962 0.6383 0.5776 0.4843 0.3094 0.4133 0.4344
3153.879 0.24758 0.3171 0.4113 0.3391 0.24734 0.3102 0.4212 0.3742 0.321 0.3199
3173.169 0.3809 0.4906 0.4561 0.3578 0.384 0.3429 0.24652 0.25041 0.26682 0.2643
3192.458 0.3747 0.3641 0.3271 0.4251 0.3014 0.22148 0.3383 0.3556 0.35 0.3907
3211.748 0.3963 0.3166 0.24223 0.3001 0.4498 0.4852 0.3961 0.372 0.2986 0.26258
3231.038 0.3289 0.27371 0.3077 0.4014 0.3408 0.28501 0.3819 0.447 0.3736 0.3434
3250.328 0.2881 0.1318 0.1643 0.3735 0.3878 0.25857 0.1734 0.24347 0.3862 0.4097
3269.617 0.4092 0.2938 0.1581 0.336 0.4076 0.4144 0.4188 0.38 0.5132 0.4876
3288.907 0.5459 0.5657 0.4513 0.5053 0.5612 0.4488 0.4272 0.523 0.4759 0.5029
3308.197 0.5294 0.4142 0.4088 0.5163 0.5471 0.4729 0.451 0.3653 0.3605 0.4218
3327.487 0.3523 0.3699 0.3279 0.2927 0.3403 0.28323 0.194446 0.21367 0.3038 0.3326
3346.777 0.22328 0.2941 0.4212 0.4956 0.6233 0.5875 0.5271 0.5725 0.5166 0.4143
3366.066 0.339 0.2473 0.23417 0.244 0.3368 0.4051 0.4352 0.4801 0.5641 0.7834
3385.356 0.8714 0.878 0.7972 0.8237 1.0165 1.0209 1.0731 1.1753 1.228 1.208
3404.646 1.488 1.708 1.588 1.578 1.538 1.488 1.538 1.738 1.948 1.868
3423.936 1.798 1.848 1.998 2.158 2.288 2.558 2.808 3.218 3.748 4.178
3443.225 4.788 5.658 6.468 7.378 8.568 9.858 11.018 12.148 13.118 13.808
3462.515 14.188 14.348 14.368 14.108 13.758 13.418 12.918 12.158 11.448 10.428
3481.805 9.078 7.708 6.468 5.368 4.228 3.368 2.848 2.458 2.068 1.778
3501.095 1.588 1.348 1.159 1.1188 1.0758 0.9424 0.798 0.6809 0.708 0.657
3520.385 0.6438 0.7562 0.6132 0.5646 0.5459 0.4563 0.5696 0.5711 0.5387 0.5109
3539.674 0.626 0.6744 0.5855 0.4646 0.3026 0.3924 0.5123 0.404 0.28578 0.26502
3558.964 0.3339 0.5938 0.7169 0.5166 0.4769 0.6164 0.5146 0.4918 0.3741 0.17811
3578.254 0.1434 0.1419 0.3591 0.3624 0.22739 0.23652 0.27829 0.25254 0.3266 0.4015
3597.544 0.3274 0.3549 0.4076 0.4028 0.25862 0.21176 0.4138 0.4577 0.3664 0.2922
3616.833 0.1549 0.20256 0.27267 0.26767 0.27024 0.24449 0.28722 0.20704 0.23658 0.3478
3636.123 0.2918 0.3069 0.3164 0.4387 0.5416 0.5664 0.552 0.4487 0.4651 0.4148
3655.413 0.3569 0.3674 0.3298 0.3867 0.3548 0.21939 0.27896 0.2957 0.4502 0.4773
3674.703 0.27655 0.20317 0.23494 0.25608 0.1537 0.084 0.1101 0.191362 0.325 0.2881
3693.993 0.187856 0.23579 0.1575 0.165 0.2152 0.2902 0.5018 0.464 0.318 0.3081
3713.282 0.27981 0.24992 0.3151 0.4519 0.5003 0.3702 0.2617 0.3276 0.3354 0.1617
3732.572 0.1259 0.1711 0.18026 0.28686 0.3748 0.3816 0.22338 0.20332 0.4325 0.3452
3751.862 0.21347 0.3454 0.3475 0.434 0.4464 0.3161 0.3475 0.3675 0.4188 0.3619
3771.152 0.21175 0.25834 0.3564 0.3453 0.4084 0.4445 0.3439 0.22478 0.049 0.1386
3790.441 0.3647 0.4406 0.3073 0.1355 0.0981 0.064 0.22266 0.27543 0.2579 0.314
3809.731 0.20276 0.19172 0.1511 0.20393 0.3608 0.389 0.2915 0.077 0.064 0.28511
3829.021 0.3182 0.3241 0.3172 0.20715 0.17891 0.23491 0.23364 0.21888 0.3373 0.3927
3848.311 0.3777 0.27292 0.22476 0.25713 0.24606 0.3116 0.3655 0.3953 0.24941 0.22688
3867.601 0.4458 0.3416 0.3483 0.4962 0.4403 0.3438 0.3837 0.3908 0.24558 0.21028
3886.890 0.2975 0.4198 0.315 0.21945 0.3305 0.3607 0.3919 0.3892 0.4264 0.4012
3906.180 0.20992 0 0.075 0.3696 0.3924 0.4242 0.5331 0.457 0.4352 0.4584
3925.470 0.3678 0.358 0.3871 0.4621 0.4737 0.402 0.4353 0.3771 0.3633 0.3327
3944.760 0.27129 0.25143 0.3258 0.3309 0.3676 0.415 0.3819 0.3724 0.25731 0.3005
3964.049 0.322 0.1686 0.1123 0.23893 0.3088 0.26227 0.4265 0.4025 0.042 0.056
3983.339 0.1551 0.1478 0.3817 0.4235 0.3049 0.20835 0.4253 0.563 0.3663 0.3092
##END=
