##TITLE=ETHYLENE CARBONATE
##JCAMP-DX=4.24
##DATA TYPE=INFRARED SPECTRUM
##CLASS=COBLENTZ III
##ORIGIN=STANDARD OIL OF OHIO
##OWNER=COBLENTZ SOCIETY
Collection (C) 2018 copyright by the U.S. Secretary of Commerce
on behalf of the United States of America. All rights reserved.
##DATE=1965/09/21
##NAMES=1,3-dioxolan-2-one
1,3-DIOXOLAN-2-ONE
##CAS REGISTRY NO=96-49-1
##MOLFORM=C3 H4 O3
##SOURCE REFERENCE=COBLENTZ NO. 10176
##$NIST SOURCE=COBLENTZ
##$NIST IMAGE=cob10176
##SPECTROMETER/DATA SYSTEM=PERKIN-ELMER 521 (GRATING)
##INSTRUMENT PARAMETERS=FILTERS AT 3150, 2500, 2000, 1150, 700, 410 AND GRATING CHANGES AT 2000, 630 CM^-^1
##STATE=LIQUID (NEAT)
##PATH LENGTH=SMEAR, CsBr CRYSTALS
##SAMPLING PROCEDURE=TRANSMISSION
##RESOLUTION=4
##DATA PROCESSING=DIGITIZED BY NIST FROM HARD COPY (FROM TWO SEGMENTS)
##XUNITS=1/CM
##YUNITS=TRANSMITTANCE
##XFACTOR=1.000000
##YFACTOR=1
##DELTAX=0.955224
##FIRSTX=308.299
##LASTX=3896.12
##FIRSTY=0.923
##MAXX=3896.12
##MINX=308.299
##MAXY=0.926
##MINY=0.08
##NPOINTS=3757
##XYDATA=(X++(Y..Y))
308.299000 0.9230 0.9230 0.9220 0.9220 0.9220
313.075120 0.9200 0.9200 0.9190 0.9190 0.9190
317.851240 0.9190 0.9190 0.9190 0.9190 0.9190
322.627361 0.9190 0.9190 0.9170 0.9170 0.9160
327.403481 0.9160 0.9160 0.9150 0.9150 0.9140
332.179601 0.9140 0.9130 0.9110 0.9110 0.9100
336.955721 0.9070 0.9050 0.9040 0.9030 0.9020
341.731841 0.9010 0.9010 0.9000 0.9000 0.8980
346.507961 0.8980 0.8970 0.8970 0.8970 0.8970
351.284082 0.8970 0.8960 0.8960 0.8950 0.8950
356.060202 0.8950 0.8950 0.8950 0.8940 0.8940
360.836322 0.8940 0.8920 0.8920 0.8920 0.8920
365.612442 0.8910 0.8910 0.8910 0.8910 0.8910
370.388562 0.8910 0.8910 0.8910 0.8910 0.8900
375.164682 0.8890 0.8880 0.8860 0.8850 0.8850
379.940803 0.8830 0.8830 0.8830 0.8820 0.8820
384.716923 0.8800 0.8800 0.8790 0.8780 0.8780
389.493043 0.8770 0.8770 0.8760 0.8760 0.8760
394.269163 0.8750 0.8750 0.8730 0.8730 0.8730
399.045283 0.8730 0.8710 0.8700 0.8690 0.8660
403.821403 0.8650 0.8630 0.8610 0.8600 0.8600
408.597524 0.8640 0.8710 0.8710 0.8690 0.8690
413.373644 0.8690 0.8690 0.8670 0.8660 0.8660
418.149764 0.8660 0.8660 0.8660 0.8660 0.8670
422.925884 0.8670 0.8670 0.8660 0.8660 0.8650
427.702004 0.8640 0.8640 0.8640 0.8640 0.8640
432.478124 0.8640 0.8640 0.8640 0.8640 0.8640
437.254245 0.8640 0.8640 0.8640 0.8640 0.8640
442.030365 0.8640 0.8640 0.8640 0.8650 0.8660
446.806485 0.8660 0.8670 0.8670 0.8670 0.8660
451.582605 0.8660 0.8650 0.8650 0.8650 0.8660
456.358725 0.8660 0.8670 0.8670 0.8670 0.8670
461.134845 0.8670 0.8670 0.8670 0.8670 0.8670
465.910966 0.8670 0.8670 0.8670 0.8670 0.8670
470.687086 0.8670 0.8670 0.8670 0.8670 0.8670
475.463206 0.8670 0.8670 0.8670 0.8670 0.8670
480.239326 0.8670 0.8670 0.8670 0.8670 0.8670
485.015446 0.8670 0.8670 0.8670 0.8670 0.8670
489.791566 0.8670 0.8670 0.8670 0.8670 0.8670
494.567687 0.8670 0.8670 0.8670 0.8670 0.8690
499.343807 0.8690 0.8690 0.8690 0.8690 0.8690
504.119927 0.8690 0.8690 0.8690 0.8690 0.8690
508.896047 0.8690 0.8690 0.8690 0.8690 0.8690
513.672167 0.8690 0.8690 0.8690 0.8690 0.8690
518.448287 0.8670 0.8670 0.8660 0.8660 0.8660
523.224408 0.8650 0.8640 0.8630 0.8590 0.8520
528.000528 0.8280 0.8110 0.8110 0.8140 0.8290
532.776648 0.8400 0.8520 0.8630 0.8670 0.8700
537.552768 0.8720 0.8730 0.8750 0.8760 0.8770
542.328888 0.8790 0.8790 0.8800 0.8820 0.8820
547.105008 0.8820 0.8830 0.8840 0.8840 0.8850
551.881129 0.8850 0.8860 0.8860 0.8880 0.8880
556.657249 0.8880 0.8890 0.8890 0.8890 0.8890
561.433369 0.8890 0.8890 0.8900 0.8900 0.8910
566.209489 0.8920 0.8920 0.8940 0.8950 0.8950
570.985609 0.8960 0.8960 0.8960 0.8960 0.8960
575.761729 0.8970 0.8970 0.8970 0.8970 0.8980
580.537850 0.8980 0.8980 0.9000 0.9010 0.9010
585.313970 0.9020 0.9020 0.9030 0.9040 0.9040
590.090090 0.9050 0.9050 0.9050 0.9070 0.9080
594.866210 0.9090 0.9110 0.9110 0.9130 0.9130
599.642330 0.9130 0.9140 0.9140 0.9140 0.9150
604.418450 0.9150 0.9150 0.9150 0.9150 0.9150
609.194571 0.9150 0.9150 0.9150 0.9150 0.9150
613.970691 0.9150 0.9150 0.9150 0.9150 0.9150
618.746811 0.9150 0.9160 0.9160 0.9160 0.9160
623.522931 0.9160 0.9160 0.9160 0.9160 0.9160
628.299051 0.9160 0.9160 0.9170 0.9170 0.9170
633.075171 0.9190 0.9200 0.9230 0.9250 0.9260
637.851292 0.9260 0.9250 0.9250 0.9220 0.9210
642.627412 0.9200 0.9190 0.9170 0.9170 0.9160
647.403532 0.9160 0.9160 0.9150 0.9150 0.9150
652.179652 0.9150 0.9140 0.9140 0.9140 0.9130
656.955772 0.9130 0.9110 0.9100 0.9090 0.9080
661.731892 0.9070 0.9050 0.9040 0.9030 0.9030
666.508013 0.9030 0.9020 0.9020 0.9010 0.9000
671.284133 0.8970 0.8950 0.8920 0.8910 0.8880
676.060253 0.8880 0.8850 0.8820 0.8790 0.8760
680.836373 0.8730 0.8720 0.8710 0.8690 0.8630
685.612493 0.8590 0.8530 0.8510 0.8500 0.8470
690.388613 0.8450 0.8410 0.8390 0.8360 0.8340
695.164734 0.8330 0.8320 0.8320 0.8290 0.8280
699.940854 0.8270 0.8260 0.8250 0.8230 0.8210
704.716974 0.8160 0.8100 0.8010 0.7831 0.7571
709.493094 0.7170 0.6710 0.6230 0.5521 0.5131
714.269214 0.4731 0.3843 0.2734 0.2471 0.2470
719.045334 0.2590 0.3410 0.4269 0.6267 0.7228
723.821455 0.7699 0.7959 0.8129 0.8250 0.8389
728.597575 0.8470 0.8520 0.8590 0.8650 0.8690
733.373695 0.8730 0.8750 0.8760 0.8770 0.8780
738.149815 0.8780 0.8770 0.8770 0.8760 0.8760
742.925935 0.8750 0.8720 0.8710 0.8660 0.8580
747.702055 0.8520 0.8500 0.8410 0.8330 0.8320
752.478176 0.8320 0.8320 0.8320 0.8320 0.8300
757.254296 0.8280 0.8210 0.8130 0.7980 0.7820
762.030416 0.7581 0.7291 0.6941 0.6442 0.5913
766.806536 0.5630 0.5340 0.4630 0.3771 0.3091
771.582656 0.2571 0.2201 0.2170 0.2190 0.2220
776.358776 0.2380 0.2550 0.2720 0.3160 0.3549
781.134897 0.3969 0.4459 0.5586 0.6248 0.6748
785.911017 0.7110 0.7510 0.7720 0.7880 0.8010
790.687137 0.8090 0.8190 0.8250 0.8300 0.8340
795.463257 0.8400 0.8470 0.8500 0.8520 0.8540
800.239377 0.8580 0.8630 0.8650 0.8670 0.8700
805.015497 0.8710 0.8720 0.8730 0.8750 0.8760
809.791618 0.8770 0.8780 0.8780 0.8790 0.8790
814.567738 0.8800 0.8800 0.8820 0.8820 0.8820
819.343858 0.8820 0.8820 0.8820 0.8830 0.8830
824.119978 0.8830 0.8840 0.8840 0.8830 0.8830
828.896098 0.8830 0.8830 0.8840 0.8840 0.8830
833.672218 0.8830 0.8820 0.8820 0.8820 0.8820
838.448339 0.8820 0.8820 0.8820 0.8820 0.8800
843.224459 0.8800 0.8800 0.8800 0.8800 0.8800
848.000579 0.8800 0.8790 0.8790 0.8780 0.8780
852.776699 0.8780 0.8780 0.8780 0.8780 0.8770
857.552819 0.8770 0.8770 0.8770 0.8770 0.8770
862.328940 0.8770 0.8770 0.8770 0.8770 0.8760
867.105060 0.8760 0.8750 0.8730 0.8720 0.8710
871.881180 0.8700 0.8700 0.8690 0.8670 0.8670
876.657300 0.8660 0.8650 0.8630 0.8610 0.8600
881.433420 0.8590 0.8580 0.8570 0.8520 0.8480
886.209540 0.8380 0.8260 0.8041 0.7801 0.6596
890.985661 0.6320 0.6050 0.5790 0.5790 0.6139
895.761781 0.6499 0.6849 0.7199 0.7549 0.7908
900.537901 0.8110 0.8330 0.8440 0.8500 0.8510
905.314021 0.8510 0.8520 0.8550 0.8570 0.8570
910.090141 0.8590 0.8600 0.8610 0.8610 0.8630
914.866261 0.8630 0.8630 0.8640 0.8640 0.8630
919.642382 0.8630 0.8610 0.8610 0.8610 0.8610
924.418502 0.8610 0.8610 0.8600 0.8600 0.8600
929.194622 0.8610 0.8610 0.8600 0.8600 0.8600
933.970742 0.8590 0.8580 0.8580 0.8570 0.8570
938.746862 0.8550 0.8540 0.8520 0.8510 0.8500
943.522982 0.8450 0.8420 0.8410 0.8400 0.8380
948.299103 0.8330 0.8280 0.8250 0.8220 0.8170
953.075223 0.8110 0.8040 0.7950 0.7821 0.7721
957.851343 0.7570 0.7380 0.7130 0.6860 0.6571
962.627463 0.6251 0.5911 0.5581 0.5351 0.5131
967.403583 0.4640 0.4140 0.3670 0.3290 0.2961
972.179703 0.2900 0.2900 0.2920 0.3010 0.3129
976.955824 0.3330 0.3650 0.3890 0.4210 0.4570
981.731944 0.5019 0.5718 0.6009 0.6289 0.6519
986.508064 0.6690 0.6820 0.6950 0.7050 0.7160
991.284184 0.7220 0.7280 0.7330 0.7400 0.7460
996.060304 0.7470 0.7500 0.7510 0.7520 0.7520
1000.836424 0.7530 0.7530 0.7520 0.7520 0.7510
1005.612545 0.7510 0.7500 0.7500 0.7450 0.7410
1010.388665 0.7400 0.7380 0.7340 0.7320 0.7280
1015.164785 0.7270 0.7260 0.7260 0.7260 0.7260
1019.940905 0.7260 0.7270 0.7300 0.7320 0.7330
1024.717025 0.7340 0.7340 0.7340 0.7340 0.7340
1029.493145 0.7340 0.7330 0.7320 0.7300 0.7280
1034.269266 0.7270 0.7260 0.7230 0.7150 0.7100
1039.045386 0.7030 0.6980 0.6940 0.6890 0.6771
1043.821506 0.6650 0.6540 0.6420 0.6280 0.6130
1048.597626 0.5960 0.5771 0.5571 0.5450 0.5321
1053.373746 0.5160 0.4960 0.4690 0.4420 0.4051
1058.149866 0.3751 0.3301 0.2951 0.2571 0.2321
1062.925987 0.1890 0.1710 0.1460 0.1320 0.1200
1067.702107 0.1050 0.1010 0.1000 0.1000 0.0980
1072.478227 0.0980 0.1000 0.1030 0.1090 0.1100
1077.254347 0.1130 0.1160 0.1190 0.1210 0.1300
1082.030467 0.1350 0.1450 0.1510 0.1600 0.1710
1086.806587 0.1840 0.2010 0.2209 0.2439 0.2669
1091.582708 0.2830 0.3040 0.3300 0.3550 0.3800
1096.358828 0.4010 0.4190 0.4529 0.4570 0.4699
1101.134948 0.4790 0.4890 0.4950 0.5010 0.5030
1105.911068 0.5100 0.5110 0.5160 0.5210 0.5220
1110.687188 0.5220 0.5230 0.5230 0.5230 0.5220
1115.463308 0.5210 0.5190 0.5150 0.5140 0.5110
1120.239429 0.5090 0.5030 0.5010 0.4970 0.4850
1125.015549 0.4800 0.4710 0.4590 0.4500 0.4470
1129.791669 0.4320 0.4260 0.4130 0.3980 0.3850
1134.567789 0.3710 0.3590 0.3470 0.3331 0.3250
1139.343909 0.3040 0.2910 0.2780 0.2660 0.2520
1144.120029 0.2390 0.2290 0.2230 0.2160 0.2041
1148.896150 0.1910 0.1770 0.1650 0.1550 0.1520
1153.672270 0.1460 0.1400 0.1350 0.1300 0.1270
1158.448390 0.1250 0.1230 0.1230 0.1220 0.1220
1163.224510 0.1220 0.1220 0.1230 0.1230 0.1250
1168.000630 0.1270 0.1300 0.1340 0.1380 0.1400
1172.776750 0.1410 0.1420 0.1450 0.1480 0.1510
1177.552871 0.1550 0.1600 0.1660 0.1720 0.1760
1182.328991 0.1850 0.1880 0.2010 0.2090 0.2200
1187.105111 0.2300 0.2500 0.2690 0.2760 0.2940
1191.881231 0.3090 0.3260 0.3400 0.3540 0.3689
1196.657351 0.3800 0.3910 0.4010 0.4140 0.4260
1201.433471 0.4380 0.4480 0.4540 0.4630 0.4690
1206.209592 0.4750 0.4780 0.4790 0.4790 0.4790
1210.985712 0.4780 0.4750 0.4710 0.4670 0.4630
1215.761832 0.4580 0.4530 0.4470 0.4420 0.4400
1220.537952 0.4400 0.4390 0.4400 0.4460 0.4520
1225.314072 0.4600 0.4700 0.4830 0.4950 0.5010
1230.090192 0.5130 0.5220 0.5300 0.5509 0.5600
1234.866313 0.5670 0.5780 0.5880 0.5970 0.6020
1239.642433 0.6100 0.6170 0.6230 0.6290 0.6340
1244.418553 0.6450 0.6550 0.6650 0.6710 0.6790
1249.194673 0.6910 0.7010 0.7090 0.7130 0.7170
1253.970793 0.7230 0.7270 0.7330 0.7350 0.7390
1258.746913 0.7440 0.7460 0.7480 0.7500 0.7510
1263.523034 0.7520 0.7540 0.7590 0.7600 0.7630
1268.299154 0.7650 0.7670 0.7700 0.7710 0.7730
1273.075274 0.7770 0.7800 0.7830 0.7840 0.7860
1277.851394 0.7900 0.7920 0.7950 0.7960 0.7960
1282.627514 0.7970 0.8000 0.8000 0.8010 0.8020
1287.403634 0.8030 0.8040 0.8090 0.8090 0.8100
1292.179755 0.8110 0.8110 0.8130 0.8140 0.8150
1296.955875 0.8160 0.8160 0.8170 0.8170 0.8190
1301.731995 0.8190 0.8190 0.8200 0.8200 0.8200
1306.508115 0.8200 0.8200 0.8200 0.8200 0.8200
1311.284235 0.8200 0.8200 0.8200 0.8210 0.8210
1316.060355 0.8210 0.8210 0.8210 0.8210 0.8210
1320.836476 0.8200 0.8200 0.8200 0.8200 0.8190
1325.612596 0.8190 0.8190 0.8190 0.8190 0.8190
1330.388716 0.8170 0.8170 0.8160 0.8150 0.8140
1335.164836 0.8130 0.8130 0.8130 0.8110 0.8100
1339.940956 0.8100 0.8070 0.8040 0.8020 0.8010
1344.717076 0.8000 0.7980 0.7970 0.7950 0.7910
1349.493197 0.7880 0.7840 0.7820 0.7790 0.7770
1354.269317 0.7750 0.7710 0.7670 0.7630 0.7550
1359.045437 0.7520 0.7460 0.7340 0.7300 0.7260
1363.821557 0.7150 0.7040 0.6980 0.6900 0.6820
1368.597677 0.6760 0.6730 0.6720 0.6700 0.6660
1373.373797 0.6590 0.6520 0.6440 0.6281 0.5852
1378.149918 0.5520 0.5380 0.5230 0.4960 0.4670
1382.926038 0.4321 0.3861 0.3551 0.3112 0.2732
1387.702158 0.2520 0.2330 0.2260 0.2110 0.2090
1392.478278 0.2110 0.2160 0.2479 0.2580 0.2749
1397.254398 0.2970 0.3380 0.3730 0.4090 0.4439
1402.030518 0.4889 0.5199 0.5778 0.6029 0.6249
1406.806639 0.6440 0.6580 0.6760 0.6830 0.6840
1411.582759 0.6840 0.6780 0.6650 0.6521 0.6391
1416.358879 0.6080 0.5910 0.5630 0.5500 0.5350
1421.134999 0.5340 0.5520 0.5819 0.6079 0.6518
1425.911119 0.6790 0.7020 0.7220 0.7410 0.7550
1430.687240 0.7670 0.7730 0.7790 0.7840 0.7900
1435.463360 0.7980 0.8000 0.8000 0.8010 0.8020
1440.239480 0.8030 0.8040 0.8040 0.8040 0.8040
1445.015600 0.8040 0.8040 0.8040 0.8040 0.8030
1449.791720 0.8010 0.8010 0.8000 0.8000 0.7980
1454.567840 0.7970 0.7960 0.7950 0.7940 0.7900
1459.343961 0.7890 0.7850 0.7800 0.7780 0.7750
1464.120081 0.7670 0.7580 0.7500 0.7390 0.7290
1468.896201 0.7170 0.6970 0.6701 0.6501 0.5952
1473.672321 0.5390 0.5170 0.4820 0.4411 0.3971
1478.448441 0.3661 0.3421 0.3171 0.3170 0.3250
1483.224561 0.3480 0.3900 0.4270 0.4719 0.4860
1488.000682 0.5030 0.5349 0.5898 0.6079 0.6219
1492.776802 0.6400 0.6520 0.6700 0.6770 0.6820
1497.552922 0.6940 0.7030 0.7229 0.7340 0.7450
1502.329042 0.7570 0.7700 0.7760 0.7780 0.7840
1507.105162 0.7910 0.7970 0.8040 0.8070 0.8080
1511.881282 0.8150 0.8170 0.8220 0.8250 0.8280
1516.657403 0.8280 0.8290 0.8300 0.8300 0.8320
1521.433523 0.8320 0.8320 0.8330 0.8330 0.8320
1526.209643 0.8320 0.8320 0.8300 0.8290 0.8290
1530.985763 0.8280 0.8280 0.8270 0.8250 0.8210
1535.761883 0.8150 0.8090 0.8030 0.7950 0.7880
1540.538003 0.7790 0.7690 0.7590 0.7470 0.7360
1545.314124 0.7260 0.7140 0.7030 0.6900 0.6771
1550.090244 0.6660 0.6590 0.6590 0.6650 0.6750
1554.866364 0.6800 0.6950 0.7110 0.7289 0.7420
1559.642484 0.7550 0.7650 0.7730 0.7820 0.7980
1564.418604 0.8040 0.8110 0.8190 0.8260 0.8300
1569.194724 0.8340 0.8350 0.8360 0.8360 0.8380
1573.970845 0.8380 0.8380 0.8390 0.8390 0.8390
1578.746965 0.8390 0.8390 0.8390 0.8390 0.8380
1583.523085 0.8380 0.8380 0.8360 0.8360 0.8350
1588.299205 0.8350 0.8340 0.8330 0.8300 0.8300
1593.075325 0.8290 0.8280 0.8260 0.8250 0.8230
1597.851445 0.8230 0.8220 0.8220 0.8220 0.8210
1602.627566 0.8210 0.8210 0.8210 0.8210 0.8210
1607.403686 0.8210 0.8210 0.8210 0.8210 0.8220
1612.179806 0.8220 0.8220 0.8220 0.8220 0.8210
1616.955926 0.8200 0.8170 0.8160 0.8150 0.8140
1621.732046 0.8140 0.8130 0.8130 0.8110 0.8110
1626.508166 0.8110 0.8100 0.8080 0.8070 0.8050
1631.284287 0.8070 0.8090 0.8090 0.8100 0.8100
1636.060407 0.8110 0.8110 0.8130 0.8130 0.8130
1640.836527 0.8140 0.8140 0.8150 0.8160 0.8190
1645.612647 0.8210 0.8210 0.8220 0.8220 0.8220
1650.388767 0.8230 0.8250 0.8260 0.8260 0.8260
1655.164887 0.8250 0.8250 0.8230 0.8220 0.8220
1659.941008 0.8220 0.8220 0.8200 0.8170 0.8150
1664.717128 0.8140 0.8130 0.8110 0.8110 0.8100
1669.493248 0.8040 0.8020 0.8010 0.8000 0.7970
1674.269368 0.7910 0.7860 0.7830 0.7790 0.7770
1679.045488 0.7720 0.7610 0.7540 0.7520 0.7460
1683.821608 0.7350 0.7330 0.7290 0.7260 0.7250
1688.597729 0.7250 0.7250 0.7250 0.7260 0.7270
1693.373849 0.7280 0.7280 0.7280 0.7280 0.7290
1698.149969 0.7300 0.7300 0.7300 0.7330 0.7330
1702.926089 0.7330 0.7340 0.7350 0.7350 0.7360
1707.702209 0.7380 0.7390 0.7410 0.7420 0.7420
1712.478329 0.7420 0.7420 0.7420 0.7410 0.7400
1717.254450 0.7390 0.7380 0.7380 0.7360 0.7340
1722.030570 0.7320 0.7290 0.7230 0.7200 0.7150
1726.806690 0.7080 0.7020 0.6970 0.6880 0.6761
1731.582810 0.6660 0.6540 0.6450 0.6280 0.6130
1736.358930 0.5960 0.5770 0.5610 0.5550 0.5480
1741.135050 0.5270 0.5190 0.5090 0.4950 0.4800
1745.911171 0.4670 0.4540 0.4510 0.4450 0.4380
1750.687291 0.4260 0.4190 0.4070 0.4000 0.3820
1755.463411 0.3730 0.3551 0.3351 0.3171 0.2921
1760.239531 0.2660 0.2410 0.2160 0.1920 0.1700
1765.015651 0.1500 0.1380 0.1260 0.1131 0.1070
1769.791771 0.1000 0.0960 0.0920 0.0880 0.0860
1774.567892 0.0880 0.0880 0.0900 0.0960 0.1000
1779.344012 0.1070 0.1100 0.1150 0.1220 0.1260
1784.120132 0.1330 0.1340 0.1330 0.1300 0.1270
1788.896252 0.1190 0.1160 0.1090 0.1020 0.1000
1793.672372 0.0960 0.0900 0.0850 0.0820 0.0820
1798.448492 0.0800 0.0800 0.0800 0.0800 0.0800
1803.224613 0.0800 0.0820 0.0820 0.0830 0.0830
1808.000733 0.0840 0.0850 0.0860 0.0880 0.0890
1812.776853 0.0900 0.0910 0.0940 0.1010 0.1030
1817.552973 0.1070 0.1080 0.1100 0.1130 0.1200
1822.329093 0.1220 0.1260 0.1380 0.1440 0.1500
1827.105213 0.1610 0.1670 0.1830 0.1900 0.1980
1831.881334 0.2050 0.2150 0.2250 0.2290 0.2420
1836.657454 0.2510 0.2610 0.2710 0.2800 0.2880
1841.433574 0.2970 0.3010 0.3090 0.3150 0.3200
1846.209694 0.3250 0.3280 0.3320 0.3360 0.3400
1850.985814 0.3450 0.3480 0.3510 0.3510 0.3510
1855.761934 0.3500 0.3500 0.3460 0.3420 0.3400
1860.538055 0.3340 0.3330 0.3330 0.3340 0.3380
1865.314175 0.3440 0.3530 0.3640 0.3780 0.3950
1870.090295 0.4030 0.4160 0.4300 0.4459 0.4599
1874.866415 0.4760 0.4940 0.5040 0.5220 0.5350
1879.642535 0.5589 0.5720 0.5820 0.5880 0.6009
1884.418655 0.6100 0.6160 0.6280 0.6330 0.6390
1889.194776 0.6480 0.6540 0.6590 0.6700 0.6770
1893.970896 0.6840 0.6880 0.6940 0.6980 0.7030
1898.747016 0.7050 0.7080 0.7140 0.7190 0.7220
1903.523136 0.7260 0.7280 0.7290 0.7330 0.7350
1908.299256 0.7360 0.7380 0.7410 0.7450 0.7460
1913.075376 0.7470 0.7480 0.7500 0.7520 0.7530
1917.851497 0.7580 0.7590 0.7600 0.7630 0.7650
1922.627617 0.7650 0.7650 0.7660 0.7660 0.7670
1927.403737 0.7670 0.7670 0.7670 0.7670 0.7670
1932.179857 0.7660 0.7650 0.7640 0.7650 0.7640
1936.955977 0.7640 0.7630 0.7610 0.7610 0.7600
1941.732097 0.7580 0.7550 0.7540 0.7540 0.7530
1946.508218 0.7520 0.7500 0.7460 0.7380 0.7320
1951.284338 0.7260 0.7170 0.7090 0.6980 0.6790
1956.060458 0.6630 0.6500 0.6361 0.6250 0.6091
1960.836578 0.6000 0.5980 0.5980 0.6000 0.6020
1965.612698 0.6080 0.6170 0.6280 0.6350 0.6400
1970.388819 0.6520 0.6610 0.6760 0.6840 0.6980
1975.164939 0.7030 0.7150 0.7260 0.7300 0.7390
1979.941059 0.7470 0.7520 0.7610 0.7690 0.7750
1984.717179 0.7790 0.7840 0.7880 0.7910 0.7920
1989.493299 0.7950 0.7980 0.7980 0.8000 0.8010
1994.269419 0.8010 0.8020 0.8020 0.8020 0.8020
1999.045540 0.8020 0.8020 0.8015 0.8010 0.8010
2003.821660 0.8010 0.8010 0.8010 0.8005 0.8000
2008.597780 0.8000 0.8000 0.7985 0.7970 0.7970
2013.373900 0.7970 0.7965 0.7960 0.7955 0.7950
2018.150020 0.7945 0.7940 0.7930 0.7920 0.7910
2022.926140 0.7900 0.7895 0.7890 0.7885 0.7880
2027.702261 0.7870 0.7860 0.7855 0.7850 0.7840
2032.478381 0.7830 0.7810 0.7790 0.7785 0.7780
2037.254501 0.7780 0.7780 0.7780 0.7780 0.7785
2042.030621 0.7790 0.7795 0.7800 0.7810 0.7820
2046.806741 0.7825 0.7830 0.7835 0.7840 0.7845
2051.582861 0.7851 0.7866 0.7880 0.7890 0.7902
2056.358982 0.7937 0.7971 0.7986 0.8000 0.8000
2061.135102 0.8000 0.8005 0.8012 0.8042 0.8071
2065.911222 0.8086 0.8101 0.8116 0.8131 0.8141
2070.687342 0.8151 0.8171 0.8191 0.8201 0.8210
2075.463462 0.8215 0.8220 0.8220 0.8220 0.8220
2080.239582 0.8221 0.8236 0.8250 0.8255 0.8260
2085.015703 0.8265 0.8270 0.8275 0.8280 0.8280
2089.791823 0.8280 0.8285 0.8290 0.8290 0.8290
2094.567943 0.8290 0.8290 0.8290 0.8290 0.8290
2099.344063 0.8290 0.8290 0.8290 0.8290 0.8290
2104.120183 0.8290 0.8290 0.8290 0.8290 0.8290
2108.896303 0.8290 0.8290 0.8290 0.8290 0.8290
2113.672424 0.8290 0.8290 0.8290 0.8290 0.8290
2118.448544 0.8289 0.8284 0.8280 0.8280 0.8280
2123.224664 0.8280 0.8280 0.8280 0.8280 0.8280
2128.000784 0.8280 0.8280 0.8280 0.8280 0.8280
2132.776904 0.8280 0.8280 0.8280 0.8280 0.8280
2137.553024 0.8280 0.8280 0.8280 0.8280 0.8280
2142.329145 0.8280 0.8281 0.8286 0.8290 0.8290
2147.105265 0.8289 0.8284 0.8280 0.8280 0.8280
2151.881385 0.8280 0.8280 0.8280 0.8280 0.8280
2156.657505 0.8280 0.8280 0.8280 0.8280 0.8280
2161.433625 0.8280 0.8280 0.8280 0.8280 0.8280
2166.209745 0.8280 0.8280 0.8280 0.8280 0.8280
2170.985866 0.8280 0.8280 0.8280 0.8280 0.8280
2175.761986 0.8280 0.8280 0.8280 0.8280 0.8280
2180.538106 0.8280 0.8280 0.8280 0.8280 0.8280
2185.314226 0.8281 0.8286 0.8290 0.8290 0.8290
2190.090346 0.8290 0.8290 0.8290 0.8290 0.8290
2194.866466 0.8291 0.8296 0.8300 0.8300 0.8299
2199.642587 0.8294 0.8289 0.8284 0.8279 0.8274
2204.418707 0.8270 0.8270 0.8269 0.8264 0.8257
2209.194827 0.8242 0.8229 0.8224 0.8220 0.8220
2213.970947 0.8220 0.8220 0.8220 0.8220 0.8218
2218.747067 0.8208 0.8200 0.8200 0.8199 0.8194
2223.523187 0.8188 0.8178 0.8169 0.8164 0.8159
2228.299308 0.8154 0.8150 0.8150 0.8150 0.8150
2233.075428 0.8150 0.8150 0.8150 0.8150 0.8150
2237.851548 0.8150 0.8150 0.8150 0.8150 0.8150
2242.627668 0.8150 0.8150 0.8150 0.8150 0.8150
