##TITLE=2-IMIDAZOLIDINETHIONE
##JCAMP-DX=4.24
##DATA TYPE=INFRARED SPECTRUM
##CLASS=COBLENTZ III
##ORIGIN=DOW CHEMICAL COMPANY
##OWNER=COBLENTZ SOCIETY
Collection (C) 2018 copyright by the U.S. Secretary of Commerce
on behalf of the United States of America. All rights reserved.
##DATE=1962/05/28
##CAS REGISTRY NO=96-45-7
##MOLFORM=C3 H6 N2 S
##MP=191 C
##SOURCE REFERENCE=COBLENTZ NO. 10622
##$NIST SOURCE=COBLENTZ
##$NIST IMAGE=cob10622
##SPECTROMETER/DATA SYSTEM=DOW KBr FOREPRISM-GRATING
##INSTRUMENT PARAMETERS=BLAZED AT 3.5, 12.0, 20.0 MICRON, CHANGED AT 5.0, 7.5, 14.9 MICRON
##STATE=SOLID (SPLIT MULL, FLUOROLUBE FOR 3800-1333 AND NUJOL FOR 1333-400 CM ^-^1)
##PATH LENGTH=
$$SPECTRAL CONTAMINATION DUE TO OIL AROUND 721 CM^-^1
##SAMPLING PROCEDURE=TRANSMISSION
##RESOLUTION=4
##DATA PROCESSING=DIGITIZED BY NIST FROM HARD COPY (FROM TWO SEGMENTS)
##XUNITS=1/CM
##YUNITS=TRANSMITTANCE
##XFACTOR=1.000000
##YFACTOR=1
##DELTAX=0.933419
##FIRSTX=452.396
##LASTX=3785.64
##FIRSTY=0.796
##MAXX=3785.64
##MINX=452.396
##MAXY=0.976
##MINY=0.133009
##NPOINTS=3572
##XYDATA=(X++(Y..Y))
452.396000 0.7960 0.7970 0.7970 0.7970 0.7990
457.063095 0.7990 0.7990 0.8000 0.8000 0.8020
461.730191 0.8030 0.8030 0.8030 0.8050 0.8050
466.397286 0.8050 0.8050 0.8050 0.8050 0.8050
471.064382 0.8050 0.8050 0.8050 0.8050 0.8050
475.731477 0.8050 0.8050 0.8050 0.8050 0.8050
480.398572 0.8030 0.8030 0.8030 0.8030 0.8030
485.065668 0.8020 0.8020 0.8000 0.8000 0.7990
489.732763 0.7970 0.7960 0.7950 0.7930 0.7900
494.399859 0.7890 0.7830 0.7810 0.7770 0.7740
499.066954 0.7680 0.7610 0.7550 0.7480 0.7420
503.734049 0.7360 0.7201 0.7001 0.6910 0.6830
508.401145 0.6650 0.6320 0.5241 0.4980 0.4980
513.068240 0.5100 0.5339 0.5629 0.7113 0.7468
517.735336 0.7640 0.7790 0.7840 0.7870 0.7890
522.402431 0.7890 0.7900 0.7900 0.7900 0.7900
527.069527 0.7900 0.7900 0.7900 0.7900 0.7900
531.736622 0.7900 0.7900 0.7900 0.7900 0.7900
536.403717 0.7890 0.7890 0.7890 0.7870 0.7870
541.070813 0.7870 0.7860 0.7860 0.7840 0.7830
545.737908 0.7830 0.7810 0.7810 0.7800 0.7800
550.405004 0.7770 0.7770 0.7760 0.7740 0.7730
555.072099 0.7700 0.7650 0.7630 0.7610 0.7580
559.739194 0.7550 0.7500 0.7480 0.7440 0.7390
564.406290 0.7360 0.7290 0.7250 0.7220 0.7100
569.073385 0.7040 0.6990 0.6910 0.6800 0.6770
573.740481 0.6620 0.6550 0.6450 0.6320 0.6170
578.407576 0.6060 0.5970 0.5880 0.5751 0.5650
583.074671 0.5610 0.5490 0.5390 0.5340 0.5260
587.741767 0.5180 0.5140 0.5130 0.5130 0.5110
592.408862 0.5110 0.5130 0.5130 0.5140 0.5150
597.075958 0.5180 0.5230 0.5260 0.5340 0.5400
601.743053 0.5460 0.5500 0.5560 0.5620 0.5630
606.410148 0.5720 0.5780 0.5870 0.5930 0.6040
611.077244 0.6160 0.6290 0.6330 0.6450 0.6580
615.744339 0.6680 0.6780 0.6860 0.7069 0.7120
620.411435 0.7250 0.7320 0.7380 0.7440 0.7520
625.078530 0.7580 0.7640 0.7700 0.7760 0.7800
629.745625 0.7900 0.7950 0.7960 0.7970 0.8000
634.412721 0.8030 0.8050 0.8080 0.8120 0.8130
639.079816 0.8180 0.8190 0.8210 0.8220 0.8220
643.746912 0.8220 0.8240 0.8240 0.8240 0.8240
648.414007 0.8240 0.8240 0.8240 0.8240 0.8220
653.081102 0.8220 0.8210 0.8190 0.8180 0.8160
657.748198 0.8150 0.8110 0.8060 0.8020 0.7960
662.415293 0.7950 0.7920 0.7810 0.7770 0.7710
667.082389 0.7570 0.7420 0.7320 0.7230 0.7130
671.749484 0.7100 0.7060 0.7000 0.6940 0.6781
676.416580 0.6590 0.6430 0.6260 0.6100 0.5900
681.083675 0.5720 0.5710 0.5710 0.5720 0.5770
685.750770 0.5810 0.5930 0.6060 0.6190 0.6330
690.417866 0.6510 0.6719 0.6810 0.7019 0.7090
695.084961 0.7220 0.7260 0.7310 0.7360 0.7440
699.752057 0.7480 0.7510 0.7520 0.7600 0.7610
704.419152 0.7630 0.7640 0.7640 0.7640 0.7640
709.086247 0.7630 0.7630 0.7600 0.7580 0.7570
713.753343 0.7520 0.7500 0.7450 0.7440 0.7410
718.420438 0.7350 0.7260 0.7190 0.7180 0.7190
723.087534 0.7200 0.7220 0.7230 0.7260 0.7290
727.754629 0.7320 0.7350 0.7410 0.7440 0.7450
732.421724 0.7470 0.7500 0.7510 0.7520 0.7540
737.088820 0.7570 0.7580 0.7600 0.7610 0.7630
741.755915 0.7640 0.7650 0.7680 0.7700 0.7710
746.423011 0.7740 0.7760 0.7770 0.7770 0.7790
751.090106 0.7800 0.7800 0.7810 0.7830 0.7840
755.757201 0.7860 0.7860 0.7870 0.7890 0.7890
760.424297 0.7900 0.7900 0.7920 0.7920 0.7920
765.091392 0.7920 0.7930 0.7950 0.7950 0.7950
769.758488 0.7960 0.7960 0.7970 0.7970 0.7990
774.425583 0.7990 0.7990 0.8000 0.8000 0.8020
779.092678 0.8020 0.8030 0.8050 0.8050 0.8060
783.759774 0.8060 0.8080 0.8080 0.8090 0.8090
788.426869 0.8110 0.8110 0.8120 0.8120 0.8130
793.093965 0.8150 0.8150 0.8150 0.8150 0.8150
797.761060 0.8160 0.8160 0.8160 0.8160 0.8160
802.428156 0.8160 0.8180 0.8180 0.8180 0.8180
807.095251 0.8180 0.8180 0.8180 0.8180 0.8180
811.762346 0.8160 0.8160 0.8160 0.8160 0.8160
816.429442 0.8160 0.8160 0.8160 0.8160 0.8160
821.096537 0.8160 0.8160 0.8160 0.8160 0.8160
825.763633 0.8160 0.8160 0.8160 0.8160 0.8160
830.430728 0.8160 0.8160 0.8160 0.8160 0.8160
835.097823 0.8160 0.8150 0.8150 0.8150 0.8150
839.764919 0.8130 0.8130 0.8130 0.8130 0.8130
844.432014 0.8130 0.8130 0.8150 0.8150 0.8150
849.099110 0.8150 0.8150 0.8160 0.8160 0.8160
853.766205 0.8160 0.8160 0.8180 0.8180 0.8180
858.433300 0.8180 0.8180 0.8180 0.8180 0.8180
863.100396 0.8180 0.8180 0.8180 0.8180 0.8180
867.767491 0.8180 0.8180 0.8180 0.8180 0.8180
872.434587 0.8180 0.8180 0.8160 0.8160 0.8160
877.101682 0.8160 0.8160 0.8160 0.8160 0.8150
881.768777 0.8130 0.8130 0.8130 0.8120 0.8120
886.435873 0.8120 0.8120 0.8120 0.8120 0.8110
891.102968 0.8090 0.8090 0.8080 0.8080 0.8080
895.770064 0.8080 0.8060 0.8060 0.8060 0.8060
900.437159 0.8050 0.8050 0.8050 0.8030 0.8020
905.104254 0.8000 0.8000 0.7990 0.7970 0.7960
909.771350 0.7950 0.7920 0.7890 0.7840 0.7810
914.438445 0.7770 0.7680 0.7580 0.7470 0.7341
919.105541 0.7160 0.7020 0.6860 0.6260 0.4921
923.772636 0.4920 0.5619 0.6109 0.7535 0.7729
928.439731 0.7810 0.7930 0.7990 0.8030 0.8050
933.106827 0.8060 0.8060 0.8060 0.8060 0.8060
937.773922 0.8060 0.8060 0.8060 0.8060 0.8060
942.441018 0.8050 0.8050 0.8050 0.8050 0.8030
947.108113 0.8030 0.8030 0.8030 0.8020 0.8000
951.775209 0.8000 0.8000 0.8000 0.7990 0.7990
956.442304 0.7970 0.7970 0.7970 0.7960 0.7960
961.109399 0.7950 0.7950 0.7930 0.7920 0.7920
965.776495 0.7900 0.7890 0.7890 0.7870 0.7860
970.443590 0.7840 0.7830 0.7800 0.7800 0.7790
975.110686 0.7790 0.7790 0.7790 0.7790 0.7770
979.777781 0.7770 0.7770 0.7770 0.7770 0.7760
984.444876 0.7740 0.7740 0.7730 0.7700 0.7670
989.111972 0.7650 0.7610 0.7580 0.7540 0.7500
993.779067 0.7440 0.7380 0.7290 0.7230 0.7130
998.446163 0.7020 0.6970 0.6910 0.6671 0.6251
1003.113258 0.6029 0.5740 0.5710 0.5720 0.5880
1007.780353 0.6040 0.6320 0.7039 0.7180 0.7409
1012.447449 0.7470 0.7580 0.7640 0.7710 0.7740
1017.114544 0.7740 0.7740 0.7740 0.7740 0.7730
1021.781640 0.7710 0.7700 0.7700 0.7680 0.7670
1026.448735 0.7670 0.7670 0.7650 0.7650 0.7640
1031.115830 0.7640 0.7630 0.7610 0.7610 0.7600
1035.782926 0.7600 0.7580 0.7570 0.7550 0.7510
1040.450021 0.7500 0.7450 0.7420 0.7390 0.7340
1045.117117 0.7260 0.7180 0.7100 0.7090 0.7100
1049.784212 0.7150 0.7200 0.7280 0.7290 0.7340
1054.451307 0.7360 0.7380 0.7390 0.7410 0.7410
1059.118403 0.7410 0.7410 0.7390 0.7390 0.7390
1063.785498 0.7390 0.7380 0.7380 0.7360 0.7360
1068.452594 0.7350 0.7350 0.7340 0.7320 0.7320
1073.119689 0.7310 0.7310 0.7310 0.7310 0.7290
1077.786785 0.7290 0.7290 0.7290 0.7290 0.7290
1082.453880 0.7280 0.7280 0.7280 0.7280 0.7280
1087.120975 0.7280 0.7280 0.7280 0.7280 0.7280
1091.788071 0.7280 0.7280 0.7280 0.7260 0.7260
1096.455166 0.7260 0.7260 0.7260 0.7250 0.7250
1101.122262 0.7250 0.7250 0.7250 0.7250 0.7250
1105.789357 0.7250 0.7250 0.7260 0.7260 0.7260
1110.456452 0.7260 0.7260 0.7280 0.7290 0.7290
1115.123548 0.7310 0.7310 0.7310 0.7310 0.7320
1119.790643 0.7320 0.7340 0.7340 0.7340 0.7340
1124.457739 0.7340 0.7340 0.7320 0.7320 0.7310
1129.124834 0.7290 0.7260 0.7250 0.7230 0.7220
1133.791929 0.7200 0.7190 0.7180 0.7160 0.7150
1138.459025 0.7130 0.7100 0.7100 0.7070 0.7070
1143.126120 0.7060 0.7060 0.7040 0.7040 0.7030
1147.793216 0.7030 0.7020 0.7000 0.7000 0.7000
1152.460311 0.6990 0.6990 0.6970 0.6970 0.6960
1157.127406 0.6940 0.6940 0.6930 0.6910 0.6900
1161.794502 0.6870 0.6860 0.6840 0.6830 0.6810
1166.461597 0.6780 0.6780 0.6750 0.6740 0.6720
1171.128693 0.6700 0.6680 0.6640 0.6610 0.6580
1175.795788 0.6540 0.6520 0.6480 0.6450 0.6390
1180.462883 0.6320 0.6200 0.6160 0.6100 0.6040
1185.129979 0.6000 0.5950 0.5900 0.5840 0.5750
1189.797074 0.5630 0.5530 0.5400 0.5310 0.5200
1194.464170 0.5070 0.4890 0.4621 0.4430 0.4280
1199.131265 0.4040 0.3960 0.3890 0.3690 0.3590
1203.798360 0.3370 0.3020 0.2681 0.2391 0.2191
1208.465456 0.2160 0.2180 0.2230 0.2390 0.2520
1213.132551 0.2740 0.2950 0.3279 0.3539 0.4118
1217.799647 0.4441 0.4881 0.5141 0.5470 0.5690
1222.466742 0.5900 0.6060 0.6220 0.6380 0.6480
1227.133838 0.6560 0.6610 0.6670 0.6740 0.6780
1231.800933 0.6810 0.6860 0.6880 0.6910 0.6910
1236.468028 0.6910 0.6900 0.6900 0.6900 0.6880
1241.135124 0.6880 0.6880 0.6870 0.6870 0.6870
1245.802219 0.6840 0.6830 0.6810 0.6800 0.6770
1250.469315 0.6740 0.6700 0.6670 0.6640 0.6590
1255.136410 0.6510 0.6450 0.6400 0.6350 0.6300
1259.803505 0.6200 0.6140 0.6040 0.6000 0.5910
1264.470601 0.5790 0.5740 0.5610 0.5490 0.5370
1269.137696 0.5170 0.4980 0.4750 0.4530 0.4251
1273.804792 0.4079 0.3899 0.3509 0.3080 0.2810
1278.471887 0.2710 0.2710 0.2770 0.2810 0.2900
1283.138982 0.2960 0.3060 0.3210 0.3451 0.4080
1287.806078 0.4570 0.5070 0.5290 0.5470 0.5490
1292.473173 0.5490 0.5470 0.5450 0.5400 0.5370
1297.140269 0.5340 0.5240 0.5130 0.4910 0.4790
1301.807364 0.4700 0.4590 0.4430 0.4270 0.4150
1306.474459 0.4010 0.3980 0.3930 0.3790 0.3760
1311.141555 0.3760 0.3770 0.3790 0.3820 0.3880
1315.808650 0.4080 0.4180 0.4330 0.4490 0.4699
1320.475746 0.5000 0.5130 0.5260 0.5420 0.5530
1325.142841 0.5680 0.5870 0.5970 0.6070 0.6220
1329.809936 0.6330 0.6430 0.6480 0.6540 0.6610
1334.477032 0.6620 0.6650 0.6650 0.6670 0.6670
1339.144127 0.6670 0.6670 0.6670 0.6670 0.6680
1343.811223 0.6680 0.6700 0.6710 0.6740 0.6750
1348.478318 0.6780 0.6830 0.6870 0.6900 0.6900
1353.145414 0.6900 0.6880 0.6870 0.6860 0.6830
1357.812509 0.6750 0.6650 0.6480 0.6230 0.6000
1362.479604 0.5880 0.5880 0.5930 0.6000 0.6130
1367.146700 0.6200 0.6200 0.6000 0.5870 0.5740
1371.813795 0.5300 0.5270 0.5300 0.5470 0.5689
1376.480891 0.7161 0.7450 0.7650 0.7800 0.7870
1381.147986 0.7920 0.7930 0.7950 0.7950 0.7950
1385.815081 0.7930 0.7900 0.7900 0.7890 0.7870
1390.482177 0.7860 0.7830 0.7810 0.7800 0.7800
1395.149272 0.7790 0.7790 0.7770 0.7760 0.7760
1399.816368 0.7730 0.7710 0.7700 0.7700 0.7680
1404.483463 0.7670 0.7650 0.7640 0.7610 0.7600
1409.150558 0.7580 0.7550 0.7540 0.7520 0.7480
1413.817654 0.7470 0.7440 0.7420 0.7410 0.7410
1418.484749 0.7350 0.7340 0.7320 0.7290 0.7280
1423.151845 0.7250 0.7230 0.7220 0.7190 0.7160
1427.818940 0.7150 0.7100 0.7090 0.7060 0.7000
1432.486035 0.7000 0.6990 0.6960 0.6910 0.6860
1437.153131 0.6810 0.6720 0.6650 0.6640 0.6590
1441.820226 0.6490 0.6450 0.6350 0.6300 0.6190
1446.487322 0.6100 0.5940 0.5790 0.5630 0.5500
1451.154417 0.5400 0.5269 0.5080 0.4949 0.4649
1455.821512 0.4040 0.3800 0.3570 0.3540 0.3570
1460.488608 0.3610 0.3640 0.3660 0.3630 0.3560
1465.155703 0.3440 0.3440 0.3600 0.4299 0.4629
1469.822799 0.4981 0.5311 0.5591 0.6380 0.6390
1474.489894 0.6380 0.6320 0.6290 0.6070 0.5791
1479.156989 0.5579 0.5369 0.4939 0.4340 0.4170
1483.824085 0.4180 0.4600 0.4660 0.4620 0.4490
1488.491180 0.4219 0.3957 0.3059 0.2550 0.2440
1493.158276 0.2420 0.2410 0.2390 0.1901 0.1521
1497.825371 0.1350 0.1330 0.1361 0.1610 0.1870
1502.492467 0.2120 0.2500 0.3030 0.4139 0.4150
1507.159562 0.4140 0.4110 0.4060 0.4010 0.3950
1511.826657 0.3760 0.3510 0.3130 0.2870 0.2551
1516.493753 0.2189 0.1900 0.1870 0.1860 0.1860
1521.160848 0.1860 0.1870 0.1880 0.1910 0.2030
1525.827944 0.2151 0.2470 0.2581 0.2921 0.3221
1530.495039 0.3531 0.3990 0.4370 0.4690 0.5139
1535.162134 0.5631 0.5951 0.6141 0.6391 0.7101
1539.829230 0.7670 0.7920 0.8110 0.8160 0.8290
1544.496325 0.8380 0.8480 0.8610 0.8720 0.8760
1549.163421 0.8790 0.8890 0.8990 0.9080 0.9110
1553.830516 0.9150 0.9220 0.9310 0.9370 0.9410
1558.497611 0.9530 0.9540 0.9570 0.9590 0.9600
1563.164707 0.9620 0.9650 0.9690 0.9700 0.9720
1567.831802 0.9730 0.9750 0.9750 0.9760 0.9760
1572.498898 0.9760 0.9760 0.9760 0.9760 0.9760
1577.165993 0.9750 0.9750 0.9750 0.9730 0.9730
1581.833088 0.9730 0.9730 0.9720 0.9720 0.9700
1586.500184 0.9700 0.9690 0.9690 0.9680 0.9680
1591.167279 0.9680 0.9660 0.9660 0.9650 0.9650
1595.834375 0.9630 0.9630 0.9620 0.9600 0.9590
1600.501470 0.9570 0.9570 0.9560 0.9540 0.9540
1605.168565 0.9530 0.9530 0.9530 0.9530 0.9520
1609.835661 0.9520 0.9520 0.9520 0.9520 0.9520
1614.502756 0.9500 0.9500 0.9500 0.9500 0.9500
1619.169852 0.9500 0.9490 0.9490 0.9490 0.9490
1623.836947 0.9490 0.9500 0.9500 0.9500 0.9520
1628.504043 0.9520 0.9520 0.9530 0.9530 0.9540
1633.171138 0.9560 0.9560 0.9570 0.9570 0.9570
1637.838233 0.9590 0.9590 0.9590 0.9590 0.9590
1642.505329 0.9600 0.9600 0.9600 0.9590 0.9590
1647.172424 0.9560 0.9540 0.9540 0.9530 0.9520
1651.839520 0.9490 0.9460 0.9410 0.9370 0.9340
1656.506615 0.9330 0.9330 0.9310 0.9300 0.9270
1661.173710 0.9240 0.9210 0.9200 0.9170 0.9170
1665.840806 0.9150 0.9150 0.9140 0.9140 0.9120
1670.507901 0.9120 0.9110 0.9110 0.9090 0.9060
1675.174997 0.9050 0.9040 0.9040 0.9020 0.9010
1679.842092 0.8980 0.8960 0.8960 0.8930 0.8930
1684.509187 0.8920 0.8900 0.8900 0.8890 0.8880
1689.176283 0.8880 0.8860 0.8860 0.8850 0.8850
1693.843378 0.8820 0.8800 0.8790 0.8770 0.8760
1698.510474 0.8750 0.8730 0.8720 0.8720 0.8700
1703.177569 0.8700 0.8690 0.8670 0.8670 0.8660
1707.844664 0.8660 0.8630 0.8610 0.8600 0.8590
1712.511760 0.8590 0.8570 0.8570 0.8570 0.8570
1717.178855 0.8570 0.8570 0.8570 0.8570 0.8590
1721.845951 0.8600 0.8600 0.8610 0.8630 0.8660
1726.513046 0.8660 0.8670 0.8670 0.8690 0.8690
1731.180141 0.8700 0.8700 0.8700 0.8700 0.8700
1735.847237 0.8700 0.8700 0.8700 0.8700 0.8700
1740.514332 0.8690 0.8690 0.8670 0.8670 0.8670
1745.181428 0.8670 0.8670 0.8660 0.8660 0.8660
1749.848523 0.8640 0.8640 0.8630 0.8630 0.8630
1754.515619 0.8630 0.8630 0.8610 0.8610 0.8610
1759.182714 0.8600 0.8600 0.8600 0.8590 0.8590
1763.849809 0.8590 0.8570 0.8570 0.8570 0.8560
1768.516905 0.8560 0.8560 0.8540 0.8540 0.8530
1773.184000 0.8530 0.8510 0.8510 0.8510 0.8500
1777.851096 0.8500 0.8480 0.8480 0.8480 0.8470
1782.518191 0.8470 0.8450 0.8450 0.8450 0.8440
1787.185286 0.8440 0.8430 0.8430 0.8430 0.8430
1791.852382 0.8430 0.8430 0.8410 0.8410 0.8410
1796.519477 0.8410 0.8410 0.8400 0.8400 0.8400
1801.186573 0.8400 0.8400 0.8400 0.8400 0.8400
1805.853668 0.8400 0.8380 0.8380 0.8370 0.8370
1810.520763 0.8370 0.8370 0.8350 0.8350 0.8350
1815.187859 0.8340 0.8340 0.8340 0.8320 0.8320
1819.854954 0.8310 0.8310 0.8310 0.8310 0.8310
1824.522050 0.8310 0.8310 0.8310 0.8310 0.8290
1829.189145 0.8290 0.8290 0.8290 0.8290 0.8290
1833.856240 0.8290 0.8290 0.8290 0.8290 0.8290
1838.523336 0.8280 0.8280 0.8280 0.8270 0.8250
1843.190431 0.8250 0.8250 0.8250 0.8240 0.8240
1847.857527 0.8240 0.8240 0.8220 0.8220 0.8220
1852.524622 0.8220 0.8210 0.8210 0.8210 0.8210
1857.191717 0.8190 0.8190 0.8190 0.8180 0.8180
1861.858813 0.8180 0.8180 0.8160 0.8160 0.8160
1866.525908 0.8150 0.8150 0.8150 0.8150 0.8150
1871.193004 0.8150 0.8150 0.8150 0.8150 0.8150
1875.860099 0.8150 0.8130 0.8130 0.8130 0.8130
1880.527194 0.8130 0.8130 0.8130 0.8130 0.8130
1885.194290 0.8130 0.8130 0.8130 0.8120 0.8120
1889.861385 0.8120 0.8120 0.8120 0.8120 0.8110
1894.528481 0.8110 0.8110 0.8110 0.8110 0.8110
1899.195576 0.8110 0.8090 0.8090 0.8090 0.8090
1903.862672 0.8090 0.8090 0.8080 0.8080 0.8080
1908.529767 0.8080 0.8080 0.8080 0.8060 0.8060
1913.196862 0.8060 0.8060 0.8060 0.8060 0.8060
1917.863958 0.8060 0.8060 0.8060 0.8050 0.8050
1922.531053 0.8050 0.8050 0.8030 0.8030 0.8030
1927.198149 0.8030 0.8030 0.8030 0.8030 0.8030
1931.865244 0.8020 0.8020 0.8020 0.8020 0.8020
1936.532339 0.8020 0.8020 0.8020 0.8000 0.8000
1941.199435 0.8000 0.8000 0.8000 0.8000 0.8000
1945.866530 0.8000 0.8000 0.7990 0.7990 0.7990
1950.533626 0.7990 0.7990 0.7990 0.7990 0.7990
1955.200721 0.7990 0.7990 0.7970 0.7970 0.7970
1959.867816 0.7970 0.7970 0.7960 0.7960 0.7960
1964.534912 0.7960 0.7960 0.7950 0.7950 0.7950
1969.202007 0.7950 0.7930 0.7930 0.7930 0.7930
1973.869103 0.7950 0.7950 0.7950 0.7950 0.7950
1978.536198 0.7950 0.7950 0.7950 0.7960 0.7960
1983.203293 0.7960 0.7960 0.7960 0.7960 0.7960
1987.870389 0.7960 0.7960 0.7960 0.7960 0.7960
1992.537484 0.7960 0.7960 0.7960 0.7960 0.7960
1997.204580 0.7960 0.7960 0.7960 0.7960 0.7960
2001.871675 0.7960 0.7960 0.7960 0.7955 0.7950
2006.538770 0.7950 0.7950 0.7950 0.7950 0.7950
2011.205866 0.7950 0.7940 0.7930 0.7930 0.7930
2015.872961 0.7930 0.7930 0.7930 0.7930 0.7925
2020.540057 0.7920 0.7920 0.7920 0.7920 0.7920
2025.207152 0.7910 0.7900 0.7900 0.7900 0.7900
2029.874248 0.7900 0.7895 0.7890 0.7890 0.7890
2034.541343 0.7890 0.7890 0.7879 0.7870 0.7865
2039.208438 0.7860 0.7860 0.7859 0.7849 0.7840
2043.875534 0.7840 0.7840 0.7835 0.7830 0.7830
2048.542629 0.7829 0.7819 0.7810 0.7810 0.7810
2053.209725 0.7805 0.7800 0.7800 0.7800 0.7795
2057.876820 0.7790 0.7790 0.7789 0.7779 0.7770
2062.543915 0.7765 0.7759 0.7749 0.7740 0.7740
2067.211011 0.7740 0.7735 0.7730 0.7730 0.7729
2071.878106 0.7719 0.7710 0.7710 0.7709 0.7704
2076.545202 0.7699 0.7689 0.7680 0.7680 0.7679
2081.212297 0.7674 0.7670 0.7670 0.7669 0.7659
2085.879392 0.7649 0.7644 0.7640 0.7640 0.7639
2090.546488 0.7634 0.7630 0.7630 0.7629 0.7619
2095.213583 0.7610 0.7610 0.7609 0.7604 0.7600
2099.880679 0.7600 0.7598 0.7588 0.7579 0.7574
2104.547774 0.7570 0.7570 0.7568 0.7558 0.7550
2109.214869 0.7550 0.7549 0.7544 0.7540 0.7540
2113.881965 0.7538 0.7528 0.7520 0.7520 0.7519
2118.549060 0.7514 0.7510 0.7510 0.7509 0.7504
2123.216156 0.7498 0.7488 0.7480 0.7480 0.7479
2127.883251 0.7474 0.7470 0.7470 0.7470 0.7470
2132.550346 0.7470 0.7470 0.7468 0.7458 0.7449
2137.217442 0.7444 0.7440 0.7440 0.7438 0.7428
2141.884537 0.7419 0.7414 0.7410 0.7410 0.7408
2146.551633 0.7398 0.7389 0.7384 0.7380 0.7380
2151.218728 0.7378 0.7368 0.7359 0.7354 0.7350
2155.885823 0.7350 0.7346 0.7331 0.7320 0.7320
2160.552919 0.7319 0.7314 0.7310 0.7310 0.7308
2165.220014 0.7298 0.7290 0.7290 0.7286 0.7271
2169.887110 0.7260 0.7260 0.7259 0.7254 0.7247
2174.554205 0.7237 0.7229 0.7224 0.7220 0.7220
2179.221301 0.7217 0.7207 0.7199 0.7194 0.7189
2183.888396 0.7184 0.7180 0.7180 0.7177 0.7167
2188.555491 0.7159 0.7154 0.7147 0.7137 0.7130
2193.222587 0.7130 0.7129 0.7124 0.7117 0.7107
2197.889682 0.7099 0.7094 0.7090 0.7090 0.7090
2202.556778 0.7090 0.7087 0.7077 0.7070 0.7070
2207.223873 0.7068 0.7063 0.7060 0.7060 0.7057
2211.890968 0.7047 0.7040 0.7040 0.7040 0.7040
2216.558064 0.7038 0.7033 0.7030 0.7030 0.7030
2221.225159 0.7030 0.7028 0.7023 0.7017 0.7007
2225.892255 0.7000 0.7000 0.7000 0.7000 0.6998
2230.559350 0.6993 0.6986 0.6976 0.6968 0.6963
2235.226445 0.6956 0.6946 0.6938 0.6933 0.6930
2239.893541 0.6930 0.6926 0.6916 0.6908 0.6903
2244.560636 0.6896 0.6886 0.6878 0.6873 0.6868
2249.227732 0.6863 0.6856 0.6846 0.6838 0.6833
2253.894827 0.6826 0.6816 0.6810 0.6810 0.6808
2258.561922 0.6803 0.6800 0.6800 0.6796 0.6786
2263.229018 0.6780 0.6780 0.6778 0.6773 0.6766
2267.896113 0.6756 0.6750 0.6750 0.6748 0.6743
2272.563209 0.6740 0.6740 0.6736 0.6726 0.6720
2277.230304 0.6720 0.6718 0.6713 0.6708 0.6703
2281.897399 0.6696 0.6686 0.6680 0.6680 0.6678
2286.564495 0.6673 0.6670 0.6670 0.6666 0.6656
2291.231590 0.6650 0.6650 0.6648 0.6643 0.6640
2295.898686 0.6640 0.6636 0.6625 0.6620 0.6620
2300.565781 0.6618 0.6613 0.6610 0.6610 0.6610
2305.232877 0.6610 0.6610 0.6610 0.6610 0.6610
2309.899972 0.6610 0.6610 0.6610 0.6610 0.6610
2314.567067 0.6610 0.6610 0.6610 0.6610 0.6610
2319.234163 0.6610 0.6610 0.6605 0.6595 0.6590
2323.901258 0.6590 0.6590 0.6590 0.6588 0.6583
2328.568354 0.6580 0.6580 0.6580 0.6580 0.6580
2333.235449 0.6580 0.6575 0.6565 0.6560 0.6560
